timestamps,TP9,AF7,AF8,TP10,Right AUX,Marker0
1610554189.403,-934.570,62.012,655.273,279.785,-150.879,0
1610554189.407,592.773,61.523,493.164,166.992,-100.586,0
1610554189.411,-599.121,53.711,-75.195,-115.234,-318.359,0
1610554189.415,-987.793,45.410,-359.375,-198.242,-530.762,0
1610554189.419,-43.457,47.852,65.430,54.199,-434.570,0
1610554189.423,-997.559,53.711,497.070,270.508,-163.086,0
1610554189.427,702.637,60.547,411.621,168.457,-121.094,0
1610554189.430,-471.191,59.082,64.453,-113.770,-309.082,0
1610554189.434,-1000.000,47.363,-313.477,-230.957,-532.227,0
1610554189.438,-240.234,48.828,-78.125,-13.184,-526.367,0
1610554189.442,907.715,59.082,573.730,254.395,-243.164,0
1610554189.446,756.836,61.523,632.324,196.777,-127.930,0
1610554189.448,-403.809,55.176,111.816,-71.777,-303.223,0
1610554189.452,-1000.000,43.945,-400.879,-228.027,-599.121,0
1610554189.456,-413.574,45.410,-145.508,-54.199,-632.324,0
1610554189.460,787.598,52.734,541.504,242.188,-362.793,0
1610554189.464,835.449,57.129,622.559,218.262,-232.422,0
1610554189.468,-295.410,53.711,100.586,-50.293,-366.699,0
1610554189.472,-1000.000,44.922,-380.859,-232.422,-647.461,0
1610554189.475,-532.715,46.875,-115.234,-90.332,-669.922,0
1610554189.479,676.758,51.758,415.039,202.148,-436.035,0
1610554189.483,934.082,50.293,471.680,211.426,-312.500,0
1610554189.487,-90.332,46.875,241.211,-32.715,-380.859,0
1610554189.491,-1000.000,41.016,-226.074,-248.047,-631.836,0
1610554189.494,-625.977,39.062,-304.199,-151.367,-760.742,0
1610554189.498,583.984,42.969,290.039,145.996,-550.781,0
1610554189.502,-989.746,44.434,610.352,212.402,-347.168,0
1610554189.506,54.199,41.504,336.914,7.812,-378.418,0
1610554189.510,-961.426,32.227,-312.012,-243.164,-656.738,0
1610554189.514,-721.191,34.668,-425.293,-163.086,-795.410,0
1610554189.518,436.523,47.363,242.188,143.555,-585.449,0
1610554189.521,-934.082,54.199,691.895,232.910,-350.098,0
1610554189.525,233.887,47.363,308.105,49.805,-372.559,0
1610554189.529,-879.883,34.668,-328.125,-228.027,-644.531,0
1610554189.533,-804.688,34.668,-257.324,-206.543,-758.301,0
1610554189.537,301.758,42.480,245.605,88.867,-583.496,0
1610554189.538,-914.551,46.875,596.680,238.770,-367.188,0
1610554189.542,402.832,47.363,443.359,90.332,-351.562,0
1610554189.546,-767.090,37.109,-105.469,-208.496,-577.148,0
1610554189.550,-889.160,29.297,-380.859,-217.773,-756.348,0
1610554189.554,139.648,36.621,56.152,83.984,-634.766,0
1610554189.558,-937.988,49.316,576.660,264.648,-370.117,0
1610554189.562,535.645,46.875,479.492,129.395,-311.035,0
1610554189.565,-661.133,36.621,-113.281,-177.246,-549.805,0
1610554189.569,-974.121,32.227,-538.086,-237.305,-786.133,0
1610554189.573,-4.395,40.527,-17.090,24.902,-688.477,0
1610554189.577,-971.191,48.828,691.895,244.629,-416.504,0
1610554189.581,645.996,49.805,561.523,144.043,-335.449,0
1610554189.584,-539.551,45.898,-10.254,-137.207,-521.484,0
1610554189.588,-1000.000,37.598,-338.867,-230.957,-744.141,0
1610554189.592,-173.828,42.969,-38.086,-1.465,-708.984,0
1610554189.596,937.500,53.711,508.789,256.348,-461.914,0
1610554189.600,746.582,56.152,583.496,186.523,-342.285,0
1610554189.604,-408.691,48.340,23.926,-95.703,-513.184,0
1610554189.608,-1000.000,38.574,-374.512,-234.863,-757.812,0
1610554189.611,-339.355,39.551,-187.012,-41.016,-767.578,0
1610554189.615,848.145,53.223,337.891,245.117,-522.461,0
1610554189.619,825.195,59.570,670.898,206.055,-357.910,0
1610554189.623,-289.062,50.293,231.934,-67.871,-472.168,0
1610554189.627,-1000.000,36.133,-365.234,-229.492,-745.117,0
1610554189.628,-458.008,38.574,-196.777,-67.871,-792.480,0
1610554189.632,755.371,53.711,473.633,228.027,-518.066,0
1610554189.636,925.293,55.664,640.625,227.051,-333.496,0
1610554189.640,-87.891,50.781,183.594,-24.414,-437.988,0
1610554189.644,-1000.000,42.480,-303.711,-225.586,-693.359,0
1610554189.648,-583.496,37.598,-268.555,-116.211,-764.648,0
1610554189.652,639.160,45.898,286.621,187.500,-548.340,0
1610554189.655,-996.582,52.734,537.109,245.117,-366.699,0
1610554189.659,76.172,54.199,326.660,9.277,-393.555,0
1610554189.663,-952.637,43.945,-150.879,-241.699,-633.301,0
1610554189.667,-678.223,38.574,-293.457,-155.273,-759.277,0
1610554189.671,522.461,44.434,270.020,161.133,-548.340,0
1610554189.673,-941.895,48.828,692.871,235.352,-313.477,0
1610554189.677,218.750,45.898,421.387,30.762,-326.172,0
1610554189.681,-880.859,32.227,-312.988,-233.398,-636.719,0
1610554189.685,-759.277,29.297,-401.855,-187.988,-781.250,0
1610554189.689,384.766,40.039,302.734,107.910,-543.945,0
1610554189.693,-911.133,46.875,633.789,231.445,-328.125,0
1610554189.697,358.887,46.875,291.992,63.477,-351.074,0
1610554189.700,-794.922,37.598,-267.578,-229.004,-600.586,0
1610554189.704,-864.258,37.598,-292.969,-240.234,-760.742,0
1610554189.708,180.664,43.457,199.219,55.176,-604.980,0
1610554189.712,-935.547,49.316,632.324,226.074,-335.449,0
1610554189.716,519.043,52.734,498.535,102.051,-286.621,0
1610554189.719,-678.223,43.457,-95.215,-180.176,-537.598,0
1610554189.723,-948.730,34.668,-414.551,-235.352,-740.234,0
1610554189.727,31.250,38.574,-12.207,45.898,-626.953,0
1610554189.731,-969.238,48.828,605.957,250.000,-343.262,0
1610554189.735,602.539,53.223,584.961,131.348,-269.043,0
1610554189.739,-592.773,44.434,-66.406,-157.227,-484.863,0
1610554189.743,-1000.000,32.715,-519.531,-259.277,-732.422,0
1610554189.746,-134.277,41.504,-32.715,-14.648,-680.176,0
1610554189.750,958.984,53.711,677.246,240.234,-376.953,0
1610554189.754,699.707,53.711,597.168,152.832,-264.648,0
1610554189.758,-476.074,48.340,40.527,-140.137,-439.941,0
1610554189.762,-1000.000,40.039,-337.402,-258.301,-686.523,0
1610554189.778,-288.574,41.504,-51.758,-41.504,-655.762,0
1610554189.782,877.441,52.246,540.527,222.656,-354.004,0
1610554189.786,781.738,57.617,578.613,155.273,-250.488,0
1610554189.790,-369.629,52.734,127.441,-116.211,-412.598,0
1610554189.794,-1000.000,39.062,-362.793,-279.297,-675.293,0
1610554189.798,-462.402,34.180,-314.453,-123.047,-734.375,0
1610554189.802,735.352,44.434,292.969,171.387,-494.141,0
1610554189.805,861.816,52.246,670.898,152.832,-319.336,0
1610554189.809,-245.605,47.852,289.062,-119.629,-410.156,0
1610554189.813,-1000.000,40.039,-314.453,-316.406,-675.781,0
1610554189.817,-592.773,43.457,-214.844,-195.312,-736.328,0
1610554189.821,604.980,52.734,446.777,109.375,-460.938,0
1610554189.823,931.152,58.105,659.668,140.137,-258.301,0
1610554189.827,-140.137,52.246,210.938,-113.281,-357.422,0
1610554189.831,-1000.000,38.086,-329.590,-344.727,-638.672,0
1610554189.835,-671.875,35.645,-271.484,-231.445,-719.238,0
1610554189.839,487.793,46.387,297.852,84.961,-485.352,0
1610554189.843,-990.723,51.758,535.156,153.320,-280.762,0
1610554189.847,69.824,48.340,243.164,-62.500,-325.195,0
1610554189.850,-953.125,38.574,-312.988,-321.777,-612.793,0
1610554189.854,-751.465,34.180,-366.699,-244.141,-723.145,0
1610554189.858,373.047,42.480,91.309,78.125,-523.438,0
1610554189.862,-928.223,55.176,570.312,205.078,-282.227,0
1610554189.866,321.289,56.641,508.789,41.992,-237.305,0
1610554189.868,-818.848,39.062,-188.965,-243.164,-486.816,0
1610554189.872,-824.219,37.109,-375.488,-217.285,-638.184,0
1610554189.876,282.715,48.828,202.637,94.238,-448.242,0
1610554189.880,-907.227,54.688,654.785,257.324,-186.523,0
1610554189.884,490.234,57.617,394.531,109.375,-203.613,0
1610554189.888,-694.824,44.922,-239.258,-186.035,-464.844,0
1610554189.892,-890.137,36.621,-395.996,-204.590,-611.816,0
1610554189.895,185.059,44.434,128.906,78.125,-487.793,0
1610554189.899,-921.875,46.875,500.977,283.203,-263.184,0
1610554189.903,607.910,49.805,367.188,157.227,-223.145,0
1610554189.907,-572.754,47.852,-21.973,-138.672,-401.855,0
1610554189.911,-976.562,41.504,-323.730,-186.523,-584.961,0
1610554189.913,-3.906,45.898,-17.090,73.730,-520.508,0
1610554189.917,-979.492,54.688,551.758,302.734,-262.207,0
1610554189.921,692.383,57.129,581.543,190.430,-165.039,0
1610554189.925,-470.703,51.270,7.812,-104.492,-337.891,0
1610554189.929,-1000.000,43.945,-421.387,-194.824,-577.637,0
1610554189.933,-187.012,45.898,-156.250,20.508,-575.684,0
1610554189.937,938.477,56.152,473.633,286.133,-297.363,0
1610554189.940,787.109,58.594,551.270,229.004,-167.969,0
1610554189.944,-328.125,50.781,-43.457,-48.340,-346.191,0
1610554189.948,-1000.000,42.969,-393.555,-199.707,-593.262,0
1610554189.952,-337.891,46.875,-61.523,-26.367,-588.379,0
1610554189.956,847.656,58.105,517.578,284.668,-291.992,0
1610554189.960,863.281,63.965,631.836,259.766,-130.371,0
1610554189.964,-187.500,56.152,148.438,-7.812,-272.949,0
1610554189.968,-1000.000,45.410,-351.074,-179.688,-549.805,0
1610554189.972,-487.793,46.387,-280.762,-37.109,-611.328,0
1610554189.976,733.398,57.617,348.633,260.742,-346.680,0
1610554189.980,955.078,60.547,604.980,263.184,-150.879,0
1610554189.984,-11.719,53.223,204.590,6.348,-238.770,0
1610554189.987,-991.211,41.992,-413.086,-197.754,-528.320,0
1610554189.991,-583.496,41.992,-391.602,-93.262,-627.930,0
1610554189.995,642.578,52.246,382.812,219.727,-387.207,0
1610554189.999,-976.562,53.223,667.480,274.414,-161.621,0
1610554190.003,148.926,51.758,285.156,54.199,-200.195,0
1610554190.004,-911.133,41.992,-275.879,-184.570,-475.098,0
1610554190.008,-691.895,38.574,-295.898,-122.070,-583.496,0
1610554190.012,506.836,48.340,264.160,182.129,-368.652,0
1610554190.016,-923.828,53.711,578.125,268.066,-156.250,0
1610554190.020,313.477,50.293,320.801,75.195,-176.758,0
1610554190.024,-815.430,38.574,-252.441,-198.242,-430.176,0
1610554190.028,-778.809,36.621,-389.648,-155.762,-584.473,0
1610554190.031,361.328,41.992,22.949,157.227,-445.312,0
1610554190.035,-905.273,50.293,552.246,284.180,-194.336,0
1610554190.039,438.477,60.547,548.340,130.859,-145.508,0
1610554190.043,-732.422,54.688,-156.738,-158.691,-405.273,0
1610554190.047,-873.535,46.875,-408.691,-180.176,-594.727,0
1610554190.048,198.730,53.711,142.578,103.516,-436.035,0
1610554190.052,-919.922,60.059,625.488,274.414,-164.551,0
1610554190.056,562.500,57.129,476.074,149.414,-103.516,0
1610554190.060,-625.977,49.316,-96.680,-151.855,-323.730,0
1610554190.064,-953.613,44.922,-393.555,-202.637,-544.922,0
1610554190.068,29.297,51.270,-38.086,66.895,-465.820,0
1610554190.072,-977.539,56.641,429.199,258.789,-200.195,0
1610554190.075,655.762,56.152,356.934,167.969,-147.949,0
1610554190.079,-521.484,51.758,21.484,-123.535,-318.848,0
1610554190.083,-1000.000,41.504,-285.645,-226.562,-509.766,0
1610554190.087,-153.809,42.480,-55.664,15.625,-473.145,0
1610554190.091,942.871,49.316,522.461,272.461,-213.867,0
1610554190.093,751.465,52.734,581.055,205.566,-102.539,0
1610554190.097,-396.973,49.805,71.289,-67.383,-241.699,0
1610554190.101,-1000.000,43.457,-425.781,-213.379,-516.113,0
1610554190.105,-314.941,50.293,-147.461,-33.691,-530.273,0
1610554190.109,859.375,58.105,518.555,267.090,-243.652,0
1610554190.113,824.219,57.129,524.902,228.027,-125.977,0
1610554190.117,-283.203,52.246,-43.945,-53.223,-283.203,0
1610554190.120,-1000.000,50.293,-385.742,-219.727,-524.902,0
1610554190.124,-445.801,52.246,-125.488,-74.219,-557.617,0
1610554190.128,754.395,60.547,414.062,222.168,-298.340,0
1610554190.132,917.969,66.895,591.309,234.863,-122.070,0
1610554190.136,-111.328,63.965,222.656,-11.230,-227.051,0
1610554190.153,-1000.000,53.223,-294.434,-226.074,-482.910,0
1610554190.157,-553.223,48.340,-295.410,-111.816,-548.828,0
1610554190.161,664.062,56.152,270.508,215.332,-336.426,0
1610554190.165,995.117,62.988,622.559,261.719,-153.809,0
1610554190.169,102.051,61.035,291.504,11.719,-228.516,0
1610554190.173,-927.734,45.410,-428.711,-229.004,-521.973,0
1610554190.177,-653.809,44.434,-441.895,-142.090,-628.418,0
1610554190.180,557.617,63.477,364.746,173.340,-382.324,0
1610554190.184,-947.754,66.406,708.984,256.348,-148.926,0
1610554190.188,219.727,63.477,369.141,61.523,-157.227,0
1610554190.192,-873.535,52.246,-254.395,-209.961,-446.777,0
1610554190.196,-750.488,43.457,-340.820,-161.133,-614.258,0
1610554190.198,403.320,54.199,156.738,153.809,-438.965,0
1610554190.202,-908.203,63.965,541.504,268.066,-195.312,0
1610554190.206,407.227,64.453,399.902,88.379,-199.219,0
1610554190.210,-757.324,51.758,-166.992,-214.355,-460.938,0
1610554190.214,-833.984,38.574,-384.277,-189.453,-624.023,0
1610554190.218,264.160,45.410,40.527,107.910,-498.047,0
1610554190.222,-913.574,55.664,525.879,247.070,-263.184,0
1610554190.225,509.766,57.129,495.605,123.535,-209.473,0
1610554190.229,-671.387,43.945,-146.484,-172.852,-452.637,0
1610554190.233,-929.199,35.156,-549.805,-214.355,-676.758,0
1610554190.237,79.590,45.410,40.527,71.289,-551.270,0
1610554190.241,-955.566,56.152,658.203,269.531,-274.414,0
1610554190.243,614.258,59.082,503.906,163.086,-207.031,0
1610554190.247,-576.660,48.340,-65.430,-131.836,-406.738,0
1610554190.251,-999.023,41.992,-384.766,-226.562,-636.719,0
1610554190.255,-90.332,48.828,-83.984,16.602,-591.797,0
1610554190.259,969.727,56.641,414.551,263.672,-328.125,0
1610554190.263,724.121,57.129,480.957,183.594,-204.102,0
1610554190.267,-434.570,48.340,-7.324,-106.934,-379.883,0
1610554190.270,-1000.000,39.062,-399.902,-235.352,-639.648,0
1610554190.274,-265.625,37.109,-203.613,-31.738,-638.672,0
1610554190.278,875.000,49.316,375.977,266.602,-375.977,0
1610554190.282,812.012,58.594,663.086,216.309,-216.309,0
1610554190.286,-283.203,47.852,135.254,-79.590,-371.582,0
1610554190.288,-1000.000,41.504,-415.039,-235.840,-651.367,0
1610554190.292,-400.391,46.387,-168.945,-64.941,-653.809,0
1610554190.296,801.270,51.270,476.562,242.676,-383.301,0
1610554190.300,885.742,56.641,625.488,240.723,-218.262,0
1610554190.304,-148.438,55.664,151.855,-22.949,-332.520,0
1610554190.308,-1000.000,40.527,-388.184,-233.887,-609.375,0
1610554190.312,-519.043,42.480,-278.809,-109.375,-667.480,0
1610554190.315,701.172,57.617,345.703,215.332,-414.062,0
1610554190.319,962.402,58.105,469.238,232.910,-245.117,0
1610554190.323,15.137,54.199,184.570,-15.137,-318.359,0
1610554190.327,-967.773,43.457,-183.105,-228.027,-547.852,0
1610554190.331,-621.094,35.156,-270.508,-124.512,-642.090,0
1610554190.333,591.309,41.992,289.551,196.289,-420.410,0
1610554190.337,-967.773,49.316,679.199,269.043,-179.688,0
1610554190.341,179.688,49.316,337.402,56.152,-220.215,0
1610554190.345,-892.090,38.574,-313.477,-216.797,-499.512,0
1610554190.349,-710.449,33.203,-395.020,-161.621,-631.836,0
1610554190.353,462.891,41.016,116.211,150.879,-443.848,0
1610554190.357,-916.992,49.316,550.293,255.859,-203.125,0
1610554190.360,358.398,48.828,266.113,82.520,-226.074,0
1610554190.364,-794.434,39.062,-373.535,-198.242,-494.141,0
1610554190.368,-796.875,36.621,-404.297,-185.547,-642.578,0
1610554190.372,338.867,44.922,137.207,112.793,-495.605,0
1610554190.376,-900.879,50.293,580.566,252.930,-237.305,0
1610554190.378,495.117,57.617,461.426,118.652,-181.152,0
1610554190.382,-682.129,54.688,-72.266,-175.781,-398.926,0
1610554190.386,-895.996,42.480,-404.785,-211.914,-612.305,0
1610554190.390,146.973,47.852,29.297,82.031,-498.047,0
1610554190.394,-938.965,56.641,595.703,271.484,-222.656,0
1610554190.398,585.449,58.105,441.895,158.691,-183.594,0
1610554190.402,-602.539,49.316,-170.410,-150.391,-416.992,0
1610554190.405,-969.238,38.086,-553.711,-223.145,-662.109,0
1610554190.409,18.066,46.387,-49.316,41.016,-571.289,0
1610554190.413,-976.074,55.176,615.234,270.996,-285.156,0
1610554190.417,701.660,53.223,534.180,191.895,-177.734,0
1610554190.421,-455.078,46.875,-25.391,-98.145,-352.539,0
1610554190.424,-1000.000,39.551,-404.785,-206.543,-592.773,0
1610554190.428,-160.156,43.457,-59.082,16.602,-552.246,0
1610554190.432,941.406,53.223,449.219,269.531,-305.664,0
1610554190.436,780.273,58.594,517.090,205.078,-174.316,0
1610554190.440,-332.520,50.781,106.445,-75.195,-312.988,0
1610554190.444,-1000.000,40.527,-386.230,-219.238,-554.688,0
1610554190.448,-347.656,41.992,-270.020,-36.133,-562.988,0
1610554190.451,829.590,55.176,364.746,255.859,-298.340,0
1610554190.455,862.793,61.035,655.762,236.328,-145.996,0
1610554190.459,-183.105,48.828,186.523,-43.457,-264.648,0
1610554190.463,-1000.000,42.480,-390.137,-224.121,-550.293,0
1610554190.467,-469.238,50.781,-229.980,-77.148,-609.863,0
1610554190.468,750.977,60.547,465.820,229.492,-311.035,0
1610554190.472,937.012,63.965,634.766,253.418,-132.324,0
1610554190.476,-38.086,62.988,154.785,-7.812,-256.348,0
1610554190.480,-989.746,58.105,-368.652,-224.609,-533.203,0
1610554190.484,-586.914,51.758,-270.020,-120.117,-609.375,0
1610554190.488,631.348,53.223,266.602,190.430,-406.250,0
1610554190.492,-991.699,56.641,401.367,251.465,-241.699,0
1610554190.495,129.883,57.617,182.617,4.395,-275.391,0
1610554190.499,-907.715,50.781,-168.457,-243.652,-496.094,0
1610554190.503,-695.801,44.434,-264.648,-148.438,-601.562,0
1610554190.507,493.652,54.199,253.906,169.922,-414.062,0
1610554190.511,-935.547,63.965,650.879,261.719,-196.289,0
1610554190.528,278.320,63.477,380.371,62.988,-205.078,0
1610554190.532,-834.473,47.363,-304.688,-209.473,-509.766,0
1610554190.536,-769.043,41.992,-399.902,-170.898,-654.297,0
1610554190.540,366.211,54.199,235.352,130.859,-433.594,0
1610554190.544,-913.086,58.594,614.746,252.930,-214.355,0
1610554190.548,419.922,57.129,272.461,89.844,-225.098,0
1610554190.552,-743.652,50.781,-333.496,-190.918,-469.727,0
1610554190.555,-862.793,44.922,-378.418,-202.637,-639.160,0
1610554190.559,186.523,45.898,165.527,84.961,-487.793,0
1610554190.563,-936.523,51.758,551.758,254.883,-226.074,0
1610554190.567,530.273,60.059,463.379,114.746,-154.297,0
1610554190.571,-657.715,54.199,-43.945,-176.758,-392.090,0
1610554190.573,-958.496,43.945,-395.020,-223.633,-618.164,0
1610554190.577,-14.648,46.875,18.066,43.457,-505.371,0
1610554190.581,998.047,55.176,590.332,253.906,-215.820,0
1610554190.585,625.000,55.664,516.602,150.879,-141.113,99
1610554190.589,-561.035,47.363,-64.453,-132.324,-350.098,0
1610554190.593,-1000.000,38.086,-466.797,-223.145,-586.914,0
1610554190.597,-185.059,39.551,-97.656,6.348,-516.602,0
1610554190.600,920.410,48.340,579.102,258.789,-205.566,0
1610554190.604,694.824,46.875,564.941,187.500,-113.281,0
1610554190.608,-491.699,38.086,-138.184,-95.703,-314.453,0
1610554190.612,-1000.000,31.250,-454.590,-234.863,-553.223,0
1610554190.616,-351.074,33.691,-22.949,-37.109,-516.602,0
1610554190.618,809.082,40.039,505.859,255.859,-236.816,0
1610554190.622,809.570,45.410,579.102,212.891,-108.887,0
1610554190.626,-309.570,45.410,187.988,-58.105,-210.449,0
1610554190.630,-1000.000,34.668,-302.246,-222.656,-449.707,0
1610554190.634,-455.566,33.203,-247.070,-71.289,-533.203,0
1610554190.638,747.070,41.504,315.918,228.516,-297.852,0
1610554190.642,900.391,46.875,600.098,230.469,-86.914,0
1610554190.645,-158.203,42.969,294.434,-13.184,-145.508,0
1610554190.649,-1000.000,28.320,-428.711,-214.844,-458.984,0
1610554190.653,-577.637,26.367,-407.227,-105.469,-556.641,0
1610554190.657,621.582,38.086,443.359,207.031,-268.066,0
1610554190.661,973.633,40.527,634.277,241.699,-80.566,0
1610554190.663,16.602,35.156,169.922,10.742,-184.570,0
1610554190.667,-965.820,28.320,-330.566,-222.656,-474.121,0
1610554190.671,-674.316,26.367,-321.289,-147.461,-602.051,0
1610554190.675,507.812,32.715,274.902,169.922,-364.258,0
1610554190.679,-959.473,34.668,584.961,263.672,-148.438,0
1610554190.683,188.965,32.715,275.879,62.988,-190.918,0
1610554190.687,-888.672,27.344,-308.594,-215.332,-460.938,0
1610554190.690,-752.930,22.949,-405.273,-171.875,-598.633,0
1610554190.694,378.906,30.762,88.379,129.883,-417.969,0
1610554190.698,-926.270,41.016,610.840,252.441,-166.992,0
1610554190.702,382.324,41.016,477.539,96.680,-153.320,0
1610554190.706,-767.090,29.785,-240.234,-192.871,-441.406,0
1610554190.708,-823.242,22.949,-431.152,-180.176,-613.281,0
1610554190.712,265.137,29.297,145.020,122.070,-451.660,0
1610554190.716,-923.340,39.062,571.289,265.137,-212.402,0
1610554190.720,502.930,40.527,350.586,133.301,-176.758,0
1610554190.724,-674.316,34.180,-177.246,-159.180,-405.273,0
1610554190.728,-921.387,28.320,-425.293,-202.637,-597.656,0
1610554190.732,80.566,34.668,22.949,70.312,-484.863,0
1610554190.735,-969.238,45.898,501.465,265.137,-221.191,0
1610554190.739,627.441,45.410,407.227,162.598,-140.625,0
1610554190.743,-549.805,37.598,27.832,-134.277,-313.965,0
1610554190.747,-996.582,30.273,-374.023,-223.145,-555.176,0
1610554190.751,-74.707,33.691,-137.207,20.020,-552.734,0
1610554190.753,984.375,44.434,505.371,259.766,-269.531,0
1610554190.757,718.262,45.898,604.980,185.547,-107.422,0
1610554190.761,-438.477,38.086,9.766,-101.074,-280.273,0
1610554190.765,-1000.000,31.738,-472.656,-225.098,-551.758,0
1610554190.769,-211.914,37.598,-148.438,-17.090,-524.414,0
1610554190.773,915.527,45.410,425.781,258.789,-251.953,0
1610554190.777,796.387,42.969,462.891,210.449,-140.137,0
1610554190.780,-308.105,33.203,-104.980,-67.871,-300.781,0
1610554190.784,-1000.000,28.320,-504.395,-225.098,-568.359,0
1610554190.788,-387.695,35.156,-110.352,-56.152,-553.711,0
1610554190.792,804.199,46.875,448.730,244.141,-304.199,0
1610554190.796,877.930,53.711,568.359,224.609,-171.387,0
1610554190.798,-155.762,46.875,188.965,-33.203,-272.461,0
1610554190.802,-1000.000,37.598,-337.402,-211.426,-538.086,0
1610554190.806,-515.625,39.551,-302.734,-90.332,-615.234,0
1610554190.810,704.590,45.410,335.449,219.727,-367.188,0
1610554190.814,958.496,48.828,664.551,258.301,-133.301,0
1610554190.818,2.441,44.922,216.797,7.812,-197.266,0
1610554190.822,-971.191,34.668,-488.770,-213.867,-507.812,0
1610554190.825,-617.676,37.598,-457.520,-120.605,-627.441,0
1610554190.829,595.215,51.758,295.410,183.105,-381.348,0
1610554190.833,-968.750,57.617,643.066,253.418,-146.973,0
1610554190.837,184.082,53.711,259.766,49.805,-189.453,0
1610554190.841,-884.277,41.992,-312.500,-208.496,-458.984,0
1610554190.843,-702.148,36.133,-298.340,-161.133,-563.477,0
1610554190.847,479.980,41.504,201.172,141.113,-392.090,0
1610554190.851,-919.434,45.410,544.922,258.301,-185.059,0
1610554190.855,351.562,45.410,389.648,86.426,-161.133,0
1610554190.859,-785.645,37.109,-209.473,-203.125,-427.246,0
1610554190.863,-804.199,32.715,-445.312,-188.965,-584.473,0
1610554190.867,295.410,42.480,-31.250,110.352,-453.125,0
1610554190.870,-923.828,54.199,550.293,255.371,-213.867,0
1610554190.874,445.312,50.293,519.531,110.352,-150.879,0
1610554190.878,-726.074,33.691,-203.125,-183.105,-422.852,0
1610554190.882,-890.137,30.762,-494.629,-218.262,-635.254,0
1610554190.886,137.695,40.527,40.527,72.754,-465.332,0
1610554190.889,-945.312,47.852,574.707,267.578,-205.566,0
1610554190.893,581.543,48.828,401.367,142.090,-171.875,0
1610554190.897,-609.375,44.434,-166.016,-155.762,-363.281,0
1610554190.901,-967.773,39.062,-369.629,-242.676,-548.340,0
1610554190.905,-16.602,39.551,-20.020,18.066,-485.840,0
1610554190.909,998.047,45.410,373.047,257.812,-246.094,0
1610554190.913,687.012,50.781,391.113,160.645,-137.207,0
1610554190.916,-479.492,46.387,62.500,-119.141,-273.926,0
1610554190.920,-1000.000,31.250,-362.305,-232.422,-506.836,0
1610554190.924,-187.500,31.250,-174.316,-7.812,-499.023,0
1610554190.928,922.363,44.434,439.453,270.508,-240.234,0
1610554190.932,768.555,49.316,545.410,196.289,-133.301,0
1610554190.949,-357.910,43.457,44.922,-81.543,-264.160,0
1610554190.953,-1000.000,39.062,-437.988,-221.191,-500.977,0
1610554190.957,-335.449,44.434,-237.793,-50.293,-523.438,0
1610554190.961,844.238,53.711,472.168,254.395,-223.145,0
1610554190.965,847.656,55.176,621.582,238.281,-56.641,0
1610554190.969,-223.633,48.828,-60.059,-39.062,-230.469,0
1610554190.973,-1000.000,45.898,-484.863,-230.957,-482.422,0
1610554190.976,-476.074,42.969,-167.480,-88.379,-525.391,0
1610554190.980,733.887,45.898,372.070,236.328,-276.855,0
1610554190.984,932.129,50.781,582.520,246.094,-74.707,0
1610554190.988,-54.199,46.387,192.383,-10.742,-201.172,0
1610554190.992,-999.512,40.039,-345.215,-220.215,-465.332,0
1610554190.993,-585.449,39.062,-334.961,-111.816,-536.133,0
1610554190.997,638.672,44.922,256.836,199.219,-324.219,0
1610554191.001,-996.582,51.758,595.703,248.535,-120.605,0
1610554191.005,103.516,48.828,252.441,26.367,-168.457,0
1610554191.009,-917.969,34.668,-388.672,-228.516,-460.449,0
1610554191.013,-688.965,28.809,-494.141,-154.785,-604.492,0
1610554191.017,491.211,39.062,176.758,161.133,-365.234,0
1610554191.020,-938.965,49.316,664.062,248.047,-104.980,0
1610554191.024,275.879,46.875,275.879,63.965,-133.301,0
1610554191.028,-835.449,34.668,-416.504,-214.844,-415.039,0
1610554191.032,-768.555,32.227,-342.773,-185.059,-548.340,0
1610554191.036,357.910,37.598,230.469,121.094,-365.723,0
1610554191.038,-921.875,44.434,582.520,242.188,-133.789,0
1610554191.042,398.438,49.316,394.043,85.449,-124.512,0
1610554191.046,-756.836,42.480,-172.363,-196.289,-349.121,0
1610554191.050,-856.445,32.227,-429.199,-191.406,-525.391,0
1610554191.054,201.172,37.109,24.902,94.727,-400.391,0
1610554191.058,-933.594,44.434,500.000,255.371,-159.180,0
1610554191.062,562.988,47.852,416.992,130.371,-94.238,0
1610554191.065,-620.605,43.945,-133.789,-157.715,-307.129,0
1610554191.069,-943.359,32.227,-612.305,-205.078,-557.617,0
1610554191.073,55.176,36.621,-94.238,54.199,-464.355,0
1610554191.077,-964.844,49.805,682.129,269.043,-154.785,0
1610554191.081,638.672,52.734,536.621,173.828,-76.172,0
1610554191.083,-539.551,43.945,-63.965,-124.023,-285.645,0
1610554191.087,-1000.000,38.086,-390.625,-220.215,-518.555,0
1610554191.091,-123.535,44.922,-64.941,16.113,-458.496,0
1610554191.095,948.730,48.340,435.059,264.648,-210.938,0
1610554191.099,746.094,50.293,451.172,178.711,-134.766,0
1610554191.103,-395.020,45.898,-64.453,-109.375,-285.156,0
1610554191.107,-1000.000,35.156,-490.723,-243.164,-525.879,0
1610554191.110,-283.203,34.180,-274.414,-45.898,-538.574,0
1610554191.114,861.816,41.504,361.328,243.652,-260.742,0
1610554191.118,825.684,51.758,661.133,194.824,-95.215,0
1610554191.122,-256.348,49.805,148.438,-77.148,-213.867,0
1610554191.126,-1000.000,40.039,-451.660,-230.957,-486.816,0
1610554191.128,-420.410,42.969,-227.051,-67.871,-533.203,0
1610554191.132,780.273,54.199,497.070,234.863,-233.887,0
1610554191.136,901.367,53.711,617.676,230.957,-76.172,0
1610554191.140,-91.309,48.340,126.465,-23.926,-210.449,0
1610554191.144,-1000.000,41.504,-383.789,-224.609,-488.281,0
1610554191.148,-539.062,37.109,-332.520,-105.469,-555.176,0
1610554191.152,684.082,44.434,250.000,206.543,-328.613,0
1610554191.155,973.633,52.246,471.191,235.840,-163.086,0
1610554191.159,64.453,51.270,235.840,3.906,-206.543,0
1610554191.163,-930.176,44.922,-208.008,-219.727,-436.523,2
1610554191.167,-652.344,43.945,-309.570,-125.977,-529.785,0
1610554191.171,555.176,52.246,229.492,178.711,-339.844,0
1610554191.174,-957.520,60.547,618.652,243.652,-138.184,0
1610554191.178,216.309,55.176,319.824,45.898,-156.738,0
1610554191.182,-860.840,43.457,-396.484,-211.426,-442.871,0
1610554191.186,-731.934,41.016,-426.270,-159.180,-562.012,0
1610554191.190,426.758,49.805,265.137,142.090,-333.008,0
1610554191.194,-921.875,59.082,603.027,253.906,-101.562,0
1610554191.198,354.980,60.059,262.695,86.914,-113.281,0
1610554191.201,-785.645,54.199,-350.586,-203.125,-407.715,0
1610554191.205,-818.848,52.246,-366.211,-191.895,-562.988,0
1610554191.209,281.250,59.082,149.902,112.305,-395.996,0
1610554191.213,-915.039,66.406,604.980,269.531,-138.672,0
1610554191.217,513.672,64.453,462.402,128.906,-96.680,0
1610554191.218,-665.039,52.246,-159.180,-166.504,-351.074,0
1610554191.222,-905.273,44.434,-444.336,-200.684,-537.598,0
1610554191.226,119.141,46.875,-25.879,78.125,-426.270,0
1610554191.230,-953.613,57.129,557.617,267.578,-159.668,0
1610554191.234,620.117,63.965,469.238,153.320,-91.797,0
1610554191.238,-558.594,55.664,-152.832,-138.184,-310.059,0
1610554191.242,-985.352,41.016,-620.605,-218.262,-561.523,0
1610554191.245,-54.199,46.387,-169.922,33.691,-500.977,0
1610554191.249,982.910,62.988,646.484,265.137,-187.012,0
1610554191.253,714.844,58.105,544.922,171.387,-116.699,0
1610554191.257,-435.547,50.293,-38.574,-110.352,-309.082,0
1610554191.261,-1000.000,45.898,-394.531,-230.957,-541.016,0
1610554191.278,-217.773,47.852,-109.863,-25.879,-524.414,0
1610554191.282,900.879,58.105,481.934,254.395,-231.445,0
1610554191.286,784.180,61.523,558.105,199.707,-99.609,0
1610554191.290,-319.336,53.711,85.938,-68.848,-250.488,0
1610554191.294,-1000.000,43.945,-386.230,-219.727,-495.605,0
1610554191.298,-403.320,42.969,-335.938,-45.898,-535.645,0
1610554191.302,791.992,53.711,312.500,245.117,-277.344,0
1610554191.305,868.164,61.035,604.492,208.496,-125.488,0
1610554191.309,-171.387,58.105,145.020,-37.109,-255.371,0
1610554191.313,-1000.000,47.363,-448.730,-208.008,-517.090,0
1610554191.317,-500.488,44.434,-337.402,-82.520,-575.195,0
1610554191.321,713.379,53.711,449.219,212.891,-301.758,0
1610554191.323,954.102,59.570,656.250,238.770,-110.352,0
1610554191.327,16.113,58.105,203.125,11.719,-201.172,0
1610554191.331,-956.543,43.945,-336.426,-219.727,-457.031,0
1610554191.335,-613.770,41.016,-304.199,-133.789,-537.109,0
1610554191.339,603.027,50.781,260.254,178.223,-314.941,0
1610554191.343,-982.910,53.711,494.141,247.559,-128.906,0
1610554191.347,151.855,55.176,198.242,37.598,-182.617,0
1610554191.350,-889.160,50.293,-283.691,-218.750,-432.129,0
1610554191.354,-713.867,46.875,-394.043,-147.461,-559.082,0
1610554191.358,448.730,55.176,71.777,147.949,-371.582,0
1610554191.362,-937.500,62.500,560.547,237.793,-142.090,0
1610554191.366,312.500,63.477,456.543,71.777,-143.066,0
1610554191.368,-805.664,51.270,-220.215,-206.055,-402.832,0
1610554191.372,-793.945,44.434,-446.289,-186.523,-586.426,0
1610554191.376,304.688,57.129,186.523,97.168,-417.480,0
1610554191.380,-929.688,63.477,658.691,241.211,-153.809,0
1610554191.384,442.383,61.523,433.105,111.328,-128.906,0
1610554191.388,-721.191,52.734,-230.957,-187.988,-390.137,0
1610554191.392,-881.836,41.992,-478.516,-214.844,-593.750,0
1610554191.395,149.902,46.875,86.914,65.430,-455.566,0
1610554191.399,-950.684,54.199,528.320,254.395,-183.105,0
1610554191.403,576.660,55.176,393.066,135.254,-126.953,0
1610554191.407,-602.051,53.223,-25.391,-167.969,-337.891,0
1610554191.411,-956.543,44.922,-348.145,-217.773,-530.762,0
1610554191.414,-2.930,48.340,-31.250,34.668,-455.078,0
1610554191.418,997.070,57.129,492.676,237.793,-208.984,0
1610554191.422,673.340,56.152,524.414,154.785,-110.352,0
1610554191.426,-496.094,46.387,-42.969,-124.512,-295.898,0
1610554191.430,-1000.000,38.086,-488.770,-228.516,-539.062,0
1610554191.434,-181.641,44.434,-171.875,-14.160,-517.578,0
1610554191.438,916.016,54.199,489.746,243.164,-245.117,0
1610554191.441,752.441,55.176,570.801,192.383,-122.070,0
1610554191.445,-381.836,50.293,-63.965,-82.031,-303.223,0
1610554191.449,-1000.000,44.922,-439.453,-228.027,-559.570,0
1610554191.453,-340.820,45.898,-92.285,-58.105,-540.039,0
1610554191.457,829.590,53.711,451.172,232.422,-273.438,0
1610554191.459,839.355,57.129,549.316,213.379,-155.273,0
1610554191.463,-221.191,53.711,145.020,-48.340,-270.508,0
1610554191.467,-1000.000,42.480,-367.188,-213.867,-523.926,0
1610554191.471,-479.980,40.039,-278.320,-77.637,-562.500,0
1610554191.475,733.398,45.410,316.895,217.773,-323.730,0
1610554191.479,916.992,51.758,544.434,234.863,-165.527,0
1610554191.483,-88.867,53.711,192.383,-15.137,-239.746,0
1610554191.486,-1000.000,43.945,-426.270,-226.074,-512.695,0
1610554191.490,-589.355,40.527,-463.867,-128.418,-617.676,0
1610554191.494,623.535,54.688,345.703,181.641,-375.488,0
1610554191.498,991.211,65.430,708.008,248.535,-168.945,0
1610554191.502,85.938,60.547,294.922,23.438,-230.469,0
1610554191.503,-924.805,46.387,-299.805,-224.121,-494.629,0
1610554191.507,-679.199,47.363,-329.102,-146.973,-598.145,0
1610554191.511,500.000,53.711,210.449,166.016,-411.133,0
1610554191.515,-950.684,56.641,581.055,258.301,-180.664,0
1610554191.519,263.672,56.641,372.070,63.477,-171.387,0
1610554191.523,-835.938,47.852,-316.406,-213.867,-451.172,0
1610554191.527,-759.277,44.434,-507.812,-179.199,-628.906,0
1610554191.530,361.328,51.270,-21.973,125.977,-467.773,0
1610554191.534,-928.711,61.523,512.207,254.883,-216.797,0
1610554191.538,408.203,62.988,497.070,98.145,-191.406,0
1610554191.542,-747.070,48.340,-171.875,-180.664,-422.363,0
1610554191.546,-852.051,39.551,-459.961,-196.289,-606.445,0
1610554191.548,196.289,49.316,83.496,83.008,-465.820,0
1610554191.552,-943.359,57.617,589.844,253.906,-210.449,0
1610554191.556,526.367,53.223,403.809,134.277,-189.941,0
1610554191.560,-656.738,41.504,-153.809,-160.156,-398.926,0
1610554191.564,-931.152,36.133,-411.133,-228.516,-584.961,0
1610554191.568,40.527,44.922,-41.992,37.598,-504.883,0
1610554191.572,-992.188,55.664,434.570,247.070,-255.859,0
1610554191.575,649.414,60.059,441.406,151.367,-181.641,0
1610554191.579,-527.832,56.152,9.277,-124.512,-347.168,0
1610554191.583,-1000.000,43.457,-386.719,-226.562,-560.547,0
1610554191.587,-138.672,41.992,-235.352,1.465,-545.410,0
1610554191.591,927.734,53.223,375.000,250.488,-266.113,0
1610554191.593,725.586,59.570,637.695,177.246,-121.582,0
1610554191.597,-422.852,50.293,92.285,-93.750,-289.062,0
1610554191.601,-1000.000,36.621,-422.363,-217.285,-538.574,0
1610554191.605,-277.344,43.945,-175.293,-32.227,-551.270,0
1610554191.609,868.164,56.152,457.031,231.934,-292.480,0
1610554191.613,809.570,54.688,520.996,185.059,-141.113,0
1610554191.617,-275.391,47.363,-65.430,-74.707,-293.457,0
1610554191.620,-1000.000,45.410,-434.082,-226.074,-545.410,0
1610554191.624,-423.340,48.340,-187.012,-73.730,-588.379,0
1610554191.628,771.973,54.199,360.840,230.469,-326.172,0
1610554191.632,889.648,58.105,576.172,220.703,-144.531,0
1610554191.636,-117.676,55.664,212.402,-43.945,-242.676,0
1610554191.639,-1000.000,44.434,-349.609,-222.656,-483.887,0
1610554191.643,-553.223,42.480,-400.879,-103.516,-572.754,0
1610554191.647,662.109,51.758,243.164,187.012,-357.422,0
1610554191.651,966.309,57.617,660.645,228.516,-142.090,0
1610554191.655,37.109,54.688,274.414,2.441,-208.008,0
1610554191.659,-944.824,41.992,-434.570,-221.191,-500.000,0
1610554191.663,-649.414,37.598,-436.523,-131.836,-595.215,0
1610554191.666,552.246,49.316,260.742,175.293,-381.348,0
1610554191.670,-964.844,57.129,647.949,248.047,-162.598,0
1610554191.674,190.430,49.805,187.012,33.691,-217.285,0
1610554191.678,-875.977,38.086,-437.012,-227.539,-499.023,0
1610554191.682,-737.793,35.645,-343.262,-164.551,-599.609,0
1610554191.698,411.133,43.457,196.289,144.043,-409.668,0
1610554191.702,-926.270,53.711,574.707,249.512,-175.781,0
1610554191.706,369.141,54.199,395.508,80.566,-160.156,0
1610554191.710,-767.578,44.922,-255.859,-193.359,-416.992,0
1610554191.714,-816.406,45.410,-488.281,-186.523,-585.938,0
1610554191.718,258.789,48.340,-96.680,103.516,-465.820,0
1610554191.722,-933.105,52.734,459.473,250.488,-217.773,0
1610554191.725,500.977,59.082,556.152,107.910,-133.301,0
1610554191.729,-679.688,53.223,-168.457,-178.223,-395.020,0
1610554191.733,-899.902,48.340,-494.629,-207.031,-604.004,0
1610554191.737,117.676,53.223,53.223,65.918,-470.703,0
1610554191.741,-962.891,60.059,585.449,251.953,-212.891,0
1610554191.743,617.188,63.477,449.219,152.344,-141.113,0
1610554191.747,-561.523,55.176,-139.648,-139.648,-344.238,0
1610554191.751,-974.121,47.852,-449.707,-223.145,-574.707,0
1610554191.755,-39.062,52.734,-60.547,25.879,-499.512,0
1610554191.759,984.375,61.035,488.770,257.812,-225.586,0
1610554191.763,706.055,62.500,461.426,172.852,-125.977,0
1610554191.767,-444.824,55.176,-57.617,-107.910,-291.992,0
1610554191.770,-1000.000,46.875,-460.449,-218.750,-533.203,0
1610554191.774,-220.703,44.434,-259.277,-18.066,-527.832,0
1610554191.778,892.090,48.828,316.895,246.582,-277.832,0
1610554191.782,791.992,53.711,638.184,186.523,-106.445,0
1610554191.786,-300.781,48.828,189.453,-83.496,-226.562,0
1610554191.789,-1000.000,41.504,-433.594,-222.168,-532.227,0
1610554191.793,-366.699,41.504,-233.398,-58.594,-565.918,0
1610554191.797,812.988,51.758,465.820,226.074,-269.531,0
1610554191.801,868.164,56.152,590.820,205.078,-111.816,0
1610554191.805,-152.344,53.223,87.402,-48.828,-245.605,0
1610554191.809,-1000.000,46.875,-429.688,-224.609,-506.836,0
1610554191.813,-489.746,47.852,-302.246,-96.680,-554.688,0
1610554191.816,723.145,56.641,289.551,212.891,-337.402,0
1610554191.820,953.613,62.012,457.520,227.539,-205.566,0
1610554191.824,17.578,59.570,150.391,-22.461,-293.945,0
1610554191.828,-963.379,50.293,-269.531,-227.051,-507.812,0
1610554191.832,-597.656,47.852,-306.641,-125.488,-575.195,0
1610554191.833,617.188,51.270,235.352,186.035,-360.352,0
1610554191.837,-972.656,60.547,662.598,256.836,-131.348,0
1610554191.841,197.266,61.035,312.012,32.715,-169.434,0
1610554191.845,-869.141,41.504,-380.859,-217.285,-437.988,0
1610554191.849,-700.195,36.133,-449.219,-149.902,-578.125,0
1610554191.853,483.887,52.246,158.203,159.180,-362.793,0
1610554191.857,-931.641,61.035,595.215,250.000,-98.633,0
1610554191.860,311.523,57.617,248.535,69.336,-155.762,0
1610554191.864,-809.570,50.293,-396.973,-187.500,-458.496,0
1610554191.868,-777.832,46.875,-310.059,-161.621,-556.641,0
1610554191.872,336.426,54.688,245.605,135.254,-362.305,0
1610554191.876,-924.316,61.035,592.285,260.742,-154.785,0
1610554191.879,458.496,56.641,397.949,112.793,-139.648,0
1610554191.883,-702.637,49.805,-145.996,-174.316,-367.676,0
1610554191.887,-877.441,42.480,-381.836,-204.102,-534.180,0
1610554191.891,152.344,42.480,-10.254,73.242,-428.711,0
1610554191.895,-951.660,50.293,521.484,240.234,-182.617,0
1610554191.899,576.172,50.293,419.922,127.930,-116.699,0
1610554191.903,-608.887,40.039,-214.844,-153.320,-343.750,0
1610554191.906,-955.566,36.621,-606.445,-213.379,-580.078,0
1610554191.910,5.859,43.457,-93.750,43.457,-489.258,0
1610554191.914,-996.582,51.758,613.770,249.512,-189.941,0
1610554191.918,671.387,53.711,518.066,147.461,-94.727,0
1610554191.922,-497.559,45.410,-64.453,-133.789,-291.016,0
1610554191.923,-1000.000,36.621,-426.270,-228.027,-532.715,0
1610554191.927,-165.039,39.062,-104.004,-7.324,-484.863,0
1610554191.931,923.828,49.805,448.730,242.188,-223.145,0
1610554191.935,760.742,56.641,475.586,178.223,-133.301,0
1610554191.939,-362.305,54.199,28.320,-88.379,-284.180,0
1610554191.943,-1000.000,41.992,-469.727,-223.633,-537.109,0
1610554191.947,-333.984,39.062,-362.305,-45.898,-574.707,0
1610554191.950,829.590,48.340,287.109,243.652,-293.945,0
1610554191.954,831.055,54.688,621.094,203.125,-127.930,0
1610554191.958,-232.422,49.316,229.004,-71.777,-237.793,0
1610554191.962,-1000.000,38.086,-401.855,-235.840,-525.879,0
1610554191.966,-474.609,39.062,-268.555,-78.613,-589.844,0
1610554191.968,735.840,47.363,435.059,217.285,-305.176,0
1610554191.972,906.250,50.781,621.094,217.773,-132.324,0
1610554191.976,-80.078,44.922,175.293,-22.949,-229.004,0
1610554191.980,-984.375,33.691,-361.816,-233.398,-492.188,0
1610554191.984,-588.867,34.180,-316.406,-128.418,-581.055,0
1610554191.988,615.234,42.480,269.043,182.129,-332.031,0
1610554191.992,980.957,44.434,453.125,230.957,-134.277,0
1610554191.995,76.172,44.434,186.035,15.137,-214.355,0
1610554191.999,-924.805,39.062,-220.703,-219.238,-468.262,0
1610554192.003,-685.547,33.203,-389.160,-140.625,-610.840,0
1610554192.007,497.559,47.363,163.574,157.227,-418.945,0
1610554192.011,-957.031,58.105,646.973,240.723,-171.875,0
1610554192.029,224.609,52.246,391.113,60.059,-174.316,0
1610554192.033,-854.980,38.086,-301.270,-210.938,-451.172,0
1610554192.037,-767.090,31.250,-446.289,-176.270,-605.469,0
1610554192.041,346.191,37.598,163.086,115.234,-415.527,0
1610554192.045,-937.012,45.410,618.652,236.816,-165.527,0
1610554192.049,381.836,45.410,262.695,87.402,-186.035,0
1610554192.053,-764.160,37.109,-349.609,-189.453,-444.824,0
1610554192.056,-838.379,30.273,-349.609,-194.824,-564.941,0
1610554192.060,216.797,36.621,87.891,80.078,-438.477,0
1610554192.064,-943.359,44.922,415.039,244.141,-218.262,0
1610554192.068,541.992,44.434,349.121,125.977,-170.410,0
1610554192.072,-636.230,38.086,-97.656,-162.598,-396.973,0
1610554192.073,-923.828,31.738,-383.789,-208.008,-557.129,0
1610554192.077,68.359,39.551,-1.465,60.547,-444.824,0
1610554192.081,-979.492,47.852,534.668,263.184,-210.449,0
1610554192.085,640.625,47.363,522.461,151.367,-128.418,0
1610554192.089,-526.855,46.387,-68.848,-139.648,-312.988,0
1610554192.093,-993.652,37.598,-533.203,-222.656,-555.664,0
1610554192.097,-114.258,38.086,-238.281,2.441,-545.410,0
1610554192.100,944.824,49.316,461.426,248.535,-267.090,0
1610554192.104,725.586,46.875,498.535,176.270,-166.504,0
1610554192.108,-422.363,38.574,-175.781,-105.957,-371.582,0
1610554192.112,-1000.000,33.691,-458.984,-233.887,-585.938,0
1610554192.116,-262.207,34.180,-95.215,-36.133,-539.062,0
1610554192.119,866.699,42.480,396.973,249.512,-263.184,0
1610554192.123,819.336,48.340,488.770,207.520,-155.762,0
1610554192.127,-245.117,47.852,110.840,-61.523,-294.922,0
1610554192.131,-1000.000,41.504,-370.117,-223.145,-531.250,0
1610554192.135,-410.156,41.016,-256.836,-68.359,-554.688,0
1610554192.139,784.180,50.781,354.004,231.445,-291.992,0
1610554192.143,891.113,58.105,536.133,217.285,-150.391,0
1610554192.146,-116.211,52.246,151.367,-46.875,-272.461,0
1610554192.150,-1000.000,39.551,-449.707,-236.328,-536.621,0
1610554192.154,-531.738,41.992,-399.902,-108.887,-601.562,0
1610554192.158,687.012,58.105,410.156,203.613,-330.566,0
1610554192.162,966.797,64.941,663.574,237.793,-135.254,0
1610554192.164,41.992,63.965,220.215,-0.488,-215.332,0
1610554192.168,-940.918,55.176,-324.707,-221.191,-473.633,0
1610554192.172,-648.926,46.387,-375.977,-124.023,-589.355,0
1610554192.176,553.223,46.875,150.391,175.293,-406.250,0
1610554192.180,-971.191,56.152,533.203,243.164,-178.223,0
1610554192.184,190.918,58.594,266.602,37.598,-199.707,0
1610554192.188,-864.746,46.875,-319.336,-232.422,-474.121,0
1610554192.191,-734.863,40.527,-405.273,-175.781,-592.773,0
1610554192.195,396.973,46.875,89.355,125.000,-412.109,0
1610554192.199,-943.359,56.152,601.562,228.516,-178.223,0
1610554192.203,354.980,62.988,502.930,66.406,-145.996,0
1610554192.207,-775.391,49.805,-216.309,-211.914,-410.645,0
1610554192.208,-809.570,41.016,-454.102,-202.148,-599.121,0
1610554192.212,271.484,51.270,124.023,89.355,-436.035,0
1610554192.216,-934.082,57.129,594.727,240.723,-177.734,0
1610554192.220,495.117,56.641,394.043,116.211,-145.020,0
1610554192.224,-678.223,49.805,-193.359,-165.039,-368.164,0
1610554192.228,-895.508,42.480,-468.262,-198.242,-554.199,0
1610554192.232,116.699,43.457,-25.879,64.941,-448.242,0
1610554192.235,-966.309,47.852,435.059,245.117,-201.660,0
1610554192.239,606.934,54.199,294.922,133.301,-173.828,0
1610554192.243,-566.406,49.316,-57.129,-158.203,-361.816,0
1610554192.247,-971.680,41.016,-347.168,-231.445,-565.918,0
1610554192.251,-54.199,44.922,-50.293,18.066,-500.488,0
1610554192.253,971.191,57.617,533.691,247.070,-234.375,0
1610554192.257,702.637,65.430,559.082,168.457,-137.695,0
1610554192.261,-456.543,54.199,-9.766,-109.375,-312.012,0
1610554192.265,-1000.000,44.922,-482.910,-224.121,-564.453,0
1610554192.269,-196.289,51.758,-153.809,-9.277,-530.762,0
1610554192.273,908.691,55.664,449.219,266.602,-249.512,0
1610554192.277,774.414,55.176,515.625,202.637,-131.836,0
1610554192.280,-336.914,51.758,-29.297,-84.473,-274.414,0
1610554192.284,-1000.000,45.898,-481.445,-232.422,-534.668,0
1610554192.288,-376.465,46.875,-118.652,-57.129,-530.762,0
1610554192.292,801.270,52.734,469.238,240.723,-233.887,0
1610554192.296,861.328,56.641,526.855,217.285,-110.352,0
1610554192.298,-175.293,55.176,163.086,-54.199,-237.305,0
1610554192.302,-1000.000,40.527,-358.398,-229.980,-488.281,0
1610554192.306,-500.000,36.133,-341.309,-79.102,-559.570,0
1610554192.310,710.449,49.805,322.754,228.027,-299.805,0
1610554192.314,937.012,57.129,617.676,234.863,-112.793,0
1610554192.318,-25.391,50.293,168.945,-23.438,-211.914,0
1610554192.322,-971.680,37.598,-489.746,-236.816,-491.699,0
1610554192.325,-610.840,40.527,-463.867,-127.930,-595.703,0
1610554192.329,594.727,57.129,340.332,173.828,-343.262,0
1610554192.333,-998.047,60.547,678.223,235.352,-134.277,0
1610554192.337,123.535,55.176,284.668,22.461,-196.289,0
1610554192.341,-903.320,42.480,-368.652,-223.633,-495.117,0
1610554192.344,-699.707,37.598,-384.277,-155.273,-615.723,0
1610554192.348,472.168,47.363,231.934,141.602,-403.809,0
1610554192.352,-941.406,53.711,563.965,237.793,-167.969,0
1610554192.356,310.059,54.199,359.863,47.363,-157.715,0
1610554192.360,-797.852,41.504,-221.191,-222.656,-412.109,0
1610554192.364,-780.273,32.227,-476.562,-173.828,-578.613,0
1610554192.368,318.359,40.039,-55.176,119.141,-429.199,0
1610554192.371,-933.594,51.270,541.016,248.047,-160.156,0
1610554192.375,463.379,51.758,498.535,88.867,-109.375,0
1610554192.379,-703.613,39.062,-225.098,-193.359,-377.930,0
1610554192.383,-863.281,36.133,-478.516,-191.406,-563.965,0
1610554192.387,175.293,42.969,72.266,87.891,-413.574,0
1610554192.403,-952.637,50.293,574.219,259.766,-162.109,0
1610554192.407,563.965,51.758,414.062,140.137,-120.117,0
1610554192.411,-619.141,40.039,-200.195,-150.391,-350.586,0
1610554192.415,-950.195,34.180,-452.148,-217.773,-560.059,0
1610554192.419,1.953,43.457,6.348,35.645,-458.008,0
1610554192.423,988.770,49.805,415.527,258.789,-220.215,0
1610554192.427,669.434,52.734,292.969,151.367,-163.574,0
1610554192.430,-491.699,49.805,-18.066,-138.672,-318.848,0
1610554192.434,-1000.000,40.039,-334.473,-218.262,-537.598,0
1610554192.438,-157.227,42.480,-93.750,2.441,-489.746,0
1610554192.442,922.363,51.758,493.652,252.441,-223.145,0
1610554192.446,764.648,59.570,589.355,181.641,-97.168,0
1610554192.448,-346.191,55.664,63.965,-90.820,-248.535,0
1610554192.452,-1000.000,43.457,-468.750,-219.238,-532.227,0
1610554192.456,-312.988,42.969,-229.004,-47.363,-547.852,0
1610554192.460,847.168,55.176,419.434,245.605,-291.016,0
1610554192.464,829.102,59.570,539.062,219.238,-145.508,0
1610554192.468,-230.469,53.223,51.270,-49.805,-253.906,0
1610554192.472,-1000.000,43.945,-500.977,-216.309,-551.270,0
1610554192.475,-457.031,43.945,-284.668,-66.406,-572.754,0
1610554192.479,749.512,55.176,410.156,225.098,-275.879,0
1610554192.483,902.832,56.641,435.059,214.355,-141.602,0
1610554192.487,-73.242,52.734,89.844,-26.367,-251.953,0
1610554192.491,-979.492,45.898,-251.953,-218.262,-500.977,0
1610554192.493,-579.590,41.992,-246.582,-110.840,-542.480,0
1610554192.497,633.301,53.223,310.059,196.777,-318.359,0
1610554192.501,981.934,62.988,636.230,235.352,-138.672,0
1610554192.505,70.312,57.129,287.109,5.859,-202.637,0
1610554192.509,-928.223,44.922,-355.469,-222.656,-474.121,0
1610554192.513,-677.734,44.922,-429.688,-145.996,-577.637,0
1610554192.517,500.000,54.199,216.797,147.461,-358.398,0
1610554192.520,-956.543,61.035,648.438,235.352,-140.137,0
1610554192.524,244.629,55.176,234.375,63.965,-194.824,0
1610554192.528,-845.215,46.387,-440.430,-208.008,-470.703,0
1610554192.532,-750.977,46.387,-357.422,-182.617,-581.055,0
1610554192.536,382.324,51.758,216.797,122.070,-401.855,0
1610554192.538,-927.734,61.035,601.562,239.258,-161.621,0
1610554192.542,394.043,61.035,398.926,75.684,-166.992,0
1610554192.546,-750.488,48.340,-218.750,-198.242,-437.988,0
1610554192.550,-840.820,42.480,-429.688,-190.918,-592.773,0
1610554192.554,201.660,46.387,17.578,87.891,-464.844,0
1610554192.558,-954.590,50.781,486.816,249.023,-228.027,0
1610554192.562,532.715,54.199,406.250,124.023,-169.922,0
1610554192.565,-647.949,46.387,-154.297,-158.691,-396.484,0
1610554192.569,-920.898,37.109,-581.543,-202.637,-632.812,0
1610554192.573,84.961,42.480,-63.477,47.363,-528.320,0
1610554192.577,-967.773,49.805,619.141,245.605,-232.422,0
1610554192.581,628.418,52.734,413.086,153.320,-187.500,0
1610554192.583,-545.410,49.316,-142.090,-128.418,-392.578,0
1610554192.587,-991.211,43.945,-371.094,-217.285,-579.102,0
1610554192.591,-99.609,46.875,-26.855,14.648,-500.488,0
1610554192.595,949.707,50.781,486.816,245.605,-232.910,0
1610554192.599,739.258,53.711,536.133,174.805,-118.164,0
1610554192.603,-395.996,49.805,-18.555,-99.121,-281.250,0
1610554192.607,-1000.000,39.551,-450.684,-226.562,-541.016,0
1610554192.610,-267.090,41.504,-210.449,-25.879,-521.484,0
1610554192.614,861.328,52.734,338.379,240.723,-272.949,0
1610554192.618,813.477,58.105,616.699,194.824,-129.395,0
1610554192.622,-253.418,50.293,132.812,-63.477,-265.137,0
1610554192.626,-1000.000,40.039,-447.754,-223.145,-549.316,0
1610554192.629,-408.203,46.387,-204.590,-64.941,-548.340,0
1610554192.633,787.109,58.105,415.039,231.934,-276.855,0
1610554192.637,882.324,62.500,514.160,222.168,-150.391,0
1610554192.641,-120.605,56.641,88.379,-38.086,-275.391,0
1610554192.645,-1000.000,47.363,-388.672,-218.262,-530.762,0
1610554192.649,-532.227,46.387,-286.621,-85.449,-569.824,0
1610554192.653,685.059,52.246,273.438,199.219,-348.145,0
1610554192.656,961.914,53.223,432.617,225.098,-209.473,0
1610554192.660,45.898,49.805,197.266,2.441,-255.859,0
1610554192.664,-935.059,46.875,-238.281,-211.426,-489.746,0
1610554192.668,-649.414,44.434,-352.539,-124.512,-603.516,0
1610554192.672,548.340,49.316,246.582,167.969,-370.605,0
1610554192.673,-974.121,55.664,649.902,234.863,-136.719,0
1610554192.677,191.406,57.617,335.449,36.133,-178.711,0
1610554192.681,-868.164,44.922,-344.727,-218.750,-459.473,0
1610554192.685,-729.980,39.062,-458.496,-168.457,-605.957,0
1610554192.689,417.969,49.805,152.344,128.418,-418.945,0
1610554192.693,-936.035,52.734,573.730,237.793,-163.086,0
1610554192.697,341.797,51.758,281.738,70.801,-171.387,0
1610554192.700,-786.621,44.434,-402.344,-209.473,-457.520,0
1610554192.704,-805.176,39.551,-395.996,-202.148,-594.238,0
1610554192.708,276.855,48.828,207.520,83.008,-403.320,0
1610554192.712,-933.594,58.105,601.074,235.840,-168.945,0
1610554192.716,479.004,54.688,460.449,99.121,-136.719,0
1610554192.718,-691.895,44.922,-138.672,-195.801,-372.070,0
1610554192.722,-907.227,39.551,-450.684,-231.934,-571.777,0
1610554192.726,56.641,41.016,-33.203,29.297,-465.820,0
1610554192.730,-998.535,50.293,532.227,194.824,-211.914,0
1610554192.734,542.480,53.223,492.188,68.359,-139.648,0
1610554192.738,-645.996,41.016,-162.109,-220.703,-357.422,0
1610554192.742,-983.887,34.180,-602.051,-306.152,-586.914,0
1610554192.745,-143.066,43.457,-142.578,-80.566,-516.602,0
1610554192.749,914.062,54.688,594.238,136.719,-226.074,0
1610554192.753,639.648,58.105,565.430,50.293,-121.094,0
1610554192.757,-549.805,46.387,-78.125,-229.980,-326.172,0
1610554192.761,-1000.000,42.480,-417.969,-350.586,-556.641,0
1610554192.778,-295.898,48.828,-101.562,-140.625,-508.789,0
1610554192.782,836.426,53.711,432.617,127.441,-246.582,0
1610554192.786,741.699,57.617,520.996,68.359,-122.070,0
1610554192.790,-408.691,49.805,101.074,-188.477,-233.887,0
1610554192.794,-1000.000,35.645,-413.086,-328.125,-498.047,0
1610554192.798,-430.176,36.133,-389.160,-153.320,-562.500,0
1610554192.802,753.906,52.246,298.828,142.090,-275.391,0
1610554192.805,840.820,61.523,648.926,127.930,-93.750,0
1610554192.809,-237.305,50.293,180.176,-115.723,-210.938,0
1610554192.813,-1000.000,33.691,-459.961,-291.992,-478.516,0
1610554192.817,-520.020,33.691,-386.719,-151.367,-538.574,0
1610554192.821,683.105,45.410,383.789,170.410,-268.555,0
1610554192.823,927.246,49.805,643.066,200.684,-95.703,0
1610554192.827,-57.617,47.363,149.414,-31.250,-205.078,0
1610554192.831,-986.816,39.062,-393.066,-245.605,-469.238,0
1610554192.835,-613.770,41.992,-319.824,-138.672,-561.523,0
1610554192.839,585.449,55.664,279.785,172.363,-334.473,0
1610554192.843,-993.652,60.547,529.785,228.027,-150.879,0
1610554192.847,153.320,60.547,207.031,34.180,-210.938,0
1610554192.850,-882.324,49.316,-282.715,-205.078,-438.477,0
1610554192.854,-695.801,39.062,-396.484,-140.137,-569.824,0
1610554192.858,477.539,44.434,35.645,169.434,-408.203,0
1610554192.862,-940.430,53.711,560.547,262.207,-176.758,0
1610554192.866,341.797,53.711,449.219,90.820,-166.016,0
1610554192.869,-778.320,40.039,-259.277,-185.547,-418.945,0
1610554192.873,-761.230,35.645,-487.305,-150.879,-586.426,0
1610554192.877,377.441,47.852,131.836,158.203,-416.992,0
1610554192.881,-915.039,58.105,655.273,280.273,-154.785,0
1610554192.885,470.703,55.664,323.242,127.930,-183.105,0
1610554192.889,-696.289,47.852,-333.984,-149.414,-437.012,0
1610554192.893,-856.934,45.898,-427.246,-157.227,-562.500,0
1610554192.896,210.938,45.898,110.840,120.117,-434.082,0
1610554192.900,-939.941,47.852,501.953,292.969,-208.496,0
1610554192.904,600.098,50.293,334.473,170.410,-187.012,0
1610554192.908,-565.430,46.387,-19.043,-130.859,-344.727,0
1610554192.912,-937.012,35.645,-381.836,-186.035,-537.598,0
1610554192.913,59.570,40.039,-81.543,70.312,-483.398,0
1610554192.917,-975.586,54.688,568.359,284.180,-175.293,0
1610554192.921,698.730,57.129,568.359,202.637,-81.055,0
1610554192.925,-448.730,45.410,-43.457,-83.496,-274.902,0
1610554192.929,-1000.000,32.715,-515.625,-190.918,-503.906,0
1610554192.933,-121.582,40.039,-197.754,30.273,-464.844,0
1610554192.937,945.312,54.199,473.145,270.996,-184.082,0
1610554192.940,770.996,57.617,578.613,204.102,-70.801,0
1610554192.944,-333.496,49.316,-86.914,-61.523,-243.164,0
1610554192.948,-1000.000,40.039,-514.160,-189.941,-473.633,0
1610554192.952,-267.090,45.898,-82.031,-5.371,-457.520,0
1610554192.956,876.953,55.176,486.328,273.926,-206.543,0
1610554192.958,841.797,58.594,581.543,240.723,-87.891,0
1610554192.962,-178.223,54.199,181.641,-21.484,-196.777,0
1610554192.966,-1000.000,45.410,-348.633,-182.129,-438.477,0
1610554192.970,-437.988,44.434,-312.500,-38.574,-518.555,0
1610554192.974,767.090,51.758,317.383,255.859,-291.016,0
1610554192.978,922.363,57.129,542.969,259.766,-132.812,0
1610554192.982,-26.367,52.246,148.438,2.930,-220.703,0
1610554192.985,-974.609,38.574,-445.312,-187.988,-457.520,0
1610554192.989,-540.039,40.039,-455.078,-71.289,-524.902,0
1610554192.993,689.453,51.758,335.938,217.773,-300.293,0
1610554192.997,990.234,53.223,710.449,262.207,-106.445,0
1610554193.001,110.352,54.199,314.941,37.598,-153.320,0
1610554193.003,-906.738,49.805,-297.363,-187.988,-415.039,0
1610554193.007,-657.227,44.434,-333.984,-101.562,-521.484,0
1610554193.011,542.969,49.805,235.840,191.406,-326.172,0
1610554193.015,-955.566,54.688,621.582,271.484,-96.680,0
1610554193.019,244.141,50.781,385.254,76.660,-101.074,0
1610554193.023,-838.867,37.598,-302.246,-189.453,-364.746,0
1610554193.027,-745.605,34.180,-495.605,-148.438,-526.367,0
1610554193.030,388.184,42.969,8.301,140.137,-377.441,0
1610554193.034,-933.594,53.223,586.914,249.512,-125.977,0
1610554193.038,386.230,54.688,513.184,94.238,-92.773,0
1610554193.042,-755.859,42.480,-260.742,-171.387,-355.957,0
1610554193.046,-826.660,37.598,-499.512,-173.340,-525.391,0
1610554193.048,238.770,45.898,125.000,103.516,-368.164,0
1610554193.052,-938.965,56.152,683.594,266.602,-102.539,0
1610554193.056,510.742,56.641,476.562,132.812,-79.590,0
1610554193.060,-667.480,45.410,-193.359,-152.832,-341.309,0
1610554193.064,-916.992,41.016,-420.410,-185.059,-501.465,0
1610554193.068,55.176,45.898,-23.926,78.613,-382.812,0
1610554193.072,-995.117,48.340,430.664,262.207,-152.344,0
1610554193.075,619.141,51.270,397.949,146.484,-103.027,0
1610554193.079,-556.152,51.758,-7.324,-132.812,-287.109,0
1610554193.083,-994.141,43.945,-355.957,-212.402,-473.145,0
1610554193.087,-129.395,46.875,-78.613,17.090,-413.574,0
1610554193.091,932.129,55.176,558.105,260.254,-146.973,0
1610554193.094,702.148,54.688,574.219,177.734,-43.457,0
1610554193.098,-450.684,47.363,-26.367,-83.496,-210.449,0
1610554193.102,-1000.000,36.133,-515.137,-200.684,-447.754,0
1610554193.106,-249.023,39.551,-205.078,-7.812,-420.410,0
1610554193.110,884.766,52.734,560.059,258.301,-133.789,0
1610554193.114,791.504,56.152,624.023,199.707,-5.371,0
1610554193.118,-303.711,51.270,-56.641,-70.312,-189.453,0
1610554193.121,-1000.000,43.457,-472.168,-223.633,-429.688,0
1610554193.125,-419.434,45.898,-114.746,-62.500,-415.527,0
1610554193.129,771.973,54.199,469.238,225.586,-167.480,0
1610554193.133,868.164,57.617,619.629,214.844,-40.527,0
1610554193.137,-156.738,56.152,233.887,-29.785,-148.438,0
1610554193.153,-1000.000,44.922,-356.934,-217.285,-415.527,0
1610554193.157,-515.625,40.039,-385.254,-87.402,-511.230,0
1610554193.161,699.219,50.293,324.219,214.355,-247.559,0
1610554193.165,961.914,57.617,689.941,230.957,-26.855,0
1610554193.169,59.570,55.664,259.277,6.348,-125.488,0
1610554193.173,-925.781,43.945,-455.078,-205.566,-421.387,0
1610554193.177,-616.699,41.016,-548.828,-124.023,-520.020,0
1610554193.180,600.098,54.688,314.453,165.527,-272.461,0
1610554193.184,-974.609,59.082,784.180,234.375,-59.082,0
1610554193.188,204.102,51.270,352.539,46.875,-145.020,0
1610554193.192,-853.516,40.039,-308.594,-191.895,-425.781,0
1610554193.196,-708.496,38.086,-373.047,-141.602,-527.344,0
1610554193.198,460.938,48.340,241.211,153.809,-313.477,0
1610554193.202,-933.594,51.758,653.809,254.395,-100.586,0
1610554193.206,349.121,47.852,459.961,74.219,-96.680,0
1610554193.210,-771.973,36.621,-168.945,-201.660,-344.238,0
1610554193.214,-804.688,30.273,-424.805,-168.457,-509.277,0
1610554193.218,286.133,38.574,46.875,117.188,-365.234,0
1610554193.222,-930.176,42.969,531.738,242.188,-162.109,0
1610554193.225,489.258,41.992,467.773,109.863,-127.441,0
1610554193.229,-678.223,37.109,-119.629,-165.527,-344.238,0
1610554193.233,-889.160,26.367,-615.723,-193.848,-562.012,0
1610554193.237,140.625,33.203,-68.359,68.359,-434.570,0
1610554193.241,-953.613,47.363,744.141,248.047,-159.668,0
1610554193.243,607.910,52.734,601.562,145.020,-114.746,0
1610554193.247,-568.848,46.387,-23.926,-144.531,-306.641,0
1610554193.251,-960.938,38.574,-376.465,-209.473,-512.207,0
1610554193.255,-17.090,43.945,-15.625,32.715,-450.195,0
1610554193.259,988.281,50.781,588.379,254.883,-187.500,0
1610554193.263,691.406,49.316,582.520,173.340,-103.027,0
1610554193.267,-462.891,45.410,-1.465,-110.840,-295.898,0
1610554193.270,-1000.000,45.898,-360.840,-210.449,-507.812,0
1610554193.274,-207.520,47.852,-148.926,-7.324,-479.980,0
1610554193.278,894.043,56.152,426.270,244.629,-241.211,0
1610554193.282,774.902,60.059,764.648,195.312,-96.191,0
1610554193.286,-330.566,52.246,232.422,-74.707,-264.160,0
1610554193.288,-1000.000,43.945,-429.199,-221.191,-536.133,0
1610554193.292,-342.773,47.363,-171.387,-40.039,-520.508,0
1610554193.296,822.266,57.617,604.492,244.141,-244.141,0
1610554193.300,852.051,58.105,758.789,213.867,-113.281,0
1610554193.304,-179.688,52.734,242.188,-47.852,-240.723,0
1610554193.308,-1000.000,45.898,-392.578,-216.309,-504.883,0
1610554193.312,-493.652,46.875,-284.180,-80.566,-558.105,0
1610554193.315,714.355,52.246,424.316,212.402,-333.984,0
1610554193.319,922.852,56.641,577.148,229.492,-190.430,0
1610554193.323,-27.832,56.641,281.738,-14.648,-244.141,0
1610554193.327,-961.426,45.898,-177.734,-218.262,-477.539,0
1610554193.331,-615.723,41.992,-270.020,-121.582,-563.477,0
1610554193.335,589.355,48.828,343.750,182.617,-342.285,0
1610554193.339,-999.512,55.176,800.293,243.652,-139.648,0
1610554193.343,126.465,54.688,525.391,29.785,-176.758,0
1610554193.347,-900.391,43.945,-263.672,-210.449,-439.453,0
1610554193.351,-683.594,40.039,-432.129,-154.785,-567.383,0
1610554193.355,490.234,48.340,271.973,141.113,-370.117,0
1610554193.359,-941.895,53.223,767.090,244.141,-155.273,0
1610554193.362,298.828,50.293,455.078,74.707,-190.430,0
1610554193.366,-813.965,46.387,-286.621,-192.383,-463.867,0
1610554193.370,-768.555,47.852,-312.012,-173.828,-590.332,0
1610554193.374,353.027,52.734,293.457,116.211,-413.086,0
1610554193.378,-925.293,60.547,787.598,251.953,-176.758,0
1610554193.378,453.125,61.035,613.770,107.910,-173.340,0
1610554193.382,-707.031,53.223,-56.641,-170.410,-417.969,0
1610554193.386,-854.004,50.293,-365.234,-184.082,-563.965,0
1610554193.390,192.871,54.199,71.777,87.891,-444.824,0
1610554193.394,-950.195,59.570,736.328,253.906,-189.453,0
1610554193.398,562.500,58.594,615.723,127.441,-154.785,0
1610554193.402,-614.258,52.246,-81.543,-148.438,-391.113,0
1610554193.405,-942.383,41.504,-550.293,-196.777,-581.055,0
1610554193.409,32.227,46.387,-99.609,45.410,-500.488,0
1610554193.413,-991.211,63.477,841.797,251.465,-201.172,0
1610554193.417,674.805,66.895,786.621,159.180,-134.766,0
1610554193.421,-489.746,57.617,84.473,-118.652,-357.910,0
1610554193.424,-1000.000,48.828,-311.523,-208.008,-553.711,0
1610554193.428,-124.023,46.875,2.441,17.578,-508.301,0
1610554193.432,941.406,51.270,646.484,279.785,-257.812,0
1610554193.436,750.488,60.547,760.742,203.613,-155.273,0
1610554193.440,-363.281,63.965,244.141,-80.566,-300.781,0
1610554193.444,-1000.000,53.223,-387.695,-204.102,-530.273,0
1610554193.448,-304.199,47.363,-339.355,-23.926,-565.430,0
1610554193.451,839.844,55.664,329.102,262.695,-334.473,0
1610554193.455,833.008,64.941,762.207,260.254,-188.965,0
1610554193.459,-214.355,59.082,348.633,-7.324,-311.523,0
1610554193.463,-1000.000,49.805,-331.055,-214.355,-537.109,0
1610554193.467,-434.082,51.270,-217.773,-73.730,-557.617,0
1610554193.468,769.531,61.035,547.363,234.863,-296.387,0
1610554193.472,902.344,62.500,846.191,231.934,-119.141,0
1610554193.476,-72.266,57.129,330.078,-18.066,-236.328,0
1610554193.480,-983.887,52.246,-352.539,-211.914,-510.254,0
1610554193.484,-559.082,52.734,-324.219,-91.309,-578.125,0
1610554193.488,654.785,59.082,318.359,210.449,-359.375,0
1610554193.492,979.004,62.500,573.730,241.211,-197.266,0
1610554193.495,79.590,64.453,339.844,17.578,-248.047,0
1610554193.499,-914.551,53.711,-189.453,-220.215,-484.375,0
1610554193.503,-691.895,41.992,-439.941,-141.602,-604.980,0
1610554193.507,487.793,51.270,209.473,166.504,-403.320,0
1610554193.511,-950.195,64.453,838.867,245.117,-177.734,0
1610554193.528,260.254,60.547,591.797,57.129,-198.242,0
1610554193.532,-833.008,48.828,-227.539,-208.008,-461.426,0
1610554193.536,-737.305,46.387,-495.605,-168.945,-605.469,0
1610554193.540,410.156,51.270,166.992,122.070,-425.293,0
1610554193.544,-934.570,56.641,760.742,239.258,-204.102,0
1610554193.548,359.863,60.059,443.848,88.379,-203.613,0
1610554193.552,-759.277,52.734,-331.543,-191.406,-459.473,0
1610554193.555,-837.891,44.434,-450.195,-187.012,-607.910,0
1610554193.559,195.801,46.875,157.715,98.633,-438.477,0
1610554193.563,-958.984,52.246,689.941,248.535,-191.895,0
1610554193.567,515.625,56.641,619.141,116.211,-157.715,0
1610554193.571,-666.992,50.293,-50.293,-168.945,-399.902,0
1610554193.573,-887.695,43.945,-509.766,-203.125,-600.098,0
1610554193.577,107.910,51.758,-55.664,63.477,-493.164,0
1610554193.581,-983.398,60.547,677.246,244.629,-241.211,0
1610554193.585,625.977,64.453,769.531,128.418,-156.738,0
1610554193.589,-550.781,57.617,60.059,-149.414,-352.539,0
1610554193.593,-995.117,43.945,-590.332,-215.332,-604.004,0
1610554193.597,-104.492,47.852,-224.121,18.066,-535.156,0
1610554193.600,951.660,60.059,647.461,243.652,-241.211,0
1610554193.604,719.238,60.547,728.516,166.016,-158.203,0
1610554193.608,-435.059,49.805,-112.305,-107.910,-361.328,0
1610554193.612,-1000.000,42.480,-625.488,-220.215,-605.469,0
1610554193.616,-230.957,48.828,-126.953,-11.230,-541.992,0
1610554193.618,882.324,59.082,558.105,246.582,-265.137,0
1610554193.622,802.734,62.988,742.188,177.246,-139.648,0
1610554193.626,-273.438,59.082,212.402,-83.008,-274.902,0
1610554193.630,-1000.000,48.340,-479.492,-229.004,-535.645,0
1610554193.634,-413.574,44.922,-413.574,-67.383,-575.195,0
1610554193.638,776.855,56.152,314.941,225.098,-308.105,0
1610554193.642,877.441,63.477,681.641,205.078,-173.340,0
1610554193.645,-139.648,61.035,284.180,-49.805,-295.898,0
1610554193.649,-1000.000,47.852,-547.852,-224.121,-564.453,0
1610554193.653,-512.207,42.969,-576.172,-96.191,-614.746,0
1610554193.657,702.148,59.082,434.570,204.590,-331.543,0
1610554193.661,954.102,65.918,862.305,241.211,-138.184,0
1610554193.663,36.621,58.105,398.926,5.859,-211.426,0
1610554193.667,-936.523,50.293,-355.469,-212.402,-486.328,0
1610554193.671,-627.441,46.387,-425.293,-127.441,-571.777,0
1610554193.675,574.707,50.781,252.441,163.574,-355.957,0
1610554193.679,-979.492,54.199,679.199,230.469,-169.434,0
1610554193.683,176.270,50.781,372.559,36.133,-197.754,0
1610554193.687,-874.512,41.504,-379.883,-206.055,-444.824,0
1610554193.690,-718.262,37.109,-563.965,-153.809,-569.824,0
1610554193.694,428.711,42.480,-58.594,139.648,-414.062,0
1610554193.698,-937.988,54.688,590.332,239.258,-181.641,0
1610554193.702,355.957,56.641,645.020,64.453,-148.926,0
1610554193.706,-775.391,40.527,-196.289,-192.871,-412.109,0
1610554193.708,-796.875,34.668,-562.988,-163.574,-583.496,0
1610554193.712,293.945,45.898,75.195,112.305,-432.617,0
1610554193.716,-934.570,51.270,745.605,245.117,-161.621,0
1610554193.720,468.750,48.828,565.918,106.934,-132.324,0
1610554193.724,-698.730,44.922,-221.680,-168.457,-405.273,0
1610554193.728,-881.836,37.109,-643.555,-188.965,-591.309,0
1610554193.732,151.367,42.969,-90.820,83.496,-455.566,0
1610554193.735,-952.148,54.199,570.312,256.836,-212.402,0
1610554193.739,584.961,51.758,420.898,137.695,-182.617,0
1610554193.743,-586.426,42.480,-111.816,-142.090,-398.438,0
1610554193.747,-959.473,35.156,-482.422,-208.984,-592.773,0
1610554193.751,-35.156,39.062,-170.898,35.156,-507.324,0
1610554193.753,969.238,50.781,611.328,259.277,-214.844,0
1610554193.757,707.031,54.199,785.156,168.945,-112.305,0
1610554193.761,-443.359,46.387,56.641,-114.258,-328.125,0
1610554193.765,-1000.000,33.691,-602.051,-220.703,-583.984,0
1610554193.769,-153.320,39.062,-279.297,-4.883,-533.691,0
1610554193.773,925.293,51.758,477.051,250.000,-244.141,0
1610554193.777,783.203,54.199,649.902,182.129,-132.812,0
1610554193.780,-309.082,45.898,-19.531,-82.031,-306.641,0
1610554193.784,-1000.000,38.574,-604.980,-215.820,-553.223,0
1610554193.788,-340.820,43.457,-242.676,-42.969,-540.039,0
1610554193.792,825.195,50.293,475.586,229.980,-267.578,0
1610554193.796,848.633,50.781,663.086,208.008,-134.277,0
1610554193.799,-175.781,48.828,217.285,-39.062,-263.184,0
1610554193.803,-1000.000,40.527,-380.859,-213.379,-492.676,0
1610554193.807,-472.168,37.109,-473.145,-68.848,-558.105,0
1610554193.811,734.863,46.387,226.074,215.820,-327.637,0
1610554193.815,930.176,55.176,753.418,213.867,-127.930,0
1610554193.819,-24.414,52.246,298.828,-11.230,-207.520,0
1610554193.823,-968.262,36.133,-594.727,-213.867,-496.582,0
1610554193.826,-596.191,33.203,-678.711,-124.512,-602.539,0
1610554193.830,613.281,45.898,281.250,167.480,-342.773,0
1610554193.834,998.047,49.316,810.059,222.168,-123.047,0
1610554193.838,122.070,47.363,427.246,20.996,-171.387,0
1610554193.842,-901.367,41.504,-347.656,-216.309,-449.219,0
1610554193.843,-683.105,38.086,-472.656,-148.926,-546.387,0
1610554193.847,497.070,47.363,152.344,138.672,-362.305,0
1610554193.851,-952.637,52.246,609.863,224.609,-169.922,0
1610554193.855,284.180,53.711,438.965,56.641,-171.875,0
1610554193.859,-807.129,49.316,-283.203,-204.102,-428.711,0
1610554193.863,-770.508,42.969,-612.305,-166.504,-562.988,0
1610554193.867,329.102,46.875,-170.898,113.281,-413.574,0
1610554193.870,-939.453,53.711,518.555,226.074,-178.711,0
1610554193.874,448.242,58.105,656.738,93.750,-131.348,0
1610554193.878,-714.844,41.504,-144.531,-181.152,-382.812,0
1610554193.882,-850.098,32.715,-592.285,-189.941,-565.430,0
1610554193.886,193.359,45.898,-11.230,84.473,-427.246,0
1610554193.903,-954.590,53.223,680.176,248.535,-176.758,0
1610554193.907,555.176,50.781,593.262,139.648,-126.953,0
1610554193.911,-621.094,41.504,-131.348,-156.250,-345.703,0
1610554193.915,-936.035,34.180,-601.074,-215.820,-575.195,0
1610554193.919,23.438,38.086,-125.977,42.969,-475.098,0
1610554193.923,996.094,45.410,496.582,252.441,-208.496,0
1610554193.927,654.785,43.457,442.383,151.367,-166.016,0
1610554193.930,-508.789,38.574,-40.527,-139.648,-347.168,0
1610554193.934,-997.070,35.645,-472.656,-222.168,-550.293,0
1610554193.938,-135.742,35.645,-344.238,0.488,-528.320,0
1610554193.942,925.293,43.945,388.672,230.469,-252.930,0
1610554193.946,748.535,51.758,767.090,162.598,-117.676,0
1610554193.948,-367.188,43.945,141.602,-105.469,-283.203,0
1610554193.952,-1000.000,31.250,-530.273,-225.586,-514.160,0
1610554193.956,-280.762,36.621,-302.734,-38.086,-495.117,0
1610554193.960,859.375,50.781,468.262,234.863,-238.770,0
1610554193.964,816.406,54.199,704.102,201.172,-122.070,0
1610554193.968,-234.375,46.875,145.020,-60.059,-246.094,0
1610554193.972,-1000.000,31.250,-584.473,-218.750,-513.672,0
1610554193.975,-438.965,33.203,-470.215,-77.148,-567.871,0
1610554193.979,762.207,46.387,327.148,208.984,-313.965,0
1610554193.983,886.230,46.387,521.973,205.566,-172.852,0
1610554193.987,-91.309,46.387,148.438,-36.621,-265.137,0
1610554193.991,-980.469,42.480,-302.246,-226.562,-476.562,0
1610554193.994,-552.734,38.086,-399.902,-114.746,-539.062,0
1610554193.998,660.645,44.434,303.711,188.477,-297.363,0
1610554194.002,973.633,50.293,795.898,234.375,-102.539,0
1610554194.006,77.148,47.852,404.297,19.531,-186.035,0
1610554194.010,-917.480,35.645,-426.270,-215.820,-466.309,0
1610554194.014,-650.879,33.691,-612.305,-139.648,-569.824,0
1610554194.018,541.992,45.410,127.441,169.434,-341.797,0
1610554194.021,-965.820,51.758,718.750,235.840,-145.508,0
1610554194.025,222.656,47.852,342.285,39.062,-200.195,0
1610554194.029,-849.121,38.574,-480.469,-217.773,-451.172,0
1610554194.033,-737.793,38.086,-520.020,-175.781,-566.406,0
1610554194.037,386.719,41.992,46.875,120.117,-405.762,0
1610554194.039,-944.336,49.805,577.148,235.840,-176.270,0
1610554194.043,381.836,55.176,543.945,82.031,-141.602,0
1610554194.047,-754.883,46.875,-176.270,-199.219,-400.391,0
1610554194.051,-821.289,40.039,-565.918,-198.242,-561.523,0
1610554194.055,234.375,45.410,-26.367,91.309,-395.508,0
1610554194.059,-950.684,52.734,587.891,240.723,-161.621,0
1610554194.063,514.648,55.176,498.535,107.910,-140.625,0
1610554194.066,-660.156,45.410,-174.316,-169.434,-359.375,0
1610554194.070,-910.645,37.109,-734.863,-209.961,-566.406,0
1610554194.074,83.008,43.945,-190.430,53.223,-459.473,0
1610554194.078,-979.492,54.199,719.727,246.094,-177.734,0
1610554194.082,615.234,58.594,672.363,142.578,-99.609,0
1610554194.085,-557.129,48.340,-16.113,-136.719,-287.109,0
1610554194.089,-982.422,34.180,-586.914,-217.773,-527.832,0
1610554194.093,-83.984,40.039,-233.887,16.602,-472.168,0
1610554194.097,952.637,53.223,523.438,247.559,-195.312,0
1610554194.101,724.121,58.594,594.727,163.574,-111.328,0
1610554194.105,-413.574,50.781,8.301,-109.863,-279.297,0
1610554194.109,-1000.000,43.457,-547.363,-215.820,-507.324,0
1610554194.112,-242.676,45.898,-359.863,-10.742,-496.582,0
1610554194.116,869.629,51.758,351.562,257.324,-232.910,0
1610554194.120,792.480,61.035,765.625,199.219,-93.262,0
1610554194.124,-283.691,56.641,240.723,-70.312,-234.863,0
1610554194.128,-1000.000,40.039,-547.363,-222.656,-520.020,0
1610554194.128,-391.113,41.016,-407.715,-58.594,-547.363,0
1610554194.132,794.434,51.758,496.094,238.281,-239.746,0
1610554194.136,864.746,56.641,772.949,219.238,-93.262,0
1610554194.140,-148.438,52.734,229.492,-33.203,-223.145,0
1610554194.144,-1000.000,41.016,-489.258,-216.309,-476.562,0
1610554194.148,-526.855,41.504,-549.316,-95.703,-563.965,0
1610554194.152,680.176,50.293,198.730,199.219,-350.098,0
1610554194.155,940.430,53.223,553.711,225.586,-166.992,0
1610554194.159,25.391,53.223,198.242,-10.742,-239.258,0
1610554194.163,-933.105,46.875,-345.215,-221.191,-487.793,0
1610554194.167,-614.746,43.457,-450.195,-121.094,-572.266,0
1610554194.171,592.285,48.828,204.590,169.922,-361.328,0
1610554194.174,-982.910,53.711,779.785,233.398,-129.395,0
1610554194.178,192.871,51.758,477.051,37.109,-165.039,0
1610554194.182,-856.934,37.109,-391.602,-201.660,-442.871,0
1610554194.186,-707.520,33.203,-595.215,-144.531,-551.758,0
1610554194.190,455.566,44.922,88.379,140.137,-377.441,0
1610554194.194,-940.430,50.293,673.828,240.234,-123.535,0
1610554194.198,344.727,49.316,381.836,74.219,-121.582,0
1610554194.201,-778.320,42.969,-434.570,-193.848,-398.926,0
1610554194.205,-784.180,40.039,-550.781,-172.852,-549.316,0
1610554194.209,320.801,50.293,105.469,113.281,-411.133,0
1610554194.213,-930.176,57.617,636.719,247.070,-184.082,0
1610554194.217,492.188,52.734,564.453,102.539,-136.230,0
1610554194.218,-671.875,44.922,-77.637,-173.828,-360.352,0
1610554194.222,-881.836,38.574,-545.898,-191.895,-556.641,0
1610554194.226,135.254,41.992,-135.254,71.289,-456.055,0
1610554194.230,-965.820,55.176,628.418,238.770,-176.758,0
1610554194.234,590.820,56.641,661.133,121.094,-103.027,0
1610554194.238,-589.355,44.922,-132.324,-159.180,-335.938,0
1610554194.242,-956.543,35.156,-777.832,-217.285,-555.664,0
1610554194.245,-3.906,42.480,-297.852,27.832,-486.816,0
1610554194.249,990.234,50.293,677.734,245.117,-199.219,0
1610554194.253,694.824,49.316,695.801,158.203,-114.258,0
1610554194.257,-451.660,47.363,-48.340,-119.141,-309.570,0
1610554194.261,-1000.000,41.016,-559.082,-221.191,-528.320,0
1610554194.264,-177.734,42.969,-189.453,-8.789,-471.191,0
1610554194.268,909.180,49.805,468.262,249.512,-213.867,0
1610554194.272,762.207,52.246,587.891,179.199,-109.375,0
1610554194.276,-340.332,50.781,154.785,-90.332,-240.234,0
1610554194.280,-1000.000,41.504,-459.473,-219.238,-485.352,0
1610554194.284,-367.188,38.574,-475.098,-48.828,-512.207,0
1610554194.288,800.781,49.316,255.859,230.957,-250.000,0
1610554194.291,844.727,57.617,803.711,198.730,-71.289,0
1610554194.295,-188.477,51.270,336.426,-54.199,-194.824,0
1610554194.299,-1000.000,40.039,-494.141,-222.656,-491.699,0
1610554194.303,-475.098,40.527,-457.031,-94.238,-552.734,0
1610554194.307,728.027,51.270,373.535,203.613,-297.852,0
1610554194.323,917.480,59.570,772.461,210.449,-113.281,0
1610554194.327,-47.363,55.664,266.602,-26.367,-221.680,0
1610554194.331,-973.145,45.410,-453.613,-214.355,-490.723,0
1610554194.335,-589.355,47.852,-437.012,-115.234,-548.828,0
1610554194.339,616.699,56.152,288.086,178.711,-324.707,0
1610554194.343,984.863,55.664,540.527,230.957,-166.016,0
1610554194.347,135.254,55.176,210.449,19.043,-218.750,0
1610554194.350,-869.629,55.664,-277.344,-213.867,-448.242,0
1610554194.354,-684.570,50.781,-487.793,-141.602,-558.594,0
1610554194.358,489.258,53.711,100.098,157.227,-364.746,0
1610554194.362,-955.566,61.523,757.324,238.770,-138.184,0
1610554194.366,288.574,59.082,586.426,55.176,-140.137,0
1610554194.369,-802.246,47.363,-295.410,-200.684,-416.016,0
1610554194.373,-761.719,40.039,-643.066,-170.410,-590.820,0
1610554194.377,359.375,45.410,69.824,121.582,-400.879,0
1610554194.381,-931.641,53.223,670.898,244.141,-176.758,0
1610554194.385,429.688,52.246,419.922,93.750,-186.523,0
1610554194.389,-720.215,42.480,-308.594,-179.199,-392.578,0
1610554194.393,-846.191,39.551,-595.703,-198.730,-552.246,0
1610554194.396,197.754,50.293,9.277,81.543,-432.617,0
1610554194.400,-960.449,53.223,545.410,238.770,-218.262,0
1610554194.404,570.801,52.246,407.715,116.211,-189.453,0
1610554194.408,-592.773,50.781,-21.484,-154.785,-352.051,0
1610554194.412,-923.828,37.598,-468.750,-204.590,-534.180,0
1610554194.413,54.688,38.574,-178.223,54.688,-484.863,0
1610554194.417,-990.723,51.270,561.523,250.977,-231.934,0
1610554194.421,661.133,54.688,688.477,157.715,-134.277,0
1610554194.425,-499.512,44.922,13.672,-114.258,-322.266,0
1610554194.429,-993.164,32.715,-614.746,-213.379,-554.688,0
1610554194.433,-128.418,41.016,-298.828,8.789,-488.770,0
1610554194.437,926.758,55.176,487.793,242.676,-215.332,0
1610554194.440,741.211,57.129,663.086,172.852,-103.027,0
1610554194.444,-383.301,50.293,-32.715,-84.961,-275.391,0
1610554194.448,-1000.000,42.480,-609.863,-222.168,-538.574,0
1610554194.452,-280.762,44.922,-229.980,-39.062,-511.230,0
1610554194.456,856.445,50.781,498.535,236.328,-220.703,0
1610554194.458,815.430,52.734,597.168,192.871,-116.211,0
1610554194.462,-227.539,49.805,199.707,-60.059,-248.047,0
1610554194.466,-1000.000,43.945,-384.766,-218.750,-477.539,0
1610554194.470,-436.035,44.434,-394.043,-73.242,-514.648,0
1610554194.474,764.648,52.246,386.230,218.262,-250.488,0
1610554194.478,895.508,59.570,722.168,224.609,-88.867,0
1610554194.482,-76.172,55.664,251.465,-24.902,-196.289,0
1610554194.485,-978.516,42.969,-529.785,-219.727,-459.473,0
1610554194.489,-549.316,39.062,-600.586,-104.980,-539.062,0
1610554194.493,662.598,48.340,318.359,188.965,-283.203,0
1610554194.497,969.238,57.129,776.367,235.352,-97.656,0
1610554194.501,66.895,58.105,383.301,16.113,-153.320,0
1610554194.503,-920.898,47.363,-354.980,-213.867,-409.668,0
1610554194.507,-649.414,44.922,-447.754,-126.465,-525.391,0
1610554194.511,542.480,54.688,212.402,175.293,-330.078,0
1610554194.515,-965.820,56.641,700.684,249.512,-127.930,0
1610554194.519,243.164,56.641,479.492,62.012,-145.996,0
1610554194.523,-827.637,52.734,-336.914,-186.523,-415.527,0
1610554194.527,-739.746,45.410,-641.602,-143.555,-565.918,0
1610554194.530,378.906,46.875,-75.684,136.719,-387.207,0
1610554194.534,-949.219,55.176,623.047,241.699,-153.809,0
1610554194.538,387.695,60.059,638.184,84.961,-137.207,0
1610554194.542,-751.953,48.828,-232.422,-186.523,-406.250,0
1610554194.546,-816.895,41.504,-597.168,-184.082,-559.082,0
1610554194.549,241.699,47.852,-0.977,95.215,-413.086,0
1610554194.553,-949.219,55.176,619.141,252.441,-191.895,0
1610554194.557,517.578,56.152,589.844,130.371,-93.750,0
1610554194.561,-659.668,48.340,-148.926,-159.180,-309.570,0
1610554194.565,-901.855,41.992,-583.984,-199.219,-547.363,0
1610554194.569,94.727,48.828,-141.113,74.219,-444.824,0
1610554194.573,-984.863,58.105,502.441,266.113,-175.293,0
1610554194.576,634.766,58.594,511.719,147.461,-117.676,0
1610554194.580,-524.902,49.316,14.648,-133.789,-297.363,0
1610554194.584,-971.680,37.109,-509.277,-199.219,-509.277,0
1610554194.588,-67.383,44.434,-174.805,30.762,-436.523,0
1610554194.592,958.496,54.688,591.309,253.418,-181.641,0
1610554194.593,716.309,58.105,741.699,185.059,-92.773,0
1610554194.597,-420.898,54.199,146.973,-89.355,-237.793,0
1610554194.601,-1000.000,40.039,-520.508,-213.379,-479.004,0
1610554194.605,-246.582,36.133,-354.004,-20.508,-482.422,0
1610554194.609,865.234,44.434,490.723,244.629,-182.129,0
1610554194.613,795.898,54.199,749.023,200.195,-46.875,0
1610554194.617,-287.598,51.270,-15.625,-62.988,-228.516,0
1610554194.620,-1000.000,41.016,-685.547,-216.309,-497.559,0
1610554194.624,-375.977,45.410,-305.664,-55.664,-508.789,0
1610554194.628,797.363,52.734,454.590,228.516,-249.023,0
1610554194.632,871.582,55.176,726.074,215.332,-98.633,0
1610554194.636,-125.977,57.129,360.352,-34.180,-174.805,0
1610554194.653,-1000.000,46.875,-361.328,-216.309,-426.270,0
1610554194.657,-521.973,42.969,-475.098,-90.332,-515.137,0
1610554194.661,687.500,53.223,253.418,207.520,-292.969,0
1610554194.665,950.684,60.059,727.539,229.980,-123.047,0
1610554194.669,32.227,58.105,384.277,4.883,-186.035,0
1610554194.673,-940.918,44.434,-542.969,-199.219,-480.469,0
1610554194.677,-616.211,40.039,-744.141,-111.816,-598.145,0
1610554194.680,589.355,52.246,192.871,182.617,-359.863,0
1610554194.684,-983.398,60.059,856.934,252.441,-111.816,0
1610554194.688,180.664,56.152,386.230,53.223,-156.738,0
1610554194.692,-865.234,45.410,-467.285,-196.777,-437.012,0
1610554194.696,-711.914,43.457,-459.473,-145.020,-529.785,0
1610554194.698,438.965,51.270,181.152,145.020,-352.539,0
1610554194.702,-947.754,57.617,725.098,242.676,-113.281,0
1610554194.706,337.402,57.617,543.457,69.824,-108.887,0
1610554194.710,-778.320,43.945,-258.789,-189.453,-399.414,0
1610554194.714,-789.551,37.598,-589.844,-162.598,-556.641,0
1610554194.718,306.152,45.410,-77.637,115.723,-407.715,0
1610554194.722,-931.641,50.781,596.191,251.953,-165.527,0
1610554194.725,481.445,53.223,610.352,109.375,-134.277,0
1610554194.729,-683.105,44.434,-108.887,-175.293,-355.957,0
1610554194.733,-885.742,35.156,-802.246,-197.266,-581.055,0
1610554194.737,124.512,42.969,-294.434,73.242,-486.816,0
1610554194.741,-971.191,54.688,750.000,246.094,-175.781,0
1610554194.743,583.984,53.223,684.570,133.301,-112.305,0
1610554194.747,-592.773,45.898,-50.781,-145.996,-316.895,0
1610554194.751,-952.148,39.062,-513.672,-206.055,-522.461,0
1610554194.755,-24.414,42.480,-132.812,44.434,-453.613,0
1610554194.759,969.238,50.293,569.824,254.395,-198.242,0
1610554194.763,691.406,53.223,576.172,164.062,-136.230,0
1610554194.767,-458.008,48.828,3.418,-109.375,-291.992,0
1610554194.770,-1000.000,39.062,-474.121,-218.750,-504.395,0
1610554194.774,-205.078,37.109,-358.398,-8.789,-506.348,0
1610554194.778,880.859,44.434,325.195,243.652,-245.605,0
1610554194.782,772.461,46.387,732.910,176.758,-110.352,0
1610554194.786,-324.707,40.039,208.984,-87.402,-249.512,0
1610554194.788,-1000.000,30.273,-552.246,-217.285,-506.348,0
1610554194.792,-332.520,32.227,-398.438,-40.527,-531.738,0
1610554194.796,828.613,45.410,479.980,232.422,-244.629,0
1610554194.800,837.402,46.387,743.164,202.148,-95.215,0
1610554194.804,-197.266,41.504,213.867,-53.223,-226.074,0
1610554194.808,-1000.000,33.203,-539.551,-223.633,-498.047,0
1610554194.812,-484.863,35.645,-471.191,-82.520,-542.969,0
1610554194.815,723.633,49.316,418.457,214.844,-265.625,0
1610554194.819,913.574,50.293,652.832,232.910,-112.793,0
1610554194.823,-27.344,47.852,254.395,-23.438,-214.355,0
1610554194.827,-953.613,41.504,-315.918,-235.352,-463.379,0
1610554194.831,-582.031,36.621,-490.234,-120.605,-555.176,0
1610554194.833,630.859,44.922,222.168,176.270,-321.777,0
1610554194.837,999.512,49.805,749.023,227.539,-123.047,0
1610554194.841,145.508,44.922,492.676,16.602,-122.559,0
1610554194.845,-881.348,33.203,-467.285,-221.680,-418.457,0
1610554194.849,-679.688,33.691,-711.914,-144.531,-563.965,0
1610554194.853,493.652,42.969,76.660,154.297,-350.098,0
1610554194.857,-957.520,47.852,669.922,244.141,-116.211,0
1610554194.860,285.156,49.805,429.688,67.871,-114.746,0
1610554194.864,-806.641,41.504,-419.922,-197.754,-405.273,0
1610554194.868,-766.602,38.086,-503.418,-162.109,-526.367,1
1610554194.872,340.332,45.898,182.617,127.930,-340.332,0
1610554194.876,-940.430,56.641,731.934,247.070,-118.652,0
1610554194.878,425.293,57.617,541.992,92.773,-135.742,0
1610554194.882,-721.680,45.410,-208.496,-183.594,-397.949,0
1610554194.886,-854.980,37.109,-572.754,-187.988,-543.945,0
1610554194.890,170.410,43.945,-54.199,85.449,-390.625,0
1610554194.894,-965.332,51.270,655.273,241.211,-140.137,0
1610554194.898,549.316,47.852,559.570,114.746,-94.238,0
1610554194.902,-623.047,36.621,-187.988,-166.016,-319.336,0
1610554194.905,-934.082,27.832,-809.082,-211.914,-560.547,0
1610554194.909,33.203,35.645,-291.016,46.387,-444.336,0
1610554194.913,-996.094,44.922,766.602,248.047,-124.512,0
1610554194.917,660.645,44.922,747.070,142.578,-68.359,0
1610554194.921,-499.512,41.992,-12.695,-127.930,-281.738,0
1610554194.923,-990.723,33.691,-533.203,-216.309,-506.836,0
1610554194.927,-129.395,35.156,-200.195,-8.301,-452.637,0
1610554194.931,924.316,42.480,504.395,237.305,-190.430,0
1610554194.935,746.094,47.852,648.438,167.969,-85.938,0
1610554194.939,-376.465,42.480,86.426,-101.562,-251.953,0
1610554194.943,-1000.000,27.832,-587.402,-221.680,-492.188,0
1610554194.947,-296.387,26.855,-463.867,-34.180,-472.168,0
1610554194.950,835.938,38.086,303.711,229.004,-227.051,0
1610554194.954,821.777,46.387,755.371,184.082,-90.332,0
1610554194.958,-226.074,41.992,239.258,-68.359,-226.562,0
1610554194.962,-1000.000,31.738,-550.293,-214.844,-491.699,0
1610554194.966,-434.570,30.762,-387.207,-74.707,-500.977,0
1610554194.968,762.207,44.434,483.398,208.008,-232.422,0
1610554194.972,890.625,50.293,812.012,210.938,-74.707,0
1610554194.976,-90.332,48.340,342.773,-31.250,-156.738,0
1610554194.980,-982.422,37.598,-383.789,-214.844,-410.156,0
1610554194.984,-561.523,32.227,-467.773,-104.004,-519.043,0
1610554194.988,641.113,40.527,194.824,186.035,-303.223,0
1610554194.992,963.867,42.969,506.348,226.562,-117.676,0
1610554194.995,80.566,43.945,240.234,7.324,-190.918,0
1610554194.999,-906.738,39.062,-305.176,-223.633,-438.477,0
1610554195.003,-660.156,32.227,-560.059,-143.066,-552.734,0
1610554195.007,531.250,40.527,162.598,160.156,-333.984,0
1610554195.011,-973.633,52.246,758.789,228.516,-116.699,0
1610554195.015,230.469,54.688,489.258,39.062,-146.484,0
1610554195.019,-833.008,44.434,-325.195,-205.078,-408.203,0
1610554195.023,-729.980,39.551,-649.902,-158.203,-560.059,0
1610554195.027,407.227,46.875,125.000,129.395,-354.492,0
1610554195.031,-939.453,50.293,770.020,238.770,-119.629,0
1610554195.035,375.000,45.898,412.109,88.379,-146.484,0
1610554195.039,-761.230,41.016,-431.152,-189.453,-409.180,0
1610554195.042,-810.547,41.016,-559.082,-188.477,-553.223,0
1610554195.046,255.371,44.922,76.172,91.309,-395.508,0
1610554195.050,-950.195,46.875,699.219,240.723,-138.672,0
1610554195.054,525.879,42.969,658.203,126.465,-81.543,0
1610554195.058,-641.602,34.668,-57.617,-155.273,-312.012,0
1610554195.073,-896.973,29.785,-558.105,-190.430,-516.602,0
1610554195.077,100.586,35.156,-112.793,73.242,-403.320,0
1610554195.081,-981.445,41.992,590.332,251.465,-140.625,0
1610554195.085,628.906,41.504,555.664,142.090,-119.141,0
1610554195.089,-537.109,37.598,-82.520,-139.160,-350.098,0
1610554195.093,-977.051,28.809,-784.180,-210.449,-581.543,0
1610554195.097,-74.219,30.762,-396.973,25.879,-496.582,0
1610554195.100,959.473,43.945,682.617,250.977,-169.922,0
1610554195.104,706.543,45.410,738.281,175.293,-90.332,0
1610554195.108,-437.012,33.691,-8.789,-104.004,-288.574,0
1610554195.112,-1000.000,30.273,-530.273,-234.375,-508.301,0
1610554195.116,-233.887,35.645,-271.484,-38.086,-501.465,0
1610554195.118,875.000,42.480,446.289,238.770,-237.793,0
1610554195.122,797.363,49.805,690.430,193.359,-93.750,0
1610554195.126,-270.020,43.945,229.492,-65.430,-207.031,0
1610554195.130,-1000.000,31.738,-471.191,-210.938,-460.938,0
1610554195.134,-389.648,29.297,-467.285,-62.988,-522.461,0
1610554195.138,790.039,38.574,257.812,216.797,-272.949,0
1610554195.142,863.770,44.434,587.402,203.613,-128.418,0
1610554195.145,-141.602,39.551,187.012,-47.852,-231.445,0
1610554195.149,-1000.000,30.273,-562.500,-223.145,-489.746,0
1610554195.153,-524.414,27.832,-645.996,-91.309,-550.293,0
1610554195.157,686.035,40.039,343.750,194.824,-271.484,0
1610554195.161,942.871,45.410,883.789,213.867,-65.430,0
1610554195.163,11.719,41.992,351.562,-10.742,-159.668,0
1610554195.167,-943.359,37.598,-452.148,-216.309,-465.820,0
1610554195.171,-620.117,37.598,-462.891,-123.535,-539.062,0
1610554195.175,575.195,42.480,251.465,170.898,-304.688,0
1610554195.179,-990.723,48.340,687.500,233.398,-126.953,0
1610554195.183,166.992,48.828,381.348,25.391,-152.344,0
1610554195.187,-870.117,41.504,-379.395,-227.051,-425.293,0
1610554195.190,-714.355,41.016,-527.832,-161.133,-559.570,0
1610554195.194,417.480,43.945,-62.500,143.555,-380.859,0
1610554195.198,-960.449,53.223,559.082,248.047,-135.742,0
1610554195.202,330.078,59.082,630.371,79.590,-120.605,0
1610554195.206,-783.691,49.316,-222.656,-189.453,-394.043,0
1610554195.209,-791.016,42.969,-589.844,-179.199,-539.062,0
1610554195.213,286.621,48.828,98.633,97.656,-350.098,0
1610554195.217,-951.172,56.641,719.238,234.375,-121.582,0
1610554195.221,463.379,60.547,514.160,103.516,-112.793,0
1610554195.225,-693.848,49.805,-213.379,-174.805,-352.539,0
1610554195.229,-872.559,39.551,-707.520,-197.266,-577.148,0
1610554195.233,134.277,48.828,-126.465,69.336,-431.152,0
1610554195.236,-979.980,56.641,595.703,242.188,-149.902,0
1610554195.240,584.961,55.176,455.078,129.883,-127.930,0
1610554195.244,-583.008,47.852,-63.965,-153.320,-335.449,0
1610554195.248,-949.219,39.551,-532.715,-215.820,-544.922,0
1610554195.252,-21.973,43.945,-171.875,33.203,-433.594,0
1610554195.253,966.797,51.270,609.863,251.953,-143.555,0
1610554195.257,690.430,53.711,702.148,161.621,-86.426,0
1610554195.261,-458.984,46.875,40.527,-117.676,-270.020,0
1610554195.265,-1000.000,37.109,-628.906,-215.820,-500.000,0
1610554195.269,-169.922,43.457,-328.125,-5.371,-468.750,0
1610554195.273,901.855,53.223,448.730,250.488,-219.238,0
1610554195.277,760.254,51.270,626.953,187.500,-98.633,0
1610554195.280,-341.309,47.852,-8.301,-80.078,-233.887,0
1610554195.284,-1000.000,46.875,-630.371,-226.562,-496.582,0
1610554195.288,-345.703,49.805,-247.559,-54.199,-467.285,0
1610554195.292,812.500,56.152,466.797,241.699,-208.496,0
1610554195.296,842.285,61.035,666.992,211.426,-101.074,0
1610554195.299,-178.223,57.617,258.301,-40.039,-195.801,0
1610554195.303,-1000.000,41.992,-452.148,-215.820,-461.426,0
1610554195.307,-476.074,37.598,-558.105,-86.914,-534.668,0
1610554195.311,726.074,49.316,198.730,217.773,-288.086,0
1610554195.315,916.992,56.152,718.750,226.074,-125.000,0
1610554195.319,-32.227,49.805,277.832,-3.906,-204.590,0
1610554195.323,-960.449,39.062,-600.098,-214.844,-469.727,0
1610554195.326,-592.285,43.457,-688.477,-125.488,-554.688,0
1610554195.330,612.793,54.688,269.531,178.711,-300.293,0
1610554195.334,986.328,58.594,837.891,230.469,-73.730,0
1610554195.338,118.652,57.617,437.988,25.879,-123.047,0
1610554195.342,-891.113,46.387,-338.867,-214.355,-388.672,0
1610554195.343,-680.664,42.480,-494.141,-165.039,-498.047,0
1610554195.347,490.234,50.781,169.434,138.672,-297.852,0
1610554195.351,-961.426,56.152,697.754,232.422,-73.730,0
1610554195.355,286.621,51.758,462.891,45.410,-100.098,0
1610554195.359,-795.410,42.969,-303.711,-209.961,-374.023,0
1610554195.363,-770.996,37.598,-666.016,-169.922,-544.434,0
1610554195.367,312.500,40.039,-229.004,122.559,-403.809,0
1610554195.370,-956.055,51.270,498.535,245.605,-147.949,0
1610554195.374,434.570,57.129,653.809,99.121,-98.145,0
1610554195.378,-721.191,48.828,-179.199,-179.199,-362.305,0
1610554195.382,-837.891,43.945,-616.211,-185.547,-523.438,0
1610554195.386,202.637,52.246,-23.926,83.984,-380.371,0
1610554195.403,-958.984,57.617,687.012,237.793,-123.047,0
1610554195.407,546.875,57.129,604.980,121.582,-60.547,0
1610554195.411,-626.953,51.270,-194.824,-156.738,-312.012,0
1610554195.415,-924.316,45.410,-614.746,-208.984,-515.137,0
1610554195.419,23.926,47.852,-133.301,44.434,-409.668,0
1610554195.423,978.027,49.316,452.148,255.371,-164.551,0
1610554195.427,663.086,50.293,485.352,160.156,-96.191,0
1610554195.430,-494.629,46.875,20.508,-131.836,-269.531,0
1610554195.434,-985.352,37.598,-573.242,-216.797,-503.418,0
1610554195.438,-131.836,42.480,-411.621,16.113,-475.586,0
1610554195.442,914.551,56.641,406.738,250.977,-199.219,0
1610554195.446,741.211,62.500,738.281,173.340,-105.957,0
1610554195.448,-375.977,56.152,119.141,-109.375,-274.902,0
1610554195.452,-1000.000,46.387,-629.395,-231.445,-550.293,0
1610554195.456,-291.992,43.457,-415.039,-34.668,-562.500,0
1610554195.460,841.797,45.898,489.258,243.164,-259.277,0
1610554195.464,819.336,51.270,764.160,212.891,-115.723,0
1610554195.468,-224.121,47.852,121.094,-57.129,-254.395,0
1610554195.472,-1000.000,33.691,-605.469,-224.609,-515.625,0
1610554195.475,-408.203,33.203,-406.738,-78.613,-536.133,0
1610554195.479,777.832,46.875,400.391,214.844,-251.465,0
1610554195.483,895.996,49.316,582.520,211.914,-92.773,0
1610554195.487,-53.711,46.875,181.641,-34.668,-177.246,0
1610554195.491,-963.867,39.062,-425.781,-213.379,-422.852,0
1610554195.493,-553.223,33.691,-562.500,-93.262,-514.160,0
1610554195.497,650.391,41.992,174.805,206.543,-271.484,0
1610554195.501,961.914,50.781,764.648,243.652,-58.594,0
1610554195.505,72.754,50.781,431.152,21.484,-126.953,0
1610554195.509,-909.668,42.969,-413.574,-203.613,-400.879,0
1610554195.513,-650.879,37.109,-626.953,-120.605,-516.113,0
1610554195.517,536.621,50.781,123.047,179.688,-313.477,0
1610554195.520,-973.633,61.523,774.414,250.488,-101.562,0
1610554195.524,229.492,58.594,423.340,50.293,-126.465,0
1610554195.528,-833.496,49.316,-454.102,-200.195,-398.438,0
1610554195.532,-725.586,46.875,-523.926,-150.391,-527.832,0
1610554195.536,407.715,51.270,164.062,132.812,-330.566,0
1610554195.539,-941.895,57.617,690.430,238.770,-114.746,0
1610554195.543,390.137,59.570,467.285,76.660,-126.465,0
1610554195.547,-746.094,49.316,-256.836,-192.383,-357.910,0
1610554195.551,-807.617,39.551,-557.129,-183.105,-509.766,0
1610554195.555,252.930,46.387,-101.562,87.891,-383.789,0
1610554195.559,-954.102,55.176,554.688,239.746,-137.207,0
1610554195.563,522.461,56.152,554.199,110.840,-88.867,0
1610554195.566,-645.508,49.805,-156.250,-169.922,-336.426,0
1610554195.570,-896.973,41.504,-790.527,-200.195,-573.242,0
1610554195.574,95.215,48.340,-241.699,59.570,-446.777,0
1610554195.578,-988.281,59.082,733.398,249.023,-140.137,0
1610554195.582,617.188,59.082,662.598,139.648,-81.055,0
1610554195.584,-550.293,48.340,-66.406,-133.301,-284.668,0
1610554195.588,-969.727,43.945,-568.848,-200.684,-513.184,0
1610554195.592,-74.219,50.293,-233.887,20.020,-469.727,0
1610554195.596,945.801,54.199,493.652,242.676,-205.078,0
1610554195.600,716.309,55.176,633.789,157.715,-83.984,0
1610554195.604,-420.898,46.387,-9.766,-109.375,-254.883,0
1610554195.608,-1000.000,38.086,-584.473,-214.844,-502.441,0
1610554195.611,-241.211,40.527,-366.699,-21.973,-485.840,0
1610554195.615,859.375,50.781,296.387,244.629,-234.375,0
1610554195.619,788.574,58.105,708.984,190.430,-106.934,0
1610554195.623,-288.574,52.734,275.879,-73.730,-234.863,0
1610554195.627,-1000.000,42.480,-527.344,-219.238,-511.230,0
1610554195.629,-381.836,42.969,-401.855,-62.012,-529.785,0
1610554195.633,793.457,52.246,491.699,223.633,-223.633,0
1610554195.637,862.793,55.176,767.090,204.590,-73.730,0
1610554195.641,-131.348,50.293,236.328,-43.457,-191.895,0
1610554195.645,-991.699,39.551,-450.195,-217.285,-437.500,0
1610554195.649,-520.020,34.668,-532.715,-94.727,-532.715,0
1610554195.653,688.477,41.504,218.750,199.219,-304.688,0
1610554195.656,926.270,50.293,519.043,220.703,-143.555,0
1610554195.660,10.254,51.270,156.738,-8.301,-221.191,0
1610554195.664,-926.270,41.016,-263.184,-222.656,-419.922,0
1610554195.668,-622.070,33.203,-454.102,-138.672,-532.227,0
1610554195.672,572.754,37.109,200.684,163.086,-313.477,0
1610554195.673,-996.582,44.922,779.297,227.539,-89.355,0
1610554195.677,178.711,46.387,480.957,27.832,-134.766,0
1610554195.681,-852.539,35.645,-377.930,-217.285,-408.691,0
1610554195.685,-707.520,28.320,-637.695,-163.574,-545.410,0
1610554195.689,442.383,35.645,86.914,129.883,-351.074,0
1610554195.693,-957.031,41.504,666.992,227.539,-116.699,0
1610554195.697,324.219,40.527,373.535,69.824,-120.117,0
1610554195.700,-785.156,34.668,-444.824,-192.383,-394.531,0
1610554195.704,-772.949,33.203,-572.754,-173.340,-538.086,0
1610554195.708,326.660,40.039,83.984,105.957,-366.211,0
1610554195.712,-939.941,43.457,635.742,238.281,-139.648,0
1610554195.716,479.004,42.480,542.969,106.934,-114.258,0
1610554195.718,-675.293,39.062,-127.930,-171.875,-338.379,0
1610554195.722,-872.070,31.738,-587.402,-194.824,-539.551,0
1610554195.726,130.371,31.738,-203.125,74.707,-447.266,0
1610554195.730,-979.980,37.598,592.285,245.605,-165.039,0
1610554195.734,582.031,41.504,722.168,128.906,-70.312,0
1610554195.738,-591.309,32.227,-100.586,-148.438,-304.688,0
1610554195.742,-947.754,20.996,-824.219,-203.125,-558.594,0
1610554195.745,-12.207,28.320,-336.426,32.715,-478.516,0
1610554195.749,975.586,39.062,662.598,238.281,-182.129,0
1610554195.753,675.781,41.016,701.660,157.715,-101.074,0
1610554195.757,-475.586,33.691,0.488,-113.770,-287.598,0
1610554195.761,-1000.000,26.855,-534.180,-209.473,-502.441,0
1610554195.764,-178.223,35.156,-257.812,-11.230,-480.469,0
1610554195.768,897.461,45.410,402.344,234.375,-233.398,0
1610554195.772,766.602,49.316,589.355,185.059,-108.887,0
1610554195.776,-326.660,45.898,163.086,-79.590,-239.746,0
1610554195.780,-1000.000,37.109,-472.168,-207.520,-479.004,0
1610554195.784,-340.820,39.551,-454.590,-34.180,-476.562,0
1610554195.788,805.664,47.363,253.418,239.746,-230.469,0
1610554195.791,841.309,54.199,753.906,204.102,-84.473,0
1610554195.795,-166.016,57.617,353.516,-54.688,-165.527,0
1610554195.799,-999.512,44.922,-492.188,-212.402,-443.848,0
1610554195.803,-471.191,38.086,-496.582,-83.984,-518.066,0
1610554195.807,730.957,47.363,373.047,202.637,-250.000,0
1610554195.823,906.250,54.688,758.301,224.609,-77.148,0
1610554195.827,-55.664,53.223,281.250,-20.508,-177.734,0
1610554195.831,-966.309,42.480,-481.445,-221.191,-462.891,0
1610554195.835,-588.379,41.504,-494.141,-115.234,-528.320,0
1610554195.839,605.469,48.828,214.355,171.875,-292.969,0
1610554195.843,969.238,50.293,507.812,227.051,-118.652,0
1610554195.847,116.211,50.781,212.402,18.555,-165.527,0
1610554195.850,-872.070,47.852,-291.016,-218.262,-411.133,0
1610554195.854,-687.500,45.898,-457.520,-159.668,-500.000,0
1610554195.858,470.215,53.711,117.188,129.883,-318.848,0
1610554195.862,-970.215,63.477,720.215,222.656,-116.699,0
1610554195.866,268.555,66.895,559.570,38.574,-108.887,0
1610554195.868,-812.988,56.641,-276.855,-217.773,-357.422,0
1610554195.872,-752.930,49.805,-651.367,-180.664,-522.461,0
1610554195.876,354.492,53.223,37.109,104.980,-344.238,0
1610554195.880,-951.172,52.246,712.402,233.398,-100.098,0
1610554195.884,409.180,46.875,500.977,82.520,-93.262,0
1610554195.888,-729.980,37.109,-355.957,-190.430,-362.305,0
1610554195.892,-835.938,29.785,-731.934,-197.754,-544.434,0
1610554195.895,202.148,36.621,-73.242,78.613,-379.395,0
1610554195.899,-968.262,47.363,587.402,247.559,-133.301,0
1610554195.903,543.945,49.316,402.832,119.141,-111.816,0
1610554195.907,-610.840,45.410,-105.469,-161.133,-302.734,0
1610554195.911,-917.480,34.668,-491.211,-216.797,-487.793,0
1610554195.913,35.645,30.762,-198.242,31.250,-429.199,0
1610554195.917,989.746,38.574,598.145,238.770,-146.484,0
1610554195.921,646.973,43.945,716.309,135.254,-50.781,0
1610554195.925,-515.137,36.133,2.930,-140.137,-257.812,0
1610554195.929,-986.816,28.320,-626.953,-225.586,-487.793,0
1610554195.933,-130.371,34.180,-362.305,-9.766,-451.660,0
1610554195.937,920.898,43.457,469.727,231.934,-160.645,0
1610554195.940,730.469,46.387,711.914,167.969,-41.016,0
1610554195.944,-401.855,40.039,-90.820,-102.539,-262.207,0
1610554195.948,-1000.000,32.227,-723.633,-235.840,-506.348,0
1610554195.952,-283.203,36.133,-306.152,-45.898,-465.820,0
1610554195.956,842.773,42.969,448.242,232.422,-215.332,0
1610554195.958,817.383,46.875,628.906,201.172,-104.980,0
1610554195.962,-225.586,44.922,178.711,-62.012,-236.328,0
1610554195.966,-1000.000,35.156,-434.082,-222.168,-456.543,0
1610554195.970,-441.406,37.109,-432.129,-71.777,-499.512,0
1610554195.974,752.441,46.387,307.617,216.309,-270.020,0
1610554195.978,884.766,51.758,692.383,216.309,-85.938,0
1610554195.982,-98.633,47.852,195.801,-39.551,-215.820,0
1610554195.985,-984.375,37.109,-587.402,-226.074,-491.211,0
1610554195.989,-553.711,31.250,-614.258,-102.539,-523.926,0
1610554195.993,651.855,36.621,302.734,175.293,-281.738,0
1610554195.997,956.055,46.875,795.410,213.379,-104.492,0
1610554196.001,48.828,46.875,389.648,2.930,-166.504,0
1610554196.004,-919.922,36.133,-385.254,-227.051,-424.805,0
1610554196.008,-659.668,36.621,-595.703,-142.090,-546.875,0
1610554196.012,516.602,45.410,141.602,155.762,-331.543,0
1610554196.016,-993.164,47.363,714.844,219.727,-81.055,0
1610554196.020,175.781,45.898,443.848,10.742,-113.770,0
1610554196.024,-861.816,38.574,-389.648,-253.418,-410.156,0
1610554196.028,-747.559,40.039,-661.133,-205.078,-529.297,0
1610554196.031,338.867,46.387,-94.727,79.102,-362.305,0
1610554196.035,-984.863,50.781,599.121,174.316,-136.230,0
1610554196.039,308.594,53.223,683.105,7.812,-87.891,0
1610554196.043,-799.805,41.992,-195.801,-271.484,-360.352,0
1610554196.047,-825.195,36.133,-656.738,-263.672,-559.082,0
1610554196.048,171.387,44.922,17.090,19.043,-375.977,0
1610554196.052,997.070,53.223,757.812,153.809,-90.820,0
1610554196.056,437.012,51.270,537.598,18.555,-102.051,0
1610554196.060,-721.191,41.504,-309.082,-254.395,-370.117,0
1610554196.064,-907.227,35.645,-666.016,-281.250,-543.945,0
1610554196.068,25.879,39.551,-136.230,-11.719,-426.270,0
1610554196.072,979.980,43.457,539.551,180.664,-166.504,0
1610554196.075,540.039,38.086,396.973,75.195,-149.902,0
1610554196.079,-640.137,35.156,-144.531,-202.637,-360.352,0
1610554196.083,-964.355,30.273,-506.348,-266.602,-534.180,0
1610554196.087,-87.891,31.250,-205.078,-27.344,-444.336,0
1610554196.091,931.152,41.016,548.828,208.984,-175.781,0
1610554196.093,705.566,43.945,714.844,140.137,-73.730,0
1610554196.097,-428.711,38.086,42.969,-137.695,-252.441,0
1610554196.101,-1000.000,31.250,-641.113,-241.699,-491.699,0
1610554196.105,-200.195,33.691,-334.961,-32.227,-441.895,0
1610554196.109,891.113,38.574,486.816,230.957,-175.293,0
1610554196.113,791.992,39.551,684.082,185.547,-46.387,0
1610554196.117,-272.949,29.297,-71.289,-74.707,-215.332,0
1610554196.120,-1000.000,17.578,-768.066,-225.098,-500.488,0
1610554196.124,-352.539,23.438,-319.336,-63.477,-476.074,0
1610554196.128,806.641,30.273,486.328,231.934,-206.543,0
1610554196.132,862.793,34.668,756.836,217.285,-55.176,0
1610554196.136,-119.629,32.715,298.340,-35.156,-172.363,0
1610554196.154,-991.211,22.949,-442.383,-205.566,-435.059,0
1610554196.158,-501.465,19.043,-500.488,-72.754,-485.840,0
1610554196.162,706.055,26.855,229.492,223.633,-259.766,0
1610554196.166,943.359,34.668,708.984,241.211,-91.797,0
1610554196.170,50.781,32.715,357.910,7.324,-155.273,0
1610554196.174,-920.410,20.996,-561.035,-192.871,-431.641,0
1610554196.178,-589.355,21.484,-727.051,-100.586,-513.672,0
1610554196.181,624.512,31.738,241.699,190.918,-262.695,0
1610554196.185,-990.723,34.668,812.988,253.906,-70.801,0
1610554196.189,182.617,33.691,410.156,54.199,-122.070,0
1610554196.193,-854.004,28.320,-382.324,-189.941,-382.812,0
1610554196.197,-700.195,24.414,-554.199,-135.254,-514.160,0
1610554196.198,454.590,29.785,136.719,156.250,-315.430,0
1610554196.202,-952.637,35.156,648.926,250.000,-91.797,0
1610554196.206,332.520,38.086,462.402,84.473,-97.656,0
1610554196.210,-775.879,34.180,-190.918,-173.340,-324.707,0
1610554196.214,-775.391,26.367,-561.523,-154.297,-486.328,0
1610554196.218,321.777,30.762,-74.219,126.465,-351.074,0
1610554196.222,-941.895,41.016,614.258,269.043,-85.938,0
1610554196.225,479.980,44.922,613.770,131.348,-53.223,0
1610554196.229,-674.316,36.133,-132.324,-143.066,-302.734,0
1610554196.233,-862.793,24.414,-752.441,-154.785,-496.582,0
1610554196.237,169.434,36.133,-188.477,105.469,-373.535,0
1610554196.241,-962.402,51.270,750.000,270.020,-99.609,0
1610554196.243,576.172,50.781,596.191,161.133,-84.473,0
1610554196.247,-588.379,42.480,-166.504,-118.164,-306.641,0
1610554196.251,-934.082,37.598,-530.762,-178.223,-468.750,0
1610554196.255,8.789,39.551,-136.719,79.590,-395.020,0
1610554196.259,978.516,45.410,531.738,284.180,-152.344,0
1610554196.263,693.848,51.270,550.293,182.129,-84.473,0
1610554196.267,-444.336,46.875,-9.277,-87.402,-261.230,0
1610554196.270,-985.352,38.574,-460.449,-188.965,-457.520,0
1610554196.274,-158.203,38.574,-355.469,17.578,-448.730,0
1610554196.278,896.484,50.293,375.488,261.230,-164.551,0
1610554196.282,765.137,60.059,797.852,203.125,-28.320,0
1610554196.286,-321.777,52.734,199.707,-53.223,-215.820,0
1610554196.288,-1000.000,40.527,-545.898,-188.477,-468.750,0
1610554196.292,-309.082,42.480,-373.535,-18.066,-470.215,0
1610554196.296,833.984,53.711,504.395,250.488,-182.129,0
1610554196.300,835.449,54.199,728.516,217.285,-44.434,0
1610554196.304,-175.781,50.293,111.816,-29.785,-196.777,0
1610554196.308,-1000.000,41.992,-562.988,-192.871,-451.172,0
1610554196.312,-462.402,40.527,-470.215,-60.059,-479.980,0
1610554196.315,734.863,52.246,331.543,222.168,-238.770,0
1610554196.319,905.273,56.152,608.887,230.469,-90.332,0
1610554196.323,-26.855,54.688,229.004,-6.348,-183.594,0
1610554196.327,-943.848,43.945,-328.125,-200.684,-426.758,0
1610554196.331,-566.895,40.527,-457.031,-84.961,-491.699,0
1610554196.333,636.719,46.387,253.906,189.453,-245.117,0
1610554196.337,986.816,51.270,799.805,232.422,-41.992,0
1610554196.341,137.207,51.270,473.145,41.992,-99.121,0
1610554196.345,-876.953,44.922,-413.574,-193.848,-388.184,0
1610554196.349,-664.062,40.527,-616.211,-121.094,-504.395,0
1610554196.353,507.812,46.387,154.297,171.875,-257.812,0
1610554196.357,-963.867,53.711,685.059,250.977,-56.641,0
1610554196.360,274.414,52.246,345.703,76.172,-116.699,0
1610554196.364,-814.453,42.480,-553.711,-185.059,-395.508,0
1610554196.368,-741.211,40.527,-638.672,-147.461,-519.531,0
1610554196.372,384.277,49.316,134.766,136.719,-334.961,0
1610554196.376,-942.871,50.781,683.594,248.535,-113.770,0
1610554196.378,423.828,50.781,583.984,102.051,-79.590,0
1610554196.382,-712.402,47.363,-143.066,-177.246,-314.453,0
1610554196.386,-831.543,41.992,-595.703,-181.152,-504.883,0
1610554196.390,212.402,46.875,-99.609,90.332,-370.117,0
1610554196.394,-961.914,54.199,628.906,251.465,-125.000,0
1610554196.398,546.387,56.641,590.820,142.090,-72.754,0
1610554196.402,-617.676,47.363,-157.227,-139.648,-301.758,0
1610554196.405,-913.574,37.109,-816.406,-189.453,-555.664,0
1610554196.409,62.500,43.457,-324.219,57.129,-447.754,0
1610554196.413,-996.582,52.734,668.457,250.977,-139.160,0
1610554196.417,646.973,54.199,695.312,165.039,-67.383,0
1610554196.421,-514.160,46.387,-34.180,-115.723,-263.672,0
1610554196.423,-975.098,38.574,-568.359,-202.148,-492.676,0
1610554196.427,-103.516,40.039,-191.895,22.949,-427.734,0
1610554196.431,926.270,44.434,523.438,255.371,-160.156,0
1610554196.435,726.562,47.363,687.500,193.359,-54.688,0
1610554196.439,-400.391,41.504,113.281,-78.613,-225.586,0
1610554196.443,-1000.000,33.203,-620.605,-209.473,-497.559,0
1610554196.447,-279.785,33.203,-493.652,-21.484,-479.492,0
1610554196.450,835.938,41.016,310.547,247.559,-203.125,0
1610554196.454,805.664,50.781,809.082,194.336,-36.621,0
1610554196.458,-249.023,47.363,342.285,-59.082,-141.113,0
1610554196.462,-1000.000,35.156,-500.000,-207.520,-419.434,0
1610554196.466,-416.504,33.203,-443.848,-72.266,-461.914,0
1610554196.469,767.578,43.945,383.789,222.168,-191.406,0
1610554196.473,871.582,46.875,760.742,222.656,-48.340,0
1610554196.477,-117.676,42.480,195.801,-21.484,-188.965,0
1610554196.481,-985.352,38.086,-558.105,-213.867,-451.172,0
1610554196.485,-548.828,37.598,-437.988,-104.980,-489.746,0
1610554196.489,647.949,45.898,281.250,201.172,-252.441,0
1610554196.493,941.895,48.828,580.078,229.980,-75.195,0
1610554196.496,41.504,50.293,260.742,-5.371,-162.109,0
1610554196.500,-916.504,48.340,-308.594,-218.262,-411.621,0
1610554196.504,-642.578,42.480,-493.164,-129.883,-499.512,0
1610554196.508,542.480,50.781,201.660,172.363,-267.090,0
1610554196.512,-992.676,56.641,806.641,243.652,-42.969,0
1610554196.529,191.406,51.270,523.438,44.434,-89.844,0
1610554196.533,-847.168,42.480,-315.918,-195.312,-351.074,0
1610554196.537,-727.539,39.551,-640.137,-140.137,-487.305,0
1610554196.541,401.855,46.387,45.410,145.508,-311.035,0
1610554196.545,-956.543,50.293,760.742,254.883,-77.148,0
1610554196.549,354.980,45.898,459.961,99.609,-93.262,0
1610554196.553,-760.742,38.574,-499.023,-174.805,-359.375,0
1610554196.556,-797.363,38.086,-656.250,-172.363,-501.465,0
1610554196.560,273.438,43.457,88.867,111.816,-343.262,0
1610554196.564,-949.219,50.293,719.238,254.395,-89.355,0
1610554196.568,502.441,51.758,624.512,109.863,-68.359,0
1610554196.572,-663.574,41.504,-119.629,-169.434,-318.848,0
1610554196.573,-880.859,36.621,-562.988,-191.406,-480.469,0
1610554196.577,109.375,42.480,-132.324,75.684,-375.000,0
1610554196.581,-991.699,50.781,619.629,256.348,-129.883,0
1610554196.585,609.375,51.758,688.477,145.996,-69.824,0
1610554196.589,-559.570,42.480,-13.672,-129.883,-268.555,0
1610554196.593,-958.008,30.273,-661.133,-205.078,-490.723,0
1610554196.597,-57.617,34.668,-363.770,27.832,-446.777,0
1610554196.600,947.266,48.340,485.840,259.766,-171.387,0
1610554196.604,696.289,54.199,706.055,178.711,-62.500,0
1610554196.608,-458.496,45.898,-87.891,-102.051,-262.207,0
1610554196.612,-1000.000,38.086,-718.750,-216.797,-493.164,0
1610554196.616,-195.312,41.016,-153.809,-11.230,-406.250,0
1610554196.619,883.789,46.387,591.797,249.512,-144.531,0
1610554196.623,783.691,53.223,735.840,193.359,-43.945,0
1610554196.627,-293.457,50.293,215.332,-77.148,-195.312,0
1610554196.631,-1000.000,41.992,-462.891,-214.355,-442.383,0
1610554196.635,-365.723,42.480,-426.270,-50.781,-471.680,0
1610554196.639,801.758,48.828,281.738,223.145,-238.281,0
1610554196.643,849.121,53.223,696.777,206.055,-65.430,0
1610554196.646,-160.156,50.781,282.227,-48.340,-168.457,0
1610554196.650,-1000.000,43.945,-574.707,-223.145,-480.957,0
1610554196.654,-488.281,41.992,-546.875,-82.031,-525.391,0
1610554196.658,711.426,50.781,406.250,209.961,-235.352,0
1610554196.662,931.152,57.617,869.141,223.633,-49.316,0
1610554196.664,-1.953,50.781,277.832,-8.301,-147.949,0
1610554196.668,-946.289,38.574,-667.480,-221.680,-466.309,0
1610554196.672,-603.516,41.016,-541.016,-123.535,-547.363,0
1610554196.676,589.355,52.734,308.105,177.734,-291.504,0
1610554196.680,996.582,59.570,750.488,239.258,-99.609,0
1610554196.684,160.645,58.594,409.668,42.480,-150.391,0
1610554196.688,-863.281,46.875,-399.902,-196.289,-418.945,0
1610554196.691,-692.871,39.551,-586.426,-127.930,-542.969,0
1610554196.695,459.473,47.363,-29.785,159.180,-366.211,0
1610554196.699,-957.031,59.082,616.211,241.211,-137.695,0
1610554196.703,336.914,61.523,668.945,70.312,-100.098,0
1610554196.707,-769.531,52.246,-276.855,-185.547,-378.418,0
1610554196.708,-762.695,46.875,-692.383,-150.391,-533.691,0
1610554196.712,345.703,50.293,99.121,124.512,-316.895,0
1610554196.716,-940.430,54.199,815.918,247.070,-54.688,0
1610554196.720,466.797,55.664,617.188,111.816,-40.527,0
1610554196.724,-683.594,48.340,-208.984,-169.922,-297.852,0
1610554196.728,-847.168,38.086,-684.570,-185.547,-499.023,0
1610554196.732,187.012,45.410,-143.066,84.473,-370.117,0
1610554196.735,-969.238,53.223,608.887,250.977,-98.145,0
1610554196.739,596.680,50.293,540.039,128.906,-57.617,0
1610554196.743,-563.965,43.457,-4.395,-153.809,-270.020,0
1610554196.747,-924.316,34.668,-447.266,-203.125,-457.031,0
1610554196.751,16.602,35.156,-184.082,43.945,-415.039,0
1610554196.754,973.145,44.922,615.234,252.441,-148.438,0
1610554196.758,676.270,47.363,817.871,162.109,-28.320,0
1610554196.762,-477.051,38.086,87.891,-118.164,-208.008,0
1610554196.766,-996.094,30.762,-681.641,-217.773,-478.516,0
1610554196.770,-155.762,35.645,-301.758,0.488,-435.059,0
1610554196.774,902.344,44.922,597.656,248.535,-124.023,0
1610554196.778,758.301,47.363,731.934,179.199,-37.598,0
1610554196.781,-333.008,38.086,-38.086,-87.891,-249.512,0
1610554196.785,-1000.000,33.203,-683.105,-215.332,-513.672,0
1610554196.789,-292.480,39.062,-223.633,-35.645,-460.449,0
1610554196.793,846.680,43.945,578.613,238.770,-157.227,0
1610554196.797,829.102,42.969,794.922,196.289,-26.367,0
1610554196.798,-190.430,38.086,317.871,-60.059,-150.391,0
1610554196.802,-1000.000,32.715,-439.941,-210.938,-431.641,0
1610554196.806,-458.008,29.785,-452.637,-74.219,-472.656,0
1610554196.810,734.375,34.180,333.984,210.938,-217.773,0
1610554196.814,899.414,43.945,771.484,212.402,-71.289,0
1610554196.818,-62.988,41.016,324.707,-25.391,-155.273,0
1610554196.822,-967.285,26.855,-573.242,-221.191,-433.594,0
1610554196.825,-578.125,25.391,-765.625,-116.211,-539.062,0
1610554196.829,625.000,35.156,218.750,180.176,-286.621,0
1610554196.833,974.121,38.574,898.926,215.820,-61.035,0
1610554196.837,97.168,37.598,489.258,3.418,-110.352,0
1610554196.841,-892.090,32.715,-309.570,-209.961,-370.605,0
1610554196.843,-674.316,30.762,-460.938,-135.742,-472.656,0
1610554196.847,489.258,38.086,243.652,153.809,-262.695,0
1610554196.851,-980.957,46.387,788.574,233.887,-42.480,0
1610554196.855,238.770,46.387,530.273,47.852,-75.684,0
1610554196.859,-824.707,37.109,-279.785,-201.172,-361.816,0
1610554196.863,-751.465,33.203,-676.758,-158.203,-528.320,0
1610554196.867,350.098,39.551,-200.195,137.207,-378.418,0
1610554196.870,-956.055,50.293,604.492,240.723,-99.609,0
1610554196.874,405.273,52.246,688.477,82.031,-43.945,0
1610554196.878,-730.469,43.945,-145.996,-175.781,-299.805,0
1610554196.882,-823.730,34.180,-657.715,-180.664,-494.141,0
1610554196.886,220.703,39.551,-65.430,87.891,-362.305,0
1610554196.903,-960.449,56.152,750.488,239.746,-81.543,0
1610554196.907,541.504,55.176,639.648,120.605,-49.316,0
1610554196.911,-632.324,42.480,-170.898,-147.949,-306.641,0
1610554196.915,-902.344,38.086,-623.047,-195.801,-496.582,0
1610554196.919,64.453,44.434,-100.098,61.523,-374.512,0
1610554196.923,986.328,49.316,535.156,245.117,-129.395,0
1610554196.927,635.254,49.805,509.277,136.719,-83.496,0
1610554196.930,-519.531,46.875,65.918,-128.418,-238.770,0
1610554196.934,-978.516,38.574,-472.168,-220.215,-446.777,0
1610554196.938,-125.977,37.109,-319.336,1.465,-426.270,0
1610554196.942,911.133,47.852,483.398,239.746,-145.508,0
1610554196.946,729.492,53.223,752.930,177.246,-32.227,0
1610554196.948,-386.230,48.340,122.559,-93.750,-233.398,0
1610554196.952,-1000.000,37.598,-645.020,-213.379,-492.676,0
1610554196.956,-231.934,37.598,-407.715,-21.973,-466.797,0
1610554196.960,874.512,47.852,579.590,232.422,-154.785,0
1610554196.964,803.223,50.781,823.242,187.500,-26.855,0
1610554196.968,-236.328,47.852,147.949,-69.336,-180.664,0
1610554196.972,-1000.000,40.527,-556.152,-219.727,-426.270,0
1610554196.975,-403.320,41.016,-366.211,-63.965,-454.102,0
1610554196.979,774.902,47.852,448.730,211.426,-189.453,0
1610554196.983,873.535,42.480,595.703,206.055,-72.266,0
1610554196.987,-93.262,39.062,187.012,-37.598,-184.570,0
1610554196.991,-974.121,38.086,-368.652,-229.004,-424.805,0
1610554196.994,-523.926,39.062,-489.258,-103.516,-505.859,0
1610554196.998,682.129,47.852,260.742,192.383,-265.625,0
1610554197.002,953.613,53.711,718.750,216.797,-85.449,0
1610554197.006,71.777,53.711,444.824,-4.395,-127.930,0
1610554197.010,-903.809,42.969,-379.883,-207.031,-388.184,0
1610554197.014,-622.559,38.574,-666.992,-116.211,-500.000,0
1610554197.018,573.242,47.363,165.039,164.062,-275.879,0
1610554197.021,-985.840,51.758,843.750,233.398,-59.082,0
1610554197.025,199.707,47.363,428.223,48.340,-115.723,0
1610554197.029,-848.145,37.109,-515.137,-198.730,-404.785,0
1610554197.033,-715.332,34.668,-545.898,-144.043,-499.023,0
1610554197.037,425.293,45.410,188.477,137.207,-300.293,0
1610554197.038,-951.660,55.176,724.609,234.863,-93.750,0
1610554197.042,374.512,53.223,544.434,75.684,-105.469,0
1610554197.046,-743.164,44.922,-204.590,-189.941,-350.098,0
1610554197.050,-790.527,41.016,-562.500,-173.340,-491.699,0
1610554197.054,276.367,41.016,-70.312,101.074,-347.656,0
1610554197.058,-958.984,44.922,574.219,236.816,-112.793,0
1610554197.062,492.188,45.410,540.527,102.539,-85.938,0
1610554197.065,-664.062,39.062,-134.277,-169.922,-318.848,0
1610554197.069,-884.766,34.180,-777.344,-192.383,-530.273,0
1610554197.073,115.723,43.457,-326.660,72.754,-419.434,0
1610554197.077,-978.516,57.617,753.418,256.836,-109.863,0
1610554197.081,606.934,56.152,748.047,144.043,-58.105,0
1610554197.083,-561.523,45.898,-84.961,-133.301,-307.129,0
1610554197.087,-948.242,38.086,-580.566,-192.871,-515.137,0
1610554197.091,-33.691,41.504,-144.043,43.457,-404.785,0
1610554197.095,958.496,47.363,623.047,260.254,-119.629,0
1610554197.099,696.777,47.363,718.750,172.363,-40.039,0
1610554197.103,-442.383,40.527,-5.859,-103.516,-244.141,0
1610554197.107,-1000.000,35.156,-625.488,-213.379,-475.586,0
1610554197.110,-217.285,37.598,-404.785,-12.695,-463.867,0
1610554197.114,863.281,44.922,227.051,243.164,-234.863,0
1610554197.118,778.809,54.199,682.617,183.105,-85.449,0
1610554197.122,-299.316,52.246,301.270,-84.473,-211.426,0
1610554197.126,-1000.000,41.504,-487.793,-214.355,-470.703,0
1610554197.128,-349.609,41.016,-361.816,-49.316,-473.145,0
1610554197.132,808.594,50.293,472.656,219.238,-218.750,0
1610554197.136,843.262,59.082,784.668,200.195,-81.055,0
1610554197.140,-159.180,56.152,265.137,-52.734,-190.430,0
1610554197.144,-995.117,45.898,-463.379,-226.074,-430.664,0
1610554197.148,-503.906,46.387,-490.234,-91.797,-485.352,0
1610554197.152,699.707,57.129,283.691,205.078,-239.258,0
1610554197.155,911.133,59.082,604.492,219.727,-80.078,0
1610554197.159,-28.320,55.176,238.281,-20.020,-177.246,0
1610554197.163,-943.848,44.434,-332.520,-222.168,-424.805,0
1610554197.167,-620.117,38.574,-550.293,-125.000,-520.020,0
1610554197.171,566.895,48.828,135.742,168.945,-300.293,0
1610554197.173,982.910,57.617,813.965,222.656,-65.918,0
1610554197.177,127.441,55.176,536.133,17.090,-106.445,0
1610554197.181,-878.906,41.992,-397.949,-220.703,-393.066,0
1610554197.185,-694.336,37.598,-660.156,-162.598,-512.207,0
1610554197.189,453.125,52.734,130.859,131.348,-299.805,0
1610554197.193,-969.727,63.477,701.660,227.539,-77.148,0
1610554197.197,286.133,62.012,399.414,62.012,-91.309,0
1610554197.200,-804.688,52.246,-449.219,-203.613,-367.188,0
1610554197.204,-766.602,50.781,-595.703,-187.012,-500.488,0
1610554197.208,323.242,57.617,107.910,101.562,-323.730,0
1610554197.212,-953.613,60.547,725.586,234.375,-85.449,0
1610554197.216,449.219,60.059,652.832,93.262,-40.527,0
1610554197.219,-701.172,50.293,-128.418,-188.477,-300.781,0
1610554197.223,-855.957,40.039,-682.129,-200.195,-510.254,0
1610554197.227,139.160,44.922,-245.117,80.078,-394.043,0
1610554197.231,-995.117,51.270,622.070,240.723,-125.000,0
1610554197.235,564.941,51.758,737.793,118.164,-45.410,0
1610554197.239,-607.910,43.457,-85.938,-162.109,-267.090,0
1610554197.243,-934.570,35.156,-811.035,-208.496,-507.324,0
1610554197.246,4.883,39.062,-311.035,45.898,-417.480,0
1610554197.250,974.609,49.316,742.676,240.723,-103.516,0
1610554197.254,653.809,52.734,772.949,145.996,-34.668,0
1610554197.258,-504.395,43.945,29.297,-134.766,-228.027,0
1610554197.262,-991.699,37.598,-560.059,-230.469,-457.520,0
1610554197.278,-161.621,42.969,-249.023,-2.441,-410.156,0
1610554197.282,896.484,47.363,543.945,242.676,-125.000,0
1610554197.286,746.582,46.387,748.047,174.805,-4.883,0
1610554197.290,-368.164,45.898,164.062,-98.145,-180.176,0
1610554197.294,-1000.000,37.598,-563.477,-218.262,-440.430,0
1610554197.298,-318.848,34.180,-509.277,-31.250,-449.707,0
1610554197.302,812.012,40.039,184.570,229.004,-199.219,0
1610554197.305,830.078,50.781,716.309,192.871,-36.621,0
1610554197.309,-192.871,52.734,371.582,-57.129,-152.832,0
1610554197.313,-1000.000,38.086,-504.883,-210.449,-439.453,0
1610554197.317,-442.871,34.668,-461.914,-65.918,-480.469,0
1610554197.321,748.047,41.016,413.086,215.820,-219.727,0
1610554197.323,898.438,44.434,850.586,219.727,-37.109,0
1610554197.327,-48.828,42.969,372.070,-31.250,-130.371,0
1610554197.331,-959.961,30.762,-464.355,-226.074,-415.527,0
1610554197.335,-554.199,27.832,-527.832,-103.027,-489.258,0
1610554197.339,652.344,38.574,283.691,186.523,-242.188,0
1610554197.343,978.027,44.434,728.027,237.305,-47.363,0
1610554197.347,129.883,42.480,367.188,20.020,-103.516,0
1610554197.350,-875.000,34.668,-413.086,-215.820,-380.859,0
1610554197.354,-644.043,33.203,-560.547,-132.812,-480.469,0
1610554197.358,536.133,42.969,-54.199,160.645,-308.594,0
1610554197.362,-971.191,50.781,504.395,240.723,-112.305,0
1610554197.366,292.480,52.246,596.191,52.734,-76.172,0
1610554197.368,-784.668,49.805,-246.582,-193.848,-333.984,0
1610554197.372,-728.516,48.340,-622.070,-139.648,-501.465,0
1610554197.376,409.668,53.223,109.863,137.695,-315.430,0
1610554197.380,-940.918,60.059,794.922,247.070,-78.125,0
1610554197.384,407.227,56.152,598.145,90.820,-70.801,0
1610554197.388,-725.586,45.410,-294.922,-184.570,-332.031,0
1610554197.392,-818.359,41.504,-702.148,-166.504,-508.301,0
1610554197.395,238.770,48.340,19.043,106.445,-329.590,0
1610554197.399,-962.402,55.664,633.789,240.234,-100.586,0
1610554197.403,524.414,58.594,434.570,110.840,-96.191,0
1610554197.407,-628.906,55.664,-142.578,-164.062,-301.270,0
1610554197.411,-894.531,45.410,-592.285,-192.871,-518.555,0
1610554197.413,78.613,48.340,-203.125,61.035,-416.992,0
1610554197.417,997.559,56.152,597.656,244.629,-135.254,0
1610554197.421,648.926,58.105,775.879,144.531,-42.480,0
1610554197.425,-504.395,53.223,34.180,-129.395,-250.488,0
1610554197.429,-963.867,40.039,-625.000,-203.613,-477.051,0
1610554197.433,-84.473,41.016,-302.246,26.367,-397.949,0
1610554197.437,935.547,52.734,524.414,255.371,-128.418,0
1610554197.440,725.098,55.664,775.879,169.434,-20.508,0
1610554197.444,-404.297,44.922,-23.438,-99.121,-210.938,0
1610554197.448,-1000.000,33.691,-703.613,-211.914,-462.891,0
1610554197.452,-255.371,41.504,-220.215,-21.973,-402.832,0
1610554197.456,854.004,52.246,553.223,245.605,-141.113,0
1610554197.459,792.480,51.270,732.910,191.406,-38.574,0
1610554197.463,-272.461,46.387,192.871,-66.895,-179.199,0
