timestamps,TP9,AF7,AF8,TP10,Right AUX,Marker0
1610548238.494,64.941,23.926,29.785,55.176,-2.441,0
1610548238.498,-16.113,28.320,39.551,20.020,38.574,0
1610548238.502,-36.133,32.227,41.504,-9.277,66.895,0
1610548238.506,8.301,29.297,37.109,14.648,32.715,0
1610548238.510,74.707,27.344,35.645,45.898,52.246,0
1610548238.514,84.961,32.227,31.250,41.992,82.520,0
1610548238.518,14.160,42.969,40.527,19.531,-19.531,0
1610548238.521,-34.668,42.480,48.340,-0.977,-29.297,0
1610548238.525,-8.789,29.297,27.344,-1.953,31.738,0
1610548238.529,66.406,26.855,16.602,37.598,24.902,0
1610548238.533,78.125,27.832,24.414,52.246,27.832,0
1610548238.537,-3.906,24.902,36.133,20.020,59.570,0
1610548238.539,-45.410,26.855,40.039,-11.719,11.719,0
1610548238.543,-17.578,23.926,29.297,-4.395,-48.828,0
1610548238.547,48.828,24.902,34.668,45.410,97.168,0
1610548238.551,90.332,28.320,38.086,67.871,71.777,0
1610548238.555,32.227,27.344,38.574,20.508,19.531,0
1610548238.559,-49.805,30.762,39.062,-16.113,93.262,0
1610548238.563,-34.180,30.273,31.250,0.000,30.273,0
1610548238.566,55.176,31.250,28.809,37.598,-6.836,0
1610548238.570,88.867,31.250,37.109,53.223,17.578,0
1610548238.574,35.156,29.297,29.785,36.133,25.879,0
1610548238.578,-23.926,26.855,15.137,2.441,27.344,0
1610548238.582,-26.855,15.137,7.324,-0.977,11.719,0
1610548238.584,48.340,14.648,8.789,39.551,9.766,0
1610548238.588,88.379,15.625,30.762,57.617,18.555,0
1610548238.592,43.945,21.973,37.109,33.203,77.637,0
1610548238.596,-30.762,30.273,30.273,-4.395,63.965,0
1610548238.600,-48.340,20.996,27.832,-13.672,-2.441,0
1610548238.604,38.574,21.484,29.785,20.996,-10.742,0
1610548238.608,90.332,27.344,25.391,56.641,31.738,0
1610548238.611,41.504,18.555,22.461,26.855,41.016,0
1610548238.615,-32.715,17.578,22.949,-23.926,20.020,0
1610548238.619,-46.387,25.391,22.949,-22.461,17.578,0
1610548238.623,15.137,19.531,23.438,10.254,29.785,0
1610548238.627,76.172,17.578,22.461,44.434,49.805,0
1610548238.629,51.758,26.367,24.902,48.828,60.059,0
1610548238.633,-17.578,30.273,18.555,21.973,14.648,0
1610548238.637,-57.129,23.926,14.160,7.812,15.625,0
1610548238.641,0.488,21.484,23.926,22.461,42.480,0
1610548238.645,78.613,24.414,27.832,45.410,24.414,0
1610548238.649,63.477,22.461,34.668,42.969,40.039,0
1610548238.653,-22.949,15.137,29.785,-3.418,69.336,0
1610548238.656,-65.430,15.137,27.832,-33.203,33.203,0
1610548238.660,-1.465,28.809,36.621,6.836,-6.836,0
1610548238.664,78.613,28.320,27.344,42.969,3.418,0
1610548238.668,76.660,16.113,20.996,28.320,32.227,0
1610548238.672,-0.488,17.578,25.391,-4.395,17.090,0
1610548238.675,-49.316,23.438,26.367,-24.902,3.418,0
1610548238.679,0.000,21.973,24.902,4.883,25.391,0
1610548238.683,77.148,22.949,28.809,56.152,96.680,0
1610548238.687,85.938,24.414,25.879,58.594,91.309,0
1610548238.691,12.207,22.949,24.902,16.113,55.176,0
1610548238.695,-29.297,28.320,31.250,-12.695,36.133,0
1610548238.699,-4.883,28.320,32.715,0.977,50.781,0
1610548238.702,56.152,23.926,30.762,42.480,17.090,0
1610548238.706,79.590,21.973,24.414,49.805,9.766,0
1610548238.710,5.371,19.043,25.391,11.230,32.715,0
1610548238.714,-61.523,20.996,36.621,-18.555,78.613,0
1610548238.718,-37.109,21.973,37.109,-5.371,49.316,0
1610548238.734,43.945,21.973,28.809,42.480,-32.715,0
1610548238.738,79.590,27.832,33.203,61.035,72.754,0
1610548238.742,34.180,30.273,36.133,30.273,78.613,0
1610548238.746,-34.668,29.785,33.691,-5.371,8.789,0
1610548238.750,-29.297,30.273,35.156,-8.789,-6.836,0
1610548238.754,35.645,28.320,30.762,14.160,-33.691,0
1610548238.758,73.242,30.273,25.879,29.297,8.789,0
1610548238.761,24.902,34.180,32.227,12.207,65.918,0
1610548238.765,-47.852,38.574,38.574,-25.879,48.828,0
1610548238.769,-79.102,35.645,31.250,-40.527,39.551,0
1610548238.773,-18.066,31.738,21.973,-12.207,23.926,0
1610548238.777,41.504,28.809,20.020,-2.441,-7.812,0
1610548238.779,-17.578,30.273,22.949,-27.344,6.836,0
1610548238.783,-98.633,33.203,31.250,-68.848,42.480,0
1610548238.787,-113.770,30.762,30.762,-88.379,16.602,0
1610548238.791,-55.664,33.203,27.344,-57.129,25.391,0
1610548238.795,5.371,33.691,25.879,-31.250,70.801,0
1610548238.799,-36.621,32.715,24.414,-53.223,73.242,0
1610548238.803,-121.094,34.180,24.902,-91.309,-14.648,0
1610548238.806,-138.672,33.691,26.367,-104.004,-2.441,0
1610548238.810,-92.285,33.203,24.414,-79.590,59.082,0
1610548238.814,-17.090,34.668,15.137,-42.969,89.844,0
1610548238.818,-33.203,36.621,16.113,-50.781,62.988,0
1610548238.822,-118.652,37.598,25.879,-95.215,12.695,0
1610548238.824,-150.391,33.691,23.926,-119.141,39.551,0
1610548238.828,-98.633,27.832,27.832,-83.496,23.438,0
1610548238.832,-12.207,26.367,30.273,-43.457,50.781,0
1610548238.836,-2.441,26.855,29.297,-41.504,72.266,0
1610548238.840,-83.008,30.762,31.250,-66.406,36.133,0
1610548238.844,-139.648,31.738,17.578,-77.148,14.648,0
1610548238.848,-75.684,31.250,15.137,-45.410,12.207,0
1610548238.851,17.090,27.832,23.926,-14.648,65.918,0
1610548238.855,27.832,27.832,33.203,0.977,26.367,0
1610548238.859,-29.785,37.598,44.922,-18.066,-82.031,0
1610548238.863,-79.590,37.109,48.828,-53.711,-35.645,0
1610548238.867,-59.082,25.391,34.668,-36.621,-23.438,0
1610548238.869,20.508,21.973,22.949,12.207,12.207,0
1610548238.873,56.641,25.391,21.973,27.344,70.801,0
1610548238.877,-17.090,27.832,20.508,-1.465,38.574,0
1610548238.881,-62.500,27.832,28.809,-20.996,63.477,0
1610548238.885,-31.738,18.555,30.762,-9.277,36.133,0
1610548238.889,36.621,12.695,29.297,20.996,12.207,0
1610548238.893,74.219,14.648,30.273,34.668,79.102,0
1610548238.896,20.996,20.996,27.344,17.090,94.238,0
1610548238.900,-27.344,28.809,32.227,0.977,50.293,0
1610548238.904,-9.766,26.367,27.344,8.789,13.672,0
1610548238.908,60.547,23.438,17.578,49.316,33.203,0
1610548238.912,110.352,25.879,19.531,76.172,69.336,0
1610548238.914,61.035,25.879,27.832,56.641,48.828,0
1610548238.918,-18.066,21.484,31.738,9.766,29.297,0
1610548238.922,-11.719,26.367,29.297,14.160,39.551,0
1610548238.926,77.148,32.227,32.715,58.594,27.344,0
1610548238.930,120.117,28.809,35.156,69.336,56.641,0
1610548238.934,72.754,29.297,33.691,62.500,37.598,0
1610548238.938,5.859,33.203,29.785,35.645,23.926,0
1610548238.941,7.324,35.156,31.738,33.203,76.172,0
1610548238.945,72.754,29.297,30.273,71.777,74.707,0
1610548238.949,122.559,20.020,19.043,89.355,78.613,0
1610548238.953,76.172,20.020,28.809,71.777,89.355,0
1610548238.957,11.230,28.320,43.457,41.992,84.961,0
1610548238.961,4.395,30.273,27.832,38.086,62.988,0
1610548238.965,54.688,22.949,17.090,62.988,33.691,0
1610548238.969,129.395,20.996,37.109,90.332,62.988,0
1610548238.973,116.699,24.902,50.781,83.984,71.289,0
1610548238.977,36.621,29.297,43.457,50.293,46.387,0
1610548238.981,14.160,38.574,35.156,48.828,54.199,0
1610548238.985,66.895,36.133,24.902,68.848,49.316,0
1610548238.988,118.652,20.020,18.066,81.543,9.277,0
1610548238.992,102.051,20.996,24.902,79.102,27.344,0
1610548238.996,33.203,26.855,32.715,46.875,59.082,0
1610548239.000,-3.418,24.902,37.109,36.133,39.551,0
1610548239.004,45.898,23.438,39.551,59.082,29.297,0
1610548239.004,116.699,23.438,42.480,93.262,-31.738,0
1610548239.008,116.211,27.832,41.992,95.703,-10.742,0
1610548239.012,39.551,27.832,48.340,56.152,21.484,0
1610548239.016,-4.883,26.367,54.199,34.180,12.207,0
1610548239.020,26.367,28.809,44.922,50.781,1.953,0
1610548239.024,100.586,27.344,35.156,95.703,80.566,0
1610548239.028,129.395,32.227,34.668,117.188,99.121,0
1610548239.031,51.270,32.227,31.738,64.453,17.578,0
1610548239.035,-29.297,22.461,25.391,11.230,-42.969,0
1610548239.039,2.441,18.555,17.578,31.738,-63.477,0
1610548239.043,94.727,19.531,32.715,69.824,-0.488,0
1610548239.047,114.746,23.438,47.852,74.707,10.254,0
1610548239.049,50.293,28.809,45.898,57.129,40.039,0
1610548239.053,-8.301,27.832,46.387,46.387,82.031,0
1610548239.057,10.254,27.344,36.621,52.246,45.410,0
1610548239.061,75.684,29.785,25.391,66.406,86.426,0
1610548239.065,113.770,27.832,25.879,68.848,128.418,0
1610548239.069,53.223,23.926,27.344,47.852,20.020,0
1610548239.073,-35.645,16.602,23.438,8.789,12.695,0
1610548239.076,-26.367,20.508,35.645,7.324,45.410,0
1610548239.080,70.801,27.832,40.039,53.223,35.156,0
1610548239.084,121.094,25.391,32.715,76.172,30.273,0
1610548239.088,57.617,32.227,35.645,51.270,25.391,0
1610548239.092,-23.438,28.809,28.809,7.324,40.039,0
1610548239.109,-20.996,27.832,33.691,10.742,14.160,0
1610548239.113,55.176,38.574,36.621,60.059,-20.508,0
1610548239.117,113.770,32.715,15.625,82.520,82.031,0
1610548239.121,59.082,21.973,11.719,47.852,59.570,0
1610548239.125,-14.648,22.461,32.227,-2.930,-29.785,0
1610548239.129,-18.066,24.414,26.367,-2.930,9.277,0
1610548239.133,37.598,23.926,17.578,35.156,44.922,0
1610548239.136,93.262,23.438,35.156,58.105,18.555,0
1610548239.140,72.266,25.391,44.434,57.617,31.250,0
1610548239.144,5.859,29.785,39.551,26.367,24.414,0
1610548239.148,-7.812,36.621,31.250,18.066,-56.152,0
1610548239.152,34.668,27.344,26.855,45.898,-21.484,0
1610548239.154,99.121,17.578,27.832,72.754,56.152,0
1610548239.158,69.336,25.879,26.367,55.664,36.621,0
1610548239.162,-0.977,32.715,25.391,15.625,67.871,0
1610548239.166,-22.461,29.297,18.555,6.348,51.270,0
1610548239.170,15.137,21.484,21.484,27.832,4.395,0
1610548239.174,80.566,20.996,30.273,69.824,41.504,0
1610548239.178,73.730,27.344,29.785,74.707,77.637,0
1610548239.181,11.719,26.367,29.785,19.531,50.293,0
1610548239.185,-26.855,30.273,34.668,-12.695,17.578,0
1610548239.189,10.742,34.668,38.086,17.090,5.371,0
1610548239.193,78.125,25.879,33.691,40.527,22.949,0
1610548239.197,86.426,30.273,32.715,37.598,59.082,0
1610548239.200,22.461,35.645,32.715,15.625,60.059,0
1610548239.204,-40.039,28.809,39.062,-8.789,-11.719,0
1610548239.208,-13.184,29.297,28.320,2.441,-26.367,0
1610548239.212,75.684,31.738,21.484,48.828,20.508,0
1610548239.216,93.262,27.344,35.156,65.918,57.129,0
1610548239.220,16.602,31.738,41.016,40.039,58.594,0
1610548239.224,-30.762,44.434,35.645,19.043,61.035,0
1610548239.227,0.000,34.180,19.531,12.207,50.781,0
1610548239.231,61.523,18.066,15.625,35.156,42.480,0
1610548239.235,96.191,20.508,18.066,59.570,-6.836,0
1610548239.239,36.621,29.297,21.484,32.227,-49.805,0
1610548239.243,-21.484,32.227,41.504,0.000,3.418,0
1610548239.244,-13.184,38.086,47.363,7.324,14.160,0
1610548239.248,51.758,34.180,32.227,35.645,14.648,0
1610548239.252,105.957,30.762,17.090,63.477,49.805,0
1610548239.256,58.594,37.598,31.738,49.805,52.246,0
1610548239.260,-29.297,37.109,51.270,10.254,-10.254,0
1610548239.264,-34.668,26.367,41.992,4.883,49.805,0
1610548239.268,42.969,18.066,28.809,33.203,7.324,0
1610548239.271,85.449,14.160,27.344,53.223,-56.641,0
1610548239.275,56.152,29.297,35.156,46.875,54.688,0
1610548239.279,-9.277,37.598,37.598,21.484,21.973,0
1610548239.283,-36.133,27.832,31.250,-14.160,-43.945,0
1610548239.287,30.273,28.320,33.691,18.555,7.812,0
1610548239.289,103.027,34.668,26.855,65.430,41.992,0
1610548239.293,57.129,37.109,14.160,39.551,27.832,0
1610548239.297,-15.137,37.109,33.203,0.977,37.598,0
1610548239.301,-27.832,33.203,40.527,-1.465,63.477,0
1610548239.305,25.879,29.297,34.668,34.668,43.945,0
1610548239.309,98.633,23.926,30.273,62.500,52.734,0
1610548239.313,72.266,22.461,19.043,50.781,93.750,0
1610548239.316,-5.859,28.809,14.648,9.277,60.547,0
1610548239.320,-32.227,35.645,23.926,-14.160,22.461,0
1610548239.324,14.160,37.598,36.621,13.672,0.000,0
1610548239.328,76.172,30.273,38.574,39.551,-1.953,0
1610548239.332,82.520,27.344,31.738,42.969,27.832,0
1610548239.334,-2.930,31.250,20.020,16.113,41.016,0
1610548239.338,-48.828,33.691,16.602,-7.812,30.273,0
1610548239.342,20.508,28.809,26.855,13.184,28.320,0
1610548239.346,101.074,25.391,34.180,44.922,35.156,0
1610548239.350,83.984,33.691,32.227,52.734,46.387,0
1610548239.354,6.836,33.691,27.344,38.574,41.504,0
1610548239.358,-35.645,24.414,24.902,-1.953,65.430,0
1610548239.361,-8.789,25.391,31.250,-6.836,83.984,0
1610548239.365,62.500,30.762,36.621,36.621,81.055,0
1610548239.369,74.707,34.668,36.621,51.758,76.660,0
1610548239.373,0.000,32.227,27.344,12.207,52.734,0
1610548239.377,-42.480,32.227,21.973,-13.672,8.789,0
1610548239.379,-7.324,33.691,29.785,-1.465,34.180,0
1610548239.383,53.711,26.855,32.715,35.156,75.195,0
1610548239.387,82.031,26.855,29.297,54.199,38.086,0
1610548239.391,20.996,28.320,31.250,18.066,27.832,0
1610548239.395,-47.852,25.391,33.203,-12.695,19.531,0
1610548239.399,-27.344,24.902,27.832,1.465,48.340,0
1610548239.403,49.805,25.391,20.020,29.297,109.863,0
1610548239.406,77.637,26.855,18.555,41.992,32.715,0
1610548239.410,26.855,31.250,19.531,23.926,41.504,0
1610548239.414,-20.996,33.691,21.484,-13.672,52.734,0
1610548239.418,-14.648,31.250,24.902,-16.602,17.578,0
1610548239.422,47.363,30.762,29.297,24.414,19.043,0
1610548239.425,84.961,27.832,33.691,39.551,38.086,0
1610548239.429,33.203,27.344,31.250,16.602,58.105,0
1610548239.433,-45.410,31.250,27.832,-18.066,48.340,0
1610548239.437,-69.336,25.391,29.785,-38.086,-3.906,0
1610548239.441,-6.836,22.949,31.738,-2.930,-5.371,0
1610548239.445,56.641,27.344,29.785,25.879,22.461,0
1610548239.449,18.066,30.762,27.344,2.930,1.953,0
1610548239.452,-57.129,37.598,32.227,-39.062,-36.621,0
1610548239.456,-80.566,34.180,36.133,-56.152,-14.160,0
1610548239.460,-43.945,22.949,23.926,-37.598,5.371,0
1610548239.464,7.324,19.531,21.973,-16.602,48.828,0
1610548239.468,-27.344,23.926,29.785,-35.156,52.246,0
1610548239.484,-111.328,27.344,26.855,-85.938,12.207,0
1610548239.488,-133.789,29.785,24.902,-105.957,-54.688,0
1610548239.492,-88.867,28.809,22.461,-86.426,-69.824,0
1610548239.496,-40.039,27.832,21.484,-60.547,40.039,0
1610548239.500,-65.430,27.344,21.973,-75.195,28.809,0
1610548239.504,-129.883,27.832,19.043,-116.211,45.898,0
1610548239.508,-173.828,23.438,17.578,-143.066,79.590,0
1610548239.511,-137.695,17.090,18.066,-125.977,35.645,0
1610548239.515,-45.898,22.461,25.391,-78.613,81.055,0
1610548239.519,-55.664,26.855,28.320,-73.242,56.152,0
1610548239.523,-134.766,19.531,22.461,-109.375,70.312,0
1610548239.527,-167.969,12.207,21.484,-135.742,79.102,0
1610548239.529,-130.859,13.184,32.715,-110.352,63.965,0
1610548239.533,-36.133,24.902,39.551,-58.594,39.062,0
1610548239.537,-31.250,28.320,31.738,-62.988,-19.531,0
1610548239.541,-114.746,20.508,33.691,-93.262,-30.273,0
1610548239.545,-137.207,20.508,47.852,-109.863,-38.574,0
1610548239.549,-109.863,19.043,38.574,-87.402,-66.895,0
1610548239.553,-36.621,13.184,20.996,-35.156,0.488,0
1610548239.556,4.883,17.090,10.254,-20.508,84.473,0
1610548239.560,-47.852,20.996,15.625,-45.410,-3.418,0
1610548239.564,-90.820,14.648,26.855,-62.500,-20.020,0
1610548239.568,-78.125,13.184,34.180,-51.758,26.855,0
1610548239.572,2.441,29.785,42.969,-10.254,6.348,0
1610548239.574,51.758,34.180,33.203,28.320,41.992,0
1610548239.578,-21.484,20.996,19.043,0.977,52.734,0
1610548239.582,-69.336,23.438,18.066,-40.527,24.902,0
1610548239.586,-34.668,24.902,20.020,-21.973,20.508,0
1610548239.590,52.246,24.902,19.531,42.480,7.812,0
1610548239.594,99.609,34.180,18.555,69.824,7.324,0
1610548239.598,48.828,37.598,25.879,43.457,24.414,0
1610548239.601,-3.906,34.668,31.250,11.230,19.043,0
1610548239.605,-0.488,35.156,31.738,10.742,45.898,0
1610548239.609,75.195,41.016,29.297,56.152,53.711,0
1610548239.613,133.789,41.016,23.926,95.215,69.824,0
1610548239.617,83.496,36.133,19.043,73.730,7.324,0
1610548239.619,26.367,40.039,26.367,38.574,-47.363,0
1610548239.623,17.578,37.598,30.273,36.133,-33.691,0
1610548239.627,78.613,32.715,27.832,78.613,-9.766,0
1610548239.631,145.996,31.738,27.344,101.074,45.898,0
1610548239.635,107.422,25.391,26.855,81.055,27.344,0
1610548239.639,34.668,25.879,27.832,40.039,3.906,0
1610548239.643,13.672,31.738,29.297,22.461,-5.371,0
1610548239.646,74.707,33.203,34.668,62.012,-7.324,0
1610548239.650,141.602,29.297,30.762,106.445,27.344,0
1610548239.654,121.094,30.762,26.855,98.145,49.316,0
1610548239.658,37.598,33.691,38.086,55.664,32.227,0
1610548239.662,-5.859,27.832,39.062,33.691,-9.277,0
1610548239.665,53.223,33.203,35.156,54.199,-1.953,0
1610548239.669,123.047,38.086,39.551,87.402,129.395,0
1610548239.673,103.516,27.832,36.621,78.613,82.031,0
1610548239.677,13.672,23.438,29.785,26.367,-4.883,0
1610548239.681,-38.574,29.297,31.250,-7.324,53.223,0
1610548239.685,6.348,32.227,28.809,14.160,90.820,0
1610548239.689,74.219,27.832,29.297,53.711,50.293,0
1610548239.692,63.965,34.180,27.344,38.086,33.203,0
1610548239.696,-22.461,38.086,13.184,-17.578,37.598,0
1610548239.700,-84.961,30.273,20.508,-46.387,62.012,0
1610548239.704,-64.453,30.273,33.691,-43.457,54.199,0
1610548239.708,3.418,25.879,26.367,-20.508,-18.066,0
1610548239.709,8.789,21.973,21.973,-11.230,20.508,0
1610548239.713,-55.664,28.320,29.297,-49.316,73.242,0
1610548239.717,-112.793,28.809,35.156,-86.426,55.176,0
1610548239.721,-96.680,24.902,31.250,-79.102,51.270,0
1610548239.725,-21.484,19.531,34.668,-33.203,68.848,0
1610548239.729,11.230,19.531,38.086,-24.414,33.203,0
1610548239.733,-47.852,20.996,37.598,-57.617,1.465,0
1610548239.736,-106.934,11.230,36.133,-87.402,42.969,0
1610548239.740,-100.098,12.207,34.180,-72.266,51.758,0
1610548239.744,-16.602,22.461,37.109,-23.438,34.668,0
1610548239.748,31.250,23.438,37.109,0.488,34.668,0
1610548239.752,-28.809,24.902,37.598,-14.648,1.465,99
1610548239.754,-96.680,19.043,31.738,-59.082,-17.578,0
1610548239.758,-87.891,12.695,29.785,-59.082,13.672,0
1610548239.762,-5.371,12.695,25.391,-5.371,100.586,0
1610548239.766,52.734,17.090,21.973,29.297,83.496,0
1610548239.770,10.742,21.484,35.645,8.789,27.832,0
1610548239.774,-54.199,24.902,43.457,-20.508,2.930,0
1610548239.778,-62.500,26.367,43.945,-14.160,24.414,0
1610548239.781,18.555,24.902,39.062,19.043,26.367,0
1610548239.785,92.773,25.391,29.785,45.410,-22.949,0
1610548239.789,49.805,24.902,30.273,31.738,44.434,0
1610548239.793,-19.531,25.391,37.598,4.395,116.211,0
1610548239.797,-22.949,23.438,41.016,4.883,31.250,0
1610548239.799,48.340,22.461,41.992,42.480,-27.832,0
1610548239.803,119.141,24.414,42.480,85.449,33.203,0
1610548239.807,88.867,20.508,40.039,76.660,68.359,0
1610548239.811,13.672,19.531,37.109,36.621,58.105,0
1610548239.815,-0.977,23.438,26.855,25.879,51.270,0
1610548239.819,49.805,28.809,19.531,62.988,0.488,0
1610548239.823,127.441,28.809,18.066,95.215,14.160,0
1610548239.826,118.164,25.391,24.414,94.727,32.715,0
1610548239.830,44.434,30.273,41.016,68.359,-37.109,0
1610548239.834,19.531,33.203,41.504,57.129,-58.105,0
1610548239.838,61.035,26.367,29.785,80.566,-43.457,0
1610548239.842,125.488,20.020,25.879,108.398,-31.738,0
1610548239.859,135.254,18.066,27.832,108.887,-13.672,0
1610548239.863,62.988,26.367,37.598,71.777,-32.227,0
1610548239.867,23.926,36.133,42.969,56.641,-9.766,0
1610548239.871,60.547,35.645,40.527,82.031,-10.254,0
1610548239.875,133.301,28.809,36.621,114.258,-1.465,0
1610548239.879,156.738,24.414,33.691,121.094,46.387,0
1610548239.883,88.867,35.156,36.621,101.074,61.035,0
1610548239.886,40.039,37.598,37.598,74.707,73.730,0
1610548239.890,65.430,24.902,32.715,78.613,67.383,0
1610548239.894,136.719,19.043,29.785,114.258,61.523,0
1610548239.898,148.926,23.438,33.691,125.000,54.199,0
1610548239.902,79.590,28.320,42.480,94.727,27.832,0
1610548239.904,37.109,31.250,35.156,63.477,11.719,0
1610548239.908,59.570,38.086,22.461,94.238,77.637,0
1610548239.912,132.812,36.621,32.715,129.395,71.289,0
1610548239.916,158.203,26.855,34.668,119.629,45.898,0
1610548239.920,89.355,30.762,34.668,88.379,99.609,0
1610548239.924,34.668,36.621,40.039,59.570,31.738,0
1610548239.928,42.969,30.273,37.598,66.895,-0.488,0
1610548239.931,112.793,24.902,37.109,97.656,24.414,0
1610548239.935,161.621,23.438,28.809,119.629,30.273,0
1610548239.939,114.258,24.902,18.066,103.516,50.293,0
1610548239.943,48.828,33.203,21.484,74.219,28.320,0
1610548239.947,32.227,33.691,33.691,59.082,32.227,0
1610548239.949,98.145,28.320,39.551,83.984,13.184,0
1610548239.953,156.738,26.367,31.250,111.816,-18.066,0
1610548239.957,112.793,31.250,26.367,101.074,-9.277,0
1610548239.961,39.062,40.527,39.551,61.523,-7.324,0
1610548239.965,17.578,28.320,30.273,20.996,1.953,0
1610548239.969,89.844,21.973,10.742,67.871,38.086,0
1610548239.973,144.043,32.227,17.090,114.746,70.801,0
1610548239.976,97.168,34.180,34.668,75.195,64.941,0
1610548239.980,21.484,35.156,43.945,33.203,37.109,0
1610548239.984,3.906,27.344,32.715,24.902,43.945,0
1610548239.988,51.270,19.043,33.203,50.293,47.363,0
1610548239.992,114.746,20.996,46.387,85.938,25.391,0
1610548239.995,103.516,24.902,30.273,77.637,27.832,0
1610548239.999,28.320,25.879,15.625,36.621,50.781,0
1610548240.003,-4.883,25.391,31.250,20.996,40.527,0
1610548240.007,42.480,24.902,32.715,37.109,10.254,0
1610548240.011,95.703,30.762,23.926,67.871,43.457,0
1610548240.015,102.539,40.039,20.020,98.633,90.332,0
1610548240.019,51.270,41.504,21.484,67.383,97.168,0
1610548240.022,-8.301,25.879,22.949,13.184,-0.488,0
1610548240.026,21.973,26.367,41.992,26.855,-55.176,0
1610548240.030,101.074,35.156,53.711,66.895,34.668,0
1610548240.034,101.562,24.902,34.180,62.988,65.918,0
1610548240.038,14.648,20.996,41.992,29.297,16.113,0
1610548240.039,-25.879,25.879,42.480,3.418,34.180,0
1610548240.043,15.625,29.785,27.344,20.020,76.660,0
1610548240.047,83.008,28.320,16.602,68.359,41.504,0
1610548240.051,95.703,23.438,24.414,71.289,16.602,0
1610548240.055,21.484,20.508,40.039,26.367,2.930,0
1610548240.059,-29.785,24.414,42.480,-1.953,9.277,0
1610548240.063,7.812,32.227,45.898,12.695,17.578,0
1610548240.066,88.867,38.086,35.645,69.336,-2.441,0
1610548240.070,108.887,31.250,14.160,73.730,46.875,0
1610548240.074,23.438,25.879,9.277,24.902,28.320,0
1610548240.078,-39.551,31.250,25.391,1.953,-4.883,0
1610548240.082,-19.531,24.902,29.297,7.324,46.875,0
1610548240.084,53.223,20.996,28.809,44.434,25.391,0
1610548240.088,103.027,39.062,39.062,82.031,2.441,0
1610548240.092,53.223,46.387,33.691,56.641,51.270,0
1610548240.096,-22.949,33.203,34.668,-6.836,65.430,0
1610548240.100,-21.973,29.785,41.504,0.488,44.922,0
1610548240.104,55.664,31.738,22.949,51.270,53.711,0
1610548240.108,104.004,29.785,22.461,64.453,65.918,0
1610548240.111,60.059,40.039,37.109,46.387,47.852,0
1610548240.115,-17.578,35.156,44.434,4.395,57.617,0
1610548240.119,-30.273,27.832,48.340,-7.324,59.082,0
1610548240.123,29.297,27.344,32.715,46.875,71.777,0
1610548240.127,92.285,25.391,21.973,88.867,36.621,0
1610548240.130,59.082,34.180,35.156,57.617,60.547,0
1610548240.134,-22.949,31.738,37.109,-3.418,46.875,0
1610548240.138,-45.898,23.438,35.156,-15.625,-3.906,0
1610548240.142,17.578,22.461,27.344,16.113,29.785,0
1610548240.146,82.520,22.949,28.809,36.133,29.297,0
1610548240.150,62.500,26.367,35.156,40.039,16.602,0
1610548240.154,-19.043,22.461,24.902,-1.953,24.414,0
1610548240.157,-58.105,17.090,29.297,-35.645,-12.207,0
1610548240.161,7.812,19.531,39.062,-4.395,0.488,0
1610548240.165,67.871,27.832,38.086,29.297,42.969,0
1610548240.169,34.668,33.691,25.879,12.207,18.555,0
1610548240.173,-41.504,32.227,18.555,-30.273,38.574,0
1610548240.174,-77.637,35.645,29.297,-45.410,23.438,0
1610548240.178,-53.223,29.297,36.621,-35.645,17.090,0
1610548240.182,24.414,27.344,30.762,-5.859,15.137,0
1610548240.186,20.020,37.598,25.391,-5.371,-19.531,0
1610548240.190,-86.914,41.504,37.109,-59.570,1.465,0
1610548240.194,-144.531,30.762,45.898,-109.375,11.719,0
1610548240.198,-117.676,25.391,35.156,-109.375,78.613,0
1610548240.201,-50.293,25.391,37.109,-82.520,128.418,0
1610548240.205,-47.852,24.414,35.156,-87.891,52.246,0
1610548240.209,-150.391,27.344,35.156,-125.000,29.785,0
1610548240.213,-218.262,19.531,37.109,-169.922,54.688,0
1610548240.217,-188.965,14.160,24.414,-170.898,34.668,0
1610548240.234,-107.910,12.695,23.926,-124.023,-22.461,0
1610548240.238,-90.332,4.395,33.203,-123.047,-9.766,0
1610548240.242,-158.691,8.301,37.598,-151.367,17.090,0
1610548240.246,-207.031,11.719,35.156,-175.781,-13.672,0
1610548240.250,-185.059,-0.977,37.598,-162.109,29.297,0
1610548240.254,-98.633,-7.324,29.785,-111.328,41.992,0
1610548240.258,-67.871,0.000,19.531,-94.238,26.367,0
1610548240.261,-125.488,5.859,29.785,-116.699,15.625,0
1610548240.265,-179.688,-0.977,35.645,-135.742,-44.434,0
1610548240.269,-156.250,4.883,32.227,-113.770,-59.082,0
1610548240.273,-83.008,17.578,21.484,-83.008,11.719,0
1610548240.277,-44.434,26.855,30.273,-68.359,49.805,0
1610548240.279,-82.031,23.926,44.434,-89.844,4.395,0
1610548240.283,-143.066,14.648,42.969,-118.164,-4.395,0
1610548240.287,-130.859,12.207,38.086,-102.051,22.461,0
1610548240.291,-59.082,17.578,35.645,-57.129,8.789,0
1610548240.295,4.395,24.414,34.668,-24.902,61.035,0
1610548240.299,-44.922,20.020,20.996,-42.480,96.191,0
1610548240.303,-113.770,18.066,15.137,-69.336,35.645,0
1610548240.306,-104.492,21.484,22.461,-67.871,28.320,0
1610548240.310,-34.668,20.508,33.203,-34.180,70.312,0
1610548240.314,37.109,23.438,36.133,1.465,52.734,0
1610548240.318,10.742,23.438,21.973,-6.348,21.484,0
1610548240.322,-58.105,24.414,15.625,-23.926,-10.742,0
1610548240.324,-64.453,28.809,27.344,-25.879,5.859,0
1610548240.328,-12.207,29.297,25.879,-6.836,21.484,0
1610548240.332,58.105,21.973,10.254,26.367,9.766,0
1610548240.336,56.152,20.020,25.391,37.598,78.125,0
1610548240.340,-12.207,27.832,34.668,3.418,82.520,0
1610548240.344,-32.715,34.180,22.461,-14.648,46.387,0
1610548240.348,21.973,39.062,32.227,30.273,5.859,0
1610548240.351,105.957,45.898,32.715,73.242,32.227,0
1610548240.355,109.375,46.387,16.113,70.801,81.543,0
1610548240.359,31.250,37.598,20.996,38.574,81.543,0
1610548240.363,3.418,39.062,30.762,27.344,14.160,0
1610548240.367,47.852,43.457,25.391,55.176,-28.809,0
1610548240.369,117.188,38.086,11.230,91.797,54.199,0
1610548240.373,127.441,35.645,11.719,100.586,33.203,0
1610548240.377,55.664,38.086,22.461,76.660,-42.969,0
1610548240.381,10.254,33.691,24.902,52.734,-42.480,0
1610548240.385,51.758,41.992,24.414,75.195,38.574,0
1610548240.389,147.949,47.852,17.578,125.488,70.312,0
1610548240.393,177.246,44.434,18.066,151.855,52.246,0
1610548240.396,104.004,43.457,22.461,124.512,57.129,0
1610548240.400,49.805,54.199,23.926,69.336,24.414,0
1610548240.404,62.988,55.176,37.598,67.383,20.508,0
1610548240.408,116.699,38.086,38.574,94.238,41.016,0
1610548240.412,151.855,41.504,33.203,105.469,19.043,0
1610548240.414,95.703,45.898,31.738,86.426,24.414,0
1610548240.418,42.480,46.387,37.598,59.082,36.621,0
1610548240.422,67.383,46.875,45.410,74.219,0.000,0
1610548240.426,128.418,41.504,35.156,106.934,-2.930,0
1610548240.430,155.273,40.527,28.809,122.559,22.949,0
1610548240.434,107.910,42.480,30.273,102.539,-8.789,0
1610548240.438,26.367,39.551,26.855,50.293,15.625,0
1610548240.441,21.484,38.574,29.785,47.363,16.113,0
1610548240.445,80.566,41.992,35.645,83.984,-12.695,0
1610548240.449,125.000,37.598,38.574,100.098,19.043,2
1610548240.453,87.402,41.016,39.062,69.336,84.961,0
1610548240.457,-4.395,47.852,38.086,20.020,106.445,0
1610548240.459,-30.273,44.922,33.203,-5.371,77.148,0
1610548240.463,10.254,46.387,18.066,0.488,49.805,0
1610548240.467,67.383,49.805,3.906,22.949,28.809,0
1610548240.471,17.090,40.527,13.184,1.465,-12.207,0
1610548240.475,-100.098,26.855,25.879,-76.172,10.254,0
1610548240.479,-135.254,21.973,26.367,-101.562,39.551,0
1610548240.483,-68.848,20.508,11.230,-65.430,45.898,0
1610548240.486,13.672,27.344,15.137,-38.086,59.082,0
1610548240.490,-33.203,31.738,31.738,-57.617,-4.395,0
1610548240.494,-121.094,27.832,30.762,-104.004,-23.926,0
1610548240.498,-134.277,22.949,27.344,-103.516,-18.066,0
1610548240.502,-71.777,34.668,26.367,-57.129,-19.531,0
1610548240.504,27.832,34.668,26.855,-19.043,40.527,0
1610548240.508,12.695,16.602,32.715,-17.090,46.875,0
1610548240.512,-68.848,19.531,31.250,-44.922,-39.062,0
1610548240.516,-95.703,21.484,27.344,-51.758,-22.949,0
1610548240.520,-45.410,23.926,36.133,-13.672,90.820,0
1610548240.524,54.199,29.297,33.691,44.434,99.121,0
1610548240.528,85.938,29.297,22.949,54.199,30.762,0
1610548240.531,10.742,30.273,27.832,17.090,-12.695,0
1610548240.535,-35.156,25.879,33.203,-3.418,19.043,0
1610548240.539,18.066,25.391,38.086,28.809,22.461,0
1610548240.543,102.051,28.809,35.156,76.660,2.441,0
1610548240.547,108.398,33.203,28.320,83.008,10.254,0
1610548240.550,46.875,35.156,27.344,55.176,12.207,0
1610548240.554,4.883,32.715,27.344,39.551,-8.301,0
1610548240.558,23.926,26.367,30.273,67.871,21.973,0
1610548240.562,114.258,22.949,24.414,106.445,51.758,0
1610548240.566,145.020,23.926,16.602,114.258,81.543,0
1610548240.570,92.285,28.320,13.672,82.031,93.750,0
1610548240.574,31.250,26.367,23.926,44.434,19.043,0
1610548240.577,37.109,22.461,37.109,63.965,37.598,0
1610548240.581,113.770,27.832,30.762,101.074,65.918,0
1610548240.585,155.273,36.133,38.574,119.141,62.012,0
1610548240.589,112.305,41.504,54.688,109.375,49.805,0
1610548240.593,44.434,39.551,42.969,72.754,5.859,0
1610548240.595,38.086,35.645,24.902,66.895,-24.414,0
1610548240.599,110.840,35.645,20.020,101.562,-48.340,0
1610548240.603,155.762,32.715,32.227,124.512,74.707,0
1610548240.607,106.934,35.645,38.086,99.609,141.113,0
1610548240.611,45.898,46.387,42.480,69.336,2.930,0
1610548240.615,37.598,41.992,47.852,64.941,-35.156,0
1610548240.619,88.867,33.691,37.109,87.402,-5.371,0
1610548240.622,143.066,24.902,31.738,111.328,-5.859,0
1610548240.626,116.211,27.832,32.715,85.449,20.996,0
1610548240.630,31.250,40.527,39.551,46.387,18.555,0
1610548240.634,-2.441,46.875,39.062,33.691,-23.926,0
1610548240.638,39.062,33.203,22.461,44.434,3.906,0
1610548240.655,89.355,26.855,16.602,65.918,11.230,0
1610548240.659,50.781,26.367,22.949,41.992,23.926,0
1610548240.663,-36.133,29.785,25.391,-16.602,57.129,0
1610548240.667,-73.730,36.133,20.508,-40.039,22.461,0
1610548240.671,-25.879,39.551,17.578,-11.230,14.648,0
1610548240.675,31.738,39.062,14.160,-2.930,43.945,0
1610548240.679,-26.855,27.344,13.184,-43.945,55.176,0
1610548240.682,-116.211,24.414,17.578,-85.449,76.660,0
1610548240.686,-129.395,31.738,18.066,-107.910,65.918,0
1610548240.690,-84.473,21.973,12.207,-91.309,10.742,0
1610548240.694,-22.461,9.277,14.648,-53.711,4.883,0
1610548240.698,-26.855,19.531,27.344,-57.617,10.254,0
1610548240.699,-96.680,34.180,24.414,-87.402,45.898,0
1610548240.703,-120.605,46.387,17.090,-92.773,44.434,0
1610548240.707,-88.867,46.875,20.996,-59.570,-22.461,0
1610548240.711,-12.695,28.809,24.902,-20.508,16.113,0
1610548240.715,22.461,14.648,24.902,-9.766,96.680,0
1610548240.719,-35.645,9.766,21.484,-34.668,72.754,0
1610548240.723,-67.383,5.859,28.320,-48.828,22.461,0
1610548240.726,-22.461,20.020,32.715,-12.207,27.344,0
1610548240.730,55.176,34.668,28.320,40.039,113.281,0
1610548240.734,84.473,38.086,34.668,68.848,109.375,0
1610548240.738,31.738,49.316,35.645,47.852,61.523,0
1610548240.742,-11.230,49.805,32.715,21.484,64.453,0
1610548240.744,14.648,38.086,40.039,34.668,38.086,0
1610548240.748,97.168,30.762,41.992,70.801,38.086,0
1610548240.752,133.301,28.320,36.133,90.820,12.207,0
1610548240.756,83.008,35.156,37.598,76.172,-19.531,0
1610548240.760,22.949,37.109,37.109,46.387,8.301,0
1610548240.764,26.367,30.273,34.668,55.176,-47.363,0
1610548240.768,112.793,31.250,32.227,101.074,-20.020,0
1610548240.771,171.387,34.668,25.879,132.812,84.473,0
1610548240.775,121.582,37.598,26.367,120.605,0.977,0
1610548240.779,57.617,41.504,32.715,87.891,-49.316,0
1610548240.783,65.918,43.945,33.203,89.844,7.812,0
1610548240.787,136.230,44.434,33.691,133.301,49.316,0
1610548240.789,183.594,42.969,38.574,145.020,31.738,0
1610548240.793,135.254,39.551,35.645,112.305,47.852,0
1610548240.797,50.781,38.086,38.086,75.195,-5.371,0
1610548240.801,46.387,38.574,47.363,67.871,11.719,0
1610548240.805,111.328,32.227,39.551,103.516,33.691,0
1610548240.809,171.875,30.273,31.250,142.578,-71.777,0
1610548240.813,148.926,34.668,26.367,123.047,-34.180,0
1610548240.816,68.848,34.668,27.344,76.660,0.488,0
1610548240.820,58.105,34.668,35.156,60.059,41.504,0
1610548240.824,107.910,35.645,36.621,91.797,81.543,0
1610548240.828,150.879,27.832,40.039,120.117,25.879,0
1610548240.832,133.301,24.902,43.457,118.652,33.203,0
1610548240.834,56.152,27.832,34.180,83.008,65.430,0
1610548240.838,23.926,36.133,35.156,53.223,47.363,0
1610548240.842,81.055,35.645,40.039,85.449,57.129,0
1610548240.846,149.414,25.391,21.973,124.512,37.109,0
1610548240.850,136.719,28.809,22.949,120.117,42.969,0
1610548240.854,62.500,22.949,52.734,77.148,75.684,0
1610548240.858,21.484,16.113,57.617,48.340,131.836,0
1610548240.861,63.477,22.949,36.621,65.430,119.141,0
1610548240.865,122.559,26.855,33.691,93.262,37.109,0
1610548240.869,127.930,29.785,42.969,105.469,51.758,0
1610548240.873,74.707,23.438,27.344,79.590,83.008,0
1610548240.877,41.992,27.832,15.625,56.152,36.621,0
1610548240.881,58.594,39.551,27.344,83.496,8.301,0
1610548240.885,111.328,33.691,21.484,105.957,-12.695,0
1610548240.889,134.277,30.762,29.297,94.727,29.785,0
1610548240.893,62.988,31.738,42.969,56.641,17.090,0
1610548240.897,0.000,26.855,50.293,25.879,-17.090,0
1610548240.901,23.926,26.855,49.316,39.062,47.852,0
1610548240.905,103.027,22.461,37.598,83.496,18.555,0
1610548240.908,129.395,20.020,33.691,96.191,7.324,0
1610548240.912,58.594,25.879,32.227,57.617,43.457,0
1610548240.916,0.488,29.785,30.273,24.902,22.461,0
1610548240.920,30.762,34.180,27.344,40.527,36.133,0
1610548240.924,100.098,30.762,10.254,78.613,87.402,0
1610548240.924,132.812,33.691,11.230,88.379,50.781,0
1610548240.928,70.801,34.668,28.809,54.688,42.480,0
1610548240.932,-6.348,26.855,48.340,14.160,62.500,0
1610548240.936,-7.324,30.273,46.875,16.602,39.062,0
1610548240.940,75.684,41.992,14.648,74.219,74.707,0
1610548240.944,125.488,42.969,18.555,102.539,65.430,0
1610548240.948,76.172,23.926,44.922,59.570,-14.648,0
1610548240.951,-8.789,21.484,57.129,13.672,5.371,0
1610548240.955,-19.043,32.715,41.992,14.648,41.016,0
1610548240.959,52.246,26.855,31.738,50.293,23.926,0
1610548240.963,95.215,23.438,23.926,68.848,64.941,0
1610548240.967,62.012,32.715,19.531,52.734,48.828,0
1610548240.984,-7.812,41.992,38.574,6.836,-10.742,0
1610548240.988,-26.855,38.574,38.086,-4.395,18.555,0
1610548240.992,33.203,36.621,20.508,41.504,40.527,0
1610548240.996,103.027,32.227,22.461,62.500,22.949,0
1610548241.000,67.383,25.879,22.949,49.805,6.348,0
1610548241.004,-14.648,21.484,25.879,11.719,-21.484,0
1610548241.008,-28.809,26.367,35.156,-16.113,20.996,0
1610548241.011,17.090,38.086,30.762,24.902,48.828,0
1610548241.015,82.031,28.809,21.484,57.129,28.809,0
1610548241.019,65.918,18.066,22.461,49.316,35.156,0
1610548241.023,-2.930,30.762,35.156,23.926,46.387,0
1610548241.027,-38.086,32.227,35.156,-6.836,37.109,0
1610548241.029,4.883,24.902,20.020,5.859,13.184,0
1610548241.033,78.613,25.879,24.414,49.805,58.105,0
1610548241.037,80.566,32.227,32.715,62.988,62.500,0
1610548241.041,22.461,45.410,37.109,38.086,-4.395,0
1610548241.045,-13.672,46.387,42.480,21.484,36.133,0
1610548241.049,11.719,30.273,37.109,44.922,41.992,0
1610548241.053,66.406,19.531,20.508,58.594,64.453,0
1610548241.056,87.402,34.180,13.672,58.594,90.332,0
1610548241.060,12.695,27.832,33.691,20.996,42.969,0
1610548241.064,-58.594,11.719,45.410,-22.461,-27.344,0
1610548241.068,-15.137,19.531,37.598,0.000,-77.637,0
1610548241.072,79.590,27.344,28.809,51.270,-30.273,0
1610548241.074,92.773,31.250,41.016,64.453,44.434,0
1610548241.078,11.230,34.668,41.504,22.461,33.203,0
1610548241.082,-36.621,39.551,37.598,-1.953,46.387,0
1610548241.086,-6.348,51.758,32.227,23.926,41.992,0
1610548241.090,60.547,37.109,3.418,41.504,71.289,0
1610548241.094,81.543,17.090,9.277,39.062,79.102,0
1610548241.098,33.203,18.066,58.594,25.391,37.109,0
1610548241.101,-25.391,8.789,77.148,-5.371,27.344,0
1610548241.105,-24.902,22.949,55.664,-1.465,-32.715,0
1610548241.109,50.293,41.504,31.250,33.691,-66.895,0
1610548241.113,89.844,22.949,22.461,49.805,-6.348,0
1610548241.117,35.645,20.508,27.344,31.250,53.711,0
1610548241.120,-28.809,44.434,23.438,-3.418,16.602,0
1610548241.124,-36.621,47.363,22.949,-5.371,4.395,0
1610548241.128,28.809,36.133,21.973,24.902,9.277,0
1610548241.132,94.727,36.621,26.855,61.523,21.973,0
1610548241.136,55.664,41.992,27.832,55.176,-15.625,0
1610548241.140,-15.137,34.180,23.926,16.113,-61.523,0
1610548241.144,-41.016,18.555,32.715,-3.418,-58.594,0
1610548241.147,12.695,10.742,34.668,20.996,50.293,0
1610548241.151,83.496,9.766,29.297,46.387,105.469,0
1610548241.155,42.969,13.672,25.391,28.320,56.641,0
1610548241.159,-24.902,37.598,34.668,1.465,62.500,0
1610548241.163,-24.414,44.434,34.180,-3.906,41.992,0
1610548241.164,9.277,31.250,30.273,16.602,38.086,0
1610548241.168,62.988,28.809,40.039,44.434,18.066,0
1610548241.172,46.875,26.367,38.574,35.645,-55.664,0
1610548241.176,-26.855,32.715,37.109,6.348,-40.039,0
1610548241.180,-36.621,37.598,35.156,-3.906,13.184,0
1610548241.184,-12.695,26.855,25.879,10.742,-2.441,0
1610548241.188,57.129,11.230,21.973,44.434,-22.949,0
1610548241.191,69.336,6.348,29.785,50.781,86.914,0
1610548241.195,-7.812,17.578,35.645,16.113,83.984,0
1610548241.199,-50.293,29.785,30.273,-20.020,-13.672,0
1610548241.203,-11.719,37.598,26.855,5.859,37.109,0
1610548241.207,87.891,32.715,33.203,74.219,69.336,0
1610548241.209,103.516,15.625,46.875,76.172,60.059,0
1610548241.213,16.602,21.973,34.668,22.949,66.895,0
1610548241.217,-39.062,41.016,27.832,-5.371,43.945,0
1610548241.221,-13.184,37.109,37.598,14.160,28.809,0
1610548241.225,61.035,19.531,39.062,54.199,64.453,0
1610548241.229,75.684,8.301,45.410,50.293,112.793,0
1610548241.233,10.742,13.184,49.805,12.207,129.395,0
1610548241.236,-13.672,35.156,48.340,0.488,5.859,0
1610548241.240,3.418,23.438,41.504,7.812,-98.633,0
1610548241.244,46.875,11.719,28.320,18.555,24.902,0
1610548241.248,64.453,31.738,28.809,37.598,126.953,0
1610548241.252,9.766,33.203,25.391,13.184,54.688,0
1610548241.254,-37.598,36.621,15.625,-12.207,-11.719,0
1610548241.258,-20.508,40.039,27.344,-1.953,-6.348,0
1610548241.262,48.828,32.715,45.898,41.992,32.715,0
1610548241.266,85.449,37.109,46.875,69.336,113.770,0
1610548241.270,39.551,44.922,40.527,36.133,48.340,0
1610548241.274,-29.297,42.969,38.086,-4.395,-41.992,0
1610548241.278,-24.902,29.785,25.391,-6.836,62.500,0
1610548241.281,41.016,20.996,23.438,22.461,90.820,0
1610548241.285,78.125,29.297,23.926,41.016,48.340,0
1610548241.289,35.645,34.180,14.160,27.344,58.594,0
1610548241.293,-41.504,29.785,14.648,-15.137,34.668,0
1610548241.297,-56.152,21.973,33.203,-18.555,28.809,0
1610548241.299,42.969,29.785,36.621,48.340,26.367,0
1610548241.303,104.980,31.738,17.090,85.449,9.277,0
1610548241.307,63.965,36.621,35.156,65.430,-20.996,0
1610548241.311,-31.738,42.969,45.898,-1.465,-26.367,0
1610548241.315,-76.172,30.273,40.527,-48.828,-49.316,0
1610548241.319,-7.812,25.391,48.828,-6.348,-33.203,0
1610548241.323,50.781,25.879,39.551,31.738,31.250,0
1610548241.326,40.527,32.715,34.180,15.625,12.695,0
1610548241.330,-38.086,36.621,38.574,-11.230,-22.461,0
1610548241.334,-52.734,44.434,42.969,-25.879,12.695,0
1610548241.338,0.977,48.340,15.137,-5.859,63.477,0
1610548241.342,54.688,23.438,5.859,24.902,98.145,0
1610548241.346,63.477,24.414,16.602,39.551,102.051,0
1610548241.350,-8.789,39.551,10.742,4.883,68.848,0
1610548241.354,-59.082,35.645,39.062,-43.457,68.359,0
1610548241.358,-30.762,21.484,41.992,-26.855,39.062,0
1610548241.362,44.434,21.973,39.551,27.832,27.344,0
1610548241.366,67.871,44.922,51.270,45.410,42.969,0
1610548241.370,-10.742,46.875,43.457,-5.859,3.906,0
1610548241.373,-36.621,39.062,29.785,-18.066,17.578,0
1610548241.377,16.602,35.156,1.465,35.156,29.785,0
1610548241.381,68.848,33.203,2.930,63.477,25.879,0
1610548241.385,63.477,19.043,36.133,38.086,-12.207,0
1610548241.389,-32.227,9.766,41.992,-8.789,-15.137,0
1610548241.404,-65.918,39.062,47.852,-29.785,28.809,0
1610548241.408,-18.066,49.805,44.922,-0.977,33.203,0
1610548241.412,58.105,36.621,23.926,47.363,31.250,0
1610548241.416,67.383,35.645,18.066,45.410,51.270,0
1610548241.420,-17.090,38.086,31.738,3.906,39.551,0
1610548241.424,-50.781,48.828,39.062,-15.625,-4.883,0
1610548241.428,-19.043,41.016,31.250,-7.812,-16.602,0
1610548241.431,41.016,28.320,21.973,29.785,8.789,0
1610548241.435,69.336,17.090,26.855,42.480,53.711,0
1610548241.439,13.184,22.949,32.227,20.508,-8.789,0
1610548241.443,-33.203,41.016,26.855,8.301,-48.828,0
1610548241.447,-25.391,46.875,23.438,6.348,-33.203,0
1610548241.449,39.062,36.621,23.438,23.438,31.738,0
1610548241.453,83.496,23.438,13.672,42.480,93.750,0
1610548241.457,29.785,24.902,16.113,27.832,83.496,0
1610548241.461,-20.508,42.480,44.922,11.230,91.797,0
1610548241.465,-23.926,41.504,45.898,10.254,55.664,0
1610548241.469,25.879,30.273,23.926,41.504,62.988,0
1610548241.473,80.566,34.668,30.273,56.152,83.984,0
1610548241.476,42.969,21.484,37.109,16.113,87.402,0
1610548241.480,-41.504,2.441,41.504,-20.020,29.297,0
1610548241.484,-35.645,20.020,25.879,-20.996,9.766,0
1610548241.488,7.324,28.320,4.883,12.695,51.270,0
1610548241.492,47.852,13.672,22.949,57.617,68.848,0
1610548241.494,50.781,6.836,31.250,39.551,37.109,0
1610548241.498,-33.691,28.320,36.133,-12.207,11.719,0
1610548241.502,-63.477,54.199,39.062,-16.602,73.730,0
1610548241.506,19.531,47.852,43.945,17.578,78.125,0
1610548241.510,92.773,33.203,49.805,46.875,28.320,0
1610548241.514,52.246,25.391,32.227,31.738,41.992,0
1610548241.518,-1.465,32.227,26.367,0.977,62.988,0
1610548241.521,-25.879,37.109,30.762,4.883,25.391,0
1610548241.525,-19.531,24.902,17.090,9.766,-38.086,0
1610548241.529,53.223,19.531,10.254,21.973,-31.738,0
1610548241.533,63.477,33.691,30.762,34.668,49.805,0
1610548241.537,-4.395,41.016,54.199,14.160,28.809,0
1610548241.539,-34.180,32.715,46.387,-18.555,-2.930,0
1610548241.543,5.371,16.602,16.602,-1.465,37.109,0
1610548241.547,72.754,15.625,10.254,39.062,62.500,0
1610548241.551,76.172,29.297,31.250,40.039,60.547,0
1610548241.555,2.441,30.762,43.945,16.113,21.484,0
1610548241.559,-46.387,37.598,36.621,-7.324,2.930,0
1610548241.563,-8.301,38.086,17.090,-2.441,15.625,0
1610548241.566,86.914,25.879,8.301,48.828,26.855,0
1610548241.570,105.469,35.645,20.508,64.941,70.312,0
1610548241.574,32.227,31.250,32.227,13.672,35.645,0
1610548241.578,-54.199,17.090,29.785,-21.484,-33.203,0
1610548241.582,-55.664,22.461,20.508,-15.625,10.742,0
1610548241.585,43.945,23.438,26.855,17.578,64.453,0
1610548241.589,73.730,22.949,54.199,36.621,24.902,0
1610548241.593,1.465,28.809,51.758,8.301,45.410,0
1610548241.597,-38.086,38.086,40.527,-9.766,33.691,0
1610548241.601,-5.371,30.273,38.086,4.883,6.348,0
1610548241.605,54.199,28.809,21.484,52.246,24.902,0
1610548241.609,101.074,37.598,11.719,97.168,56.152,0
1610548241.612,37.598,30.762,26.855,39.551,85.938,0
1610548241.616,-42.969,16.113,47.363,-37.598,22.949,0
1610548241.620,-40.527,21.973,39.062,-28.320,-73.242,0
1610548241.624,28.320,34.180,25.879,17.090,-20.996,0
1610548241.628,68.848,25.879,40.039,38.086,20.508,0
1610548241.629,20.508,24.902,47.363,7.324,27.832,0
1610548241.633,-34.180,32.227,49.805,-21.484,45.898,0
1610548241.637,-42.969,33.691,49.316,-15.625,-3.418,0
1610548241.641,23.926,30.762,24.902,25.879,12.695,0
1610548241.645,75.684,19.531,11.230,54.688,8.789,0
1610548241.649,43.457,19.043,34.180,35.156,-14.648,0
1610548241.653,-23.926,27.832,41.504,-2.441,-2.930,0
1610548241.656,-40.039,32.715,25.391,-11.719,12.695,0
1610548241.660,19.531,35.156,14.648,28.320,43.945,0
1610548241.664,88.379,32.715,39.062,53.223,25.879,0
1610548241.668,67.383,27.344,53.711,44.922,33.203,0
1610548241.672,-20.020,24.902,25.391,3.906,88.379,0
1610548241.674,-49.805,25.879,26.367,-32.715,55.176,0
1610548241.678,2.441,27.344,44.434,-1.953,17.578,0
1610548241.682,72.754,28.809,52.246,34.668,63.477,0
1610548241.686,62.988,26.855,51.270,33.203,77.637,0
1610548241.690,-2.930,37.598,55.176,9.277,23.926,0
1610548241.694,-34.180,41.992,48.340,-2.930,-20.020,0
1610548241.698,-7.324,29.297,20.996,13.672,-21.484,0
1610548241.701,52.246,23.438,20.508,37.109,68.359,0
1610548241.705,67.871,31.738,38.086,30.762,64.453,0
1610548241.709,6.348,35.156,33.691,1.465,1.953,0
1610548241.713,-43.457,38.574,45.410,-10.254,52.734,0
1610548241.717,-17.578,25.879,57.129,6.836,67.383,0
1610548241.734,59.570,19.531,24.414,43.457,44.922,0
1610548241.738,84.961,36.621,29.297,56.152,30.762,0
1610548241.742,14.160,32.227,54.688,16.602,6.348,0
1610548241.746,-57.617,18.555,50.293,-13.184,-86.426,0
1610548241.750,-23.926,19.531,39.062,7.324,-43.945,0
1610548241.754,73.730,38.086,32.227,58.105,53.223,0
1610548241.758,79.590,34.180,30.762,51.270,62.012,0
1610548241.761,3.418,26.367,50.293,7.324,57.617,0
1610548241.765,-50.781,22.461,61.523,-10.254,57.617,0
1610548241.769,-29.297,13.672,44.434,-5.371,79.590,0
1610548241.773,52.246,21.484,29.785,25.879,55.176,0
1610548241.777,83.984,33.691,38.086,49.316,5.371,0
1610548241.779,26.367,40.527,49.805,32.715,-3.906,0
1610548241.783,-23.926,33.691,46.387,5.371,0.488,0
1610548241.787,-42.480,24.414,42.969,8.301,63.965,0
1610548241.791,30.762,27.832,35.156,42.969,48.340,0
1610548241.795,103.027,25.391,23.438,68.359,50.781,0
1610548241.799,40.039,25.391,28.809,37.598,78.125,0
1610548241.803,-34.668,30.273,42.480,-6.836,43.945,0
1610548241.806,-45.898,29.785,45.898,-4.883,22.461,0
1610548241.810,27.344,30.273,37.109,28.320,9.277,0
1610548241.814,94.238,23.926,20.996,55.664,33.203,0
1610548241.818,56.641,22.949,29.785,35.156,41.992,0
1610548241.822,-14.648,35.645,47.363,-3.418,37.109,0
1610548241.825,-35.645,37.109,41.016,-7.324,-25.391,0
1610548241.829,17.578,30.273,33.203,23.926,-14.648,0
1610548241.833,78.125,23.926,37.598,51.758,13.184,0
1610548241.837,56.641,23.438,34.180,44.922,-2.441,0
1610548241.841,-20.020,33.691,30.762,14.160,-16.113,0
1610548241.845,-46.387,31.738,37.109,-17.578,-81.055,0
1610548241.849,14.648,21.484,41.992,3.906,-29.297,0
1610548241.852,84.961,20.996,39.062,57.617,17.578,0
1610548241.856,74.219,33.203,35.156,58.105,22.949,0
1610548241.860,0.000,37.598,41.992,20.020,-3.418,0
1610548241.864,-36.133,23.438,38.574,-8.789,39.062,0
1610548241.868,5.859,26.367,25.391,12.695,35.645,0
1610548241.869,69.336,32.227,30.273,44.922,-53.223,0
1610548241.873,62.500,29.785,45.410,42.480,42.969,0
1610548241.877,-8.301,25.391,46.387,4.395,65.918,0
1610548241.881,-51.270,18.066,44.922,-25.391,10.742,0
1610548241.885,-10.742,21.484,48.828,2.930,30.273,0
1610548241.889,72.754,29.785,41.504,55.176,46.875,0
1610548241.893,74.219,31.250,26.855,62.012,85.449,0
1610548241.896,3.906,34.668,28.320,15.137,126.953,0
1610548241.900,-41.992,33.203,40.527,-20.996,75.195,0
1610548241.904,-17.578,20.020,42.969,-11.230,3.418,0
1610548241.908,55.664,12.695,30.762,19.531,13.184,0
1610548241.912,77.148,16.602,24.902,38.086,45.898,0
1610548241.914,11.230,22.949,39.551,13.672,48.340,0
1610548241.918,-43.945,28.320,44.434,-20.508,68.359,0
1610548241.922,-21.973,26.855,45.410,-6.836,45.410,0
1610548241.926,52.734,21.484,44.434,39.551,17.090,0
1610548241.930,83.984,23.926,40.039,53.223,80.566,0
1610548241.934,11.719,29.785,43.457,8.789,82.520,0
1610548241.938,-32.715,32.227,41.016,-14.648,35.645,0
1610548241.941,-5.371,39.551,31.250,12.695,94.727,0
1610548241.945,51.758,37.109,33.691,46.875,74.219,0
1610548241.949,84.961,23.926,40.039,49.805,12.207,0
1610548241.953,25.391,23.438,40.527,24.414,78.613,0
1610548241.957,-32.715,29.785,27.344,-10.742,49.805,0
1610548241.960,-27.832,32.227,32.227,-6.836,6.348,0
1610548241.964,25.879,22.461,45.898,32.715,26.855,0
1610548241.968,83.008,21.973,39.551,58.594,37.598,0
1610548241.972,50.293,31.738,30.762,38.086,29.785,0
1610548241.976,-33.691,29.785,36.133,-2.441,0.977,0
1610548241.980,-27.832,23.926,46.875,-3.418,7.812,0
1610548241.984,31.250,20.020,41.016,47.852,30.762,0
1610548241.987,81.543,24.414,30.273,69.336,70.801,0
1610548241.991,70.801,33.203,35.645,47.363,56.152,0
1610548241.995,-11.230,33.691,32.715,15.625,1.465,0
1610548241.999,-37.598,25.391,31.738,-20.996,7.324,0
1610548242.003,31.738,20.020,35.645,0.977,20.508,0
1610548242.004,85.938,22.461,37.109,45.898,5.371,0
1610548242.008,60.059,25.391,30.762,39.551,3.906,0
1610548242.012,10.742,26.855,26.367,6.348,34.668,0
1610548242.016,-32.715,27.344,26.367,-1.953,20.020,0
1610548242.020,1.465,25.391,30.273,26.367,101.562,0
1610548242.024,71.289,23.438,34.668,57.129,92.773,0
1610548242.028,61.523,22.949,36.133,43.945,31.250,0
1610548242.031,-0.488,27.344,37.109,4.883,16.602,0
1610548242.035,-43.457,22.949,27.344,-7.812,-71.777,0
1610548242.039,-4.883,19.043,25.391,15.137,-38.086,0
1610548242.043,71.777,32.227,35.156,53.711,13.184,0
1610548242.047,88.379,38.086,36.621,58.105,1.953,0
1610548242.050,6.836,23.926,25.391,12.695,0.000,0
1610548242.054,-53.711,16.113,20.508,-20.508,11.230,0
1610548242.058,-20.996,17.578,24.414,7.812,16.602,0
1610548242.062,62.988,23.438,25.879,52.734,-7.812,0
1610548242.066,94.727,26.855,17.090,62.500,49.805,0
1610548242.070,20.020,31.250,30.762,29.785,63.477,0
1610548242.074,-28.320,33.203,31.738,-13.672,64.941,0
1610548242.077,2.441,28.809,15.137,-15.137,49.316,0
1610548242.081,62.012,24.414,21.973,29.785,27.832,0
1610548242.085,96.191,26.855,32.227,54.199,48.340,0
1610548242.089,32.715,31.738,36.133,18.555,-49.316,0
1610548242.093,-40.527,24.414,27.832,-17.090,-60.547,0
1610548242.095,-20.996,22.949,29.785,-4.883,18.555,0
1610548242.099,62.500,24.902,34.668,32.715,8.301,0
1610548242.103,89.355,23.926,27.832,53.223,44.922,0
1610548242.107,29.785,23.438,29.297,37.109,92.773,0
1610548242.111,-26.367,25.879,22.461,1.465,47.363,0
1610548242.115,-23.438,25.879,13.184,2.930,-12.695,0
1610548242.119,42.969,21.484,25.391,32.715,29.785,0
1610548242.122,89.355,18.555,28.809,56.152,79.102,0
1610548242.126,54.199,27.344,27.344,44.434,31.250,0
1610548242.130,-31.738,34.180,36.133,-6.836,2.930,0
1610548242.134,-30.762,37.109,37.109,-5.859,56.152,0
1610548242.138,47.363,39.551,35.156,45.410,84.961,0
1610548242.154,88.867,26.367,33.691,56.641,72.754,0
1610548242.158,54.199,22.949,41.016,37.598,57.129,0
1610548242.162,-16.602,29.297,47.852,14.648,55.664,0
1610548242.166,-23.438,33.691,36.621,11.719,75.684,0
1610548242.170,25.879,26.367,19.531,33.691,64.941,0
1610548242.174,83.496,18.555,24.414,54.199,23.438,0
1610548242.178,66.406,25.879,42.969,42.969,8.789,0
1610548242.181,-22.949,29.297,50.293,5.371,42.969,0
1610548242.185,-42.969,21.484,42.969,-13.184,8.301,0
1610548242.189,32.227,24.414,41.016,24.902,-12.695,0
1610548242.193,94.727,31.250,41.992,59.082,25.391,0
1610548242.197,75.195,35.645,43.457,44.434,83.496,0
1610548242.199,-1.953,31.250,45.898,4.395,34.180,0
1610548242.203,-39.551,24.902,34.668,-11.230,-49.316,0
1610548242.207,8.789,30.762,31.250,20.020,-17.090,0
1610548242.211,81.055,26.855,21.484,62.988,81.055,0
1610548242.215,71.289,20.508,0.488,59.082,117.188,0
1610548242.219,2.441,28.809,8.789,14.160,81.543,0
1610548242.223,-39.551,31.250,31.738,-11.230,94.238,0
1610548242.226,-4.395,22.461,40.527,9.766,47.852,0
1610548242.230,74.219,20.020,31.738,41.016,32.227,0
1610548242.234,91.797,28.320,25.391,47.852,29.297,0
1610548242.238,20.508,35.645,26.855,35.156,9.766,0
1610548242.242,-42.969,29.785,26.855,6.836,26.367,0
1610548242.244,-25.391,20.508,19.531,3.418,36.133,0
1610548242.248,54.199,17.578,21.973,35.645,62.012,0
1610548242.252,87.891,20.020,30.762,50.293,11.230,0
1610548242.256,9.766,24.414,36.133,16.113,-19.043,0
1610548242.260,-43.945,26.367,41.504,-15.625,17.578,0
1610548242.264,-15.625,25.391,42.480,-2.930,13.184,0
1610548242.268,41.992,19.043,30.273,38.086,66.406,0
1610548242.271,82.031,17.090,24.414,55.176,20.020,0
1610548242.275,36.133,23.438,18.066,32.715,7.324,0
1610548242.279,-42.480,30.273,28.320,-2.930,67.871,0
1610548242.283,-41.016,23.438,36.621,-16.602,44.922,0
1610548242.287,25.879,12.207,18.066,9.766,44.434,0
1610548242.289,87.402,18.066,19.043,41.016,74.707,0
1610548242.293,30.762,22.949,21.484,32.227,106.934,0
1610548242.297,-50.293,16.113,15.625,-2.441,69.824,0
1610548242.301,-32.227,18.066,14.160,-18.066,27.344,0
1610548242.305,26.367,25.391,28.809,16.602,46.387,0
1610548242.309,78.125,25.391,40.527,49.316,55.176,0
1610548242.313,45.898,24.414,45.410,38.574,6.348,0
1610548242.316,-27.344,26.367,42.480,4.395,57.617,0
1610548242.320,-37.109,30.273,33.691,-0.977,74.707,0
1610548242.324,26.367,24.414,30.762,40.039,-0.488,0
1610548242.328,90.332,20.020,31.250,65.430,28.320,0
1610548242.332,54.199,21.484,23.438,49.805,62.012,0
1610548242.335,-26.855,19.531,20.996,16.602,31.738,0
1610548242.339,-43.945,17.090,30.273,-10.254,-20.020,0
1610548242.343,0.000,10.742,33.691,17.090,-5.371,0
1610548242.347,76.660,8.789,22.461,57.129,0.488,0
1610548242.351,71.777,21.484,24.902,42.969,0.488,0
1610548242.355,-18.066,27.832,34.668,7.812,20.020,0
1610548242.359,-47.852,22.461,31.250,-18.066,36.621,0
1610548242.362,10.742,24.414,32.227,21.484,15.625,0
1610548242.366,89.355,36.133,25.391,71.777,1.465,0
1610548242.370,74.219,30.762,11.230,51.758,-5.371,0
1610548242.374,-17.578,17.090,13.184,2.441,3.418,0
1610548242.378,-55.664,18.066,25.391,-20.508,15.137,0
1610548242.379,-9.766,24.902,22.461,0.000,22.949,0
1610548242.383,58.105,22.949,11.719,24.414,76.660,0
1610548242.387,61.523,15.137,28.320,17.090,119.629,0
1610548242.391,-8.301,15.625,41.504,-16.113,41.504,0
1610548242.395,-49.316,20.020,36.133,-34.180,-19.043,0
1610548242.399,-3.418,28.809,35.645,-7.324,54.688,0
1610548242.403,72.266,24.414,41.504,41.016,92.285,0
1610548242.406,80.078,19.043,25.879,53.223,61.035,0
1610548242.410,10.742,30.273,14.160,31.250,33.203,0
1610548242.414,-39.551,33.691,19.043,-4.395,18.066,0
1610548242.418,-13.672,31.250,22.949,-2.930,2.930,0
1610548242.422,58.594,28.320,33.203,32.227,34.180,0
1610548242.424,86.426,27.832,37.109,45.898,69.336,0
1610548242.428,23.926,27.832,32.715,17.578,78.125,0
1610548242.432,-50.293,26.367,32.715,-14.648,82.031,0
1610548242.436,-26.367,33.203,26.855,-1.953,73.730,0
1610548242.440,56.152,29.297,24.902,36.621,60.547,0
1610548242.444,73.242,17.578,18.066,52.246,76.172,0
1610548242.448,18.555,19.531,23.926,31.250,53.223,0
1610548242.451,-34.180,24.414,39.551,-5.859,0.000,0
1610548242.455,-29.785,23.926,35.645,-7.812,41.504,0
1610548242.459,23.438,18.066,32.715,20.996,51.758,0
1610548242.463,71.777,16.602,37.109,44.434,52.246,0
1610548242.467,37.109,18.555,36.133,41.504,38.574,0
1610548242.484,-28.809,26.855,30.273,6.348,18.066,0
1610548242.488,-43.457,27.344,33.691,-9.766,-6.836,0
1610548242.492,14.160,25.879,32.715,30.762,-32.715,0
1610548242.496,89.844,28.320,27.832,70.312,53.711,0
1610548242.500,61.523,36.133,21.973,54.199,78.125,0
1610548242.504,-27.832,32.715,18.066,-0.488,-36.621,0
1610548242.508,-49.805,18.555,32.227,-26.367,-19.531,0
1610548242.511,18.066,10.742,39.062,12.695,35.156,0
1610548242.515,98.633,16.113,28.320,69.824,52.246,0
1610548242.519,74.219,30.762,23.438,56.152,59.082,0
1610548242.523,-31.250,30.762,27.344,-14.648,14.160,0
1610548242.527,-53.223,28.320,29.785,-37.109,-6.348,0
1610548242.529,6.348,24.902,20.996,3.418,0.977,0
1610548242.533,81.055,29.297,16.113,39.062,39.062,0
1610548242.537,78.613,34.668,18.555,34.180,28.320,0
1610548242.541,-1.953,36.621,19.531,1.953,32.227,0
1610548242.545,-54.688,35.156,26.855,-17.090,22.949,0
1610548242.549,-9.277,21.484,22.461,12.207,26.855,0
1610548242.553,79.102,27.344,22.461,44.922,19.043,0
1610548242.556,71.777,29.297,24.414,36.621,-8.301,0
1610548242.560,3.418,25.391,11.719,11.230,50.293,0
1610548242.564,-35.645,29.297,13.184,-5.371,33.691,0
1610548242.568,-3.906,27.832,31.250,16.113,13.672,0
1610548242.572,63.477,18.555,32.715,55.664,70.801,0
1610548242.574,89.355,21.973,31.250,68.848,47.363,0
1610548242.578,29.785,31.738,40.527,36.133,-8.789,0
1610548242.582,-42.969,21.973,33.203,-2.441,26.855,0
1610548242.586,-20.996,14.160,30.762,10.742,28.809,0
1610548242.590,61.523,22.949,29.785,42.480,4.395,0
1610548242.594,95.215,29.785,28.809,48.340,70.312,0
1610548242.598,20.508,31.738,40.039,29.297,43.457,0
1610548242.601,-43.457,29.785,37.598,3.906,-6.348,0
1610548242.605,-31.250,23.926,21.973,4.395,25.879,0
1610548242.609,45.410,20.508,11.230,23.438,11.230,0
1610548242.613,87.402,22.949,12.207,38.574,22.461,0
1610548242.617,28.809,31.250,31.738,20.996,26.367,0
1610548242.619,-22.949,33.691,50.781,-6.836,-11.719,0
1610548242.623,-10.742,30.762,41.992,-1.953,9.766,0
1610548242.627,57.617,20.020,27.344,32.227,74.219,0
1610548242.631,96.680,17.090,33.691,54.199,68.359,0
1610548242.635,41.992,23.438,39.551,35.645,50.293,0
1610548242.639,-15.625,31.250,40.039,0.977,68.848,0
1610548242.643,-22.949,37.109,42.969,-0.488,53.711,0
1610548242.646,39.062,30.762,34.180,39.551,26.855,0
1610548242.650,90.820,23.926,23.438,63.477,23.438,0
1610548242.654,56.152,27.344,25.879,50.293,1.465,0
1610548242.658,-18.066,25.879,36.621,17.578,17.090,0
1610548242.662,-35.156,26.367,45.410,2.441,39.551,0
1610548242.664,24.902,28.320,51.270,36.621,49.316,0
1610548242.668,85.449,18.066,42.969,67.871,78.125,0
1610548242.672,55.664,19.531,29.785,53.711,62.012,0
1610548242.676,-19.043,23.438,25.391,10.254,-1.953,0
1610548242.680,-33.203,24.902,24.414,-7.812,-46.875,0
1610548242.684,14.648,24.414,25.391,18.555,-47.363,0
1610548242.688,74.219,18.555,23.438,51.758,20.996,0
1610548242.691,64.453,22.949,26.855,52.734,80.566,0
1610548242.695,-4.395,30.273,32.715,7.324,21.973,0
1610548242.699,-33.691,29.785,24.902,-16.113,-2.441,0
1610548242.703,14.648,32.715,22.949,17.090,-16.113,0
1610548242.707,85.938,34.668,36.621,57.129,46.875,0
1610548242.709,82.031,23.926,32.715,54.688,60.547,0
1610548242.713,-7.812,21.973,19.531,12.207,24.414,0
1610548242.717,-40.039,29.297,22.949,-15.137,27.344,0
1610548242.721,6.348,24.414,30.762,-0.977,49.805,0
1610548242.725,76.660,27.344,30.273,46.875,33.691,0
1610548242.729,102.051,30.762,34.668,71.289,-41.992,0
1610548242.733,19.531,23.926,39.062,27.344,-9.277,0
1610548242.736,-37.598,23.438,38.574,-14.648,27.344,0
1610548242.740,-3.418,31.250,34.668,7.812,8.789,0
1610548242.744,71.777,27.832,26.367,50.781,-14.648,0
1610548242.748,94.238,20.508,31.738,61.035,18.066,0
1610548242.752,25.391,26.367,39.551,36.621,12.207,0
1610548242.754,-48.828,29.297,29.297,6.836,-18.066,0
1610548242.758,-25.879,20.996,20.508,20.996,9.766,0
1610548242.762,52.734,20.508,21.973,51.758,72.754,0
1610548242.766,91.797,31.738,26.367,51.758,41.992,0
1610548242.770,42.480,33.203,33.691,24.414,30.273,0
1610548242.774,-40.039,32.227,44.434,-2.441,70.801,0
1610548242.778,-29.297,29.297,43.457,2.930,64.941,0
1610548242.781,62.988,27.832,37.109,43.945,46.875,0
1610548242.785,106.445,28.320,35.156,69.336,11.719,0
1610548242.789,42.969,22.461,28.809,33.691,-39.062,0
1610548242.793,-36.133,23.438,27.832,-12.695,1.465,0
1610548242.797,-24.414,28.809,27.344,-5.371,62.500,0
1610548242.800,49.805,27.344,32.227,40.039,77.148,0
1610548242.804,93.750,24.414,30.273,59.570,78.613,0
1610548242.808,53.711,25.391,29.785,48.340,64.453,0
1610548242.812,-26.367,26.367,33.691,6.348,13.672,0
1610548242.816,-38.086,28.320,31.250,-19.043,44.434,0
1610548242.820,28.320,28.809,30.273,19.531,71.777,0
1610548242.824,92.773,24.414,20.996,50.293,22.461,0
1610548242.827,58.105,28.320,38.574,46.875,5.859,0
1610548242.831,-19.043,32.227,42.480,27.832,22.461,0
1610548242.835,-32.715,26.367,26.367,-0.977,8.301,0
1610548242.839,11.230,20.508,33.203,6.348,6.348,0
1610548242.843,76.172,22.949,29.297,46.875,43.945,0
1610548242.859,62.012,27.832,37.109,40.039,38.086,0
1610548242.863,-10.254,27.344,48.340,-5.859,74.219,0
1610548242.867,-40.039,24.902,32.227,-25.879,69.824,0
1610548242.871,5.371,21.484,20.508,6.348,9.277,0
1610548242.875,73.242,24.414,24.902,53.711,40.527,0
1610548242.879,82.031,38.086,27.832,63.477,77.148,0
1610548242.883,3.906,36.621,29.785,22.461,38.086,0
1610548242.886,-47.363,26.855,28.320,-21.973,-3.906,0
1610548242.890,-12.207,23.926,30.762,-3.906,11.719,0
1610548242.894,64.941,25.391,33.691,39.551,26.855,0
1610548242.898,84.473,29.297,30.762,53.711,34.180,0
1610548242.902,6.348,24.414,29.785,26.855,47.363,0
1610548242.905,-36.133,25.391,33.203,-7.324,87.402,0
1610548242.909,-6.348,24.414,29.297,8.301,40.039,0
1610548242.913,55.664,18.555,24.902,50.293,17.578,0
1610548242.917,76.172,30.273,25.391,59.570,88.379,0
1610548242.921,8.301,32.715,21.973,29.785,53.711,0
1610548242.925,-53.711,26.367,33.203,-15.625,22.461,0
1610548242.929,-29.785,23.438,34.180,-18.066,22.461,0
1610548242.932,49.316,20.508,24.902,20.020,-0.488,0
1610548242.936,80.566,22.461,25.879,39.551,30.762,0
1610548242.940,15.625,31.250,28.320,14.648,14.648,0
1610548242.944,-42.969,36.133,38.086,-13.184,15.625,0
1610548242.948,-15.137,32.715,44.434,2.441,29.297,0
1610548242.949,46.875,27.832,35.645,29.297,19.043,0
1610548242.953,82.031,22.949,28.809,37.109,38.574,0
1610548242.957,24.902,27.832,32.715,21.973,75.684,0
1610548242.961,-41.992,32.715,29.785,-13.672,74.219,0
1610548242.965,-12.207,30.762,17.090,-3.418,10.254,0
1610548242.969,58.105,27.832,8.301,45.898,-100.098,0
1610548242.973,90.332,32.227,31.738,54.199,-97.656,0
1610548242.976,45.410,37.109,42.969,36.621,6.348,0
1610548242.980,-21.973,34.180,33.203,-2.930,45.898,0
1610548242.984,-26.367,26.367,31.738,-17.090,7.324,0
1610548242.988,28.809,21.484,29.785,12.695,-6.836,0
1610548242.992,86.426,20.996,26.855,41.992,37.598,0
1610548242.994,53.711,27.344,32.715,37.598,23.438,0
1610548242.998,-28.320,34.668,34.180,-4.395,4.883,0
1610548243.002,-40.039,28.809,31.738,-16.602,28.809,0
1610548243.006,16.113,20.508,34.668,20.020,18.555,0
1610548243.010,82.031,24.414,35.156,55.176,23.438,0
1610548243.014,64.941,29.297,35.645,46.875,54.199,0
1610548243.018,-17.578,21.973,29.785,11.719,92.773,0
1610548243.021,-28.809,23.438,30.762,9.766,56.641,0
1610548243.025,31.738,30.762,42.480,43.945,8.301,0
1610548243.029,79.102,23.438,30.762,53.711,33.691,0
1610548243.033,62.988,25.879,27.832,31.738,42.480,0
1610548243.037,-3.906,34.180,36.133,3.418,-6.836,0
1610548243.039,-32.715,29.297,33.691,-1.953,-20.020,0
1610548243.043,9.277,21.484,38.574,18.555,37.598,0
1610548243.047,78.613,25.879,35.156,42.480,87.891,0
1610548243.051,74.707,33.203,29.785,41.992,86.914,0
1610548243.055,-7.812,30.762,31.250,2.930,69.336,0
1610548243.059,-38.574,31.250,40.527,-16.113,14.160,0
1610548243.063,1.953,33.203,39.551,16.602,2.441,0
1610548243.066,68.359,30.762,28.809,58.594,0.488,0
1610548243.070,80.566,26.367,36.133,52.734,35.156,0
1610548243.074,1.953,23.926,39.551,15.137,53.711,0
1610548243.078,-43.945,23.438,37.109,-19.531,-22.461,0
1610548243.082,-9.277,19.531,27.344,-9.766,1.465,0
1610548243.084,59.570,18.555,20.508,40.039,59.082,0
1610548243.088,82.520,23.926,38.574,52.734,69.336,0
1610548243.092,20.508,29.785,43.457,19.043,63.965,0
1610548243.096,-38.086,33.691,35.645,-3.906,-28.320,0
1610548243.100,-19.531,28.809,33.691,14.648,-48.340,0
1610548243.104,54.199,19.531,28.320,41.504,66.895,0
1610548243.108,88.867,23.926,22.949,64.453,90.820,0
1610548243.111,27.344,29.297,30.273,31.738,51.270,0
1610548243.115,-41.016,24.902,38.574,-15.137,31.250,0
1610548243.119,-31.738,23.438,42.969,-2.441,-15.625,0
1610548243.123,44.434,23.438,33.203,45.410,20.996,0
1610548243.127,92.773,26.367,32.227,67.871,75.195,0
1610548243.129,40.527,29.785,42.969,35.156,29.785,0
1610548243.133,-30.273,28.320,45.410,-4.395,13.672,0
1610548243.137,-25.879,26.855,42.969,-14.648,16.602,0
1610548243.141,19.531,22.461,34.180,12.695,-18.066,0
1610548243.145,67.871,23.926,29.785,41.016,34.668,0
1610548243.149,61.523,32.715,27.832,32.227,20.020,0
1610548243.153,-20.996,29.297,26.367,-6.836,-11.719,0
1610548243.156,-36.621,28.320,27.344,-13.672,46.875,0
1610548243.160,20.996,26.855,27.832,19.043,75.684,0
1610548243.164,77.148,20.020,35.156,43.945,58.105,0
1610548243.168,55.176,21.973,37.109,33.691,67.383,0
1610548243.172,-20.020,32.715,34.180,4.395,34.180,0
1610548243.174,-46.387,30.762,32.715,-6.836,-42.969,0
1610548243.178,22.949,32.227,33.203,28.320,24.902,0
1610548243.182,83.496,30.273,36.133,54.688,66.406,0
1610548243.186,55.664,14.160,27.832,31.250,72.266,0
1610548243.190,-6.836,13.184,21.973,-2.930,53.223,0
1610548243.194,-43.457,20.020,30.762,-13.672,-16.113,0
1610548243.198,-3.418,18.555,30.762,14.160,6.836,0
1610548243.201,72.754,22.461,27.832,50.781,55.664,0
1610548243.205,77.637,32.715,32.227,52.246,71.777,0
1610548243.209,-9.277,27.832,26.367,17.090,82.031,0
1610548243.213,-46.875,21.973,20.020,0.488,49.805,0
1610548243.217,-0.488,21.484,20.996,25.391,-40.039,0
1610548243.234,66.895,27.344,32.715,65.430,-21.973,0
1610548243.238,76.172,26.855,33.691,70.801,29.297,0
1610548243.242,6.836,20.508,30.762,29.297,-5.859,0
1610548243.246,-41.992,21.973,16.602,-20.508,-1.465,0
1610548243.250,-16.602,19.043,12.207,-14.160,2.441,0
1610548243.254,61.523,11.230,38.574,35.156,-0.488,0
1610548243.258,75.195,12.695,42.969,48.340,53.711,0
1610548243.261,7.812,24.902,38.086,15.625,37.109,0
1610548243.265,-33.691,34.180,41.016,-7.812,-36.621,0
1610548243.269,-5.859,30.762,29.297,14.648,-26.367,0
1610548243.273,63.477,17.578,10.742,40.039,37.598,0
1610548243.277,97.168,21.973,17.578,47.852,76.172,0
1610548243.279,34.180,30.762,19.043,22.949,53.223,0
1610548243.283,-47.363,24.414,11.719,-30.273,39.062,0
1610548243.287,-39.551,20.508,32.227,-11.230,36.133,0
1610548243.291,29.785,15.625,38.574,24.902,44.434,0
1610548243.295,75.195,15.137,33.691,42.480,64.453,0
1610548243.299,25.391,20.020,25.879,24.902,30.762,0
1610548243.303,-38.574,20.996,20.508,-15.137,-1.953,0
1610548243.306,-36.133,26.855,33.691,-6.836,35.156,0
1610548243.310,33.203,24.414,32.715,29.297,96.191,0
1610548243.314,89.844,18.066,15.625,48.828,79.102,0
1610548243.318,41.016,25.391,16.602,35.645,50.781,0
1610548243.322,-38.574,25.879,23.926,2.930,40.527,0
1610548243.324,-37.598,22.949,22.461,-9.277,49.316,0
1610548243.328,29.297,21.973,28.320,21.973,54.199,0
1610548243.332,87.891,24.902,34.180,64.453,25.879,0
1610548243.336,64.453,33.203,34.180,70.801,17.090,0
1610548243.340,-17.090,28.809,34.180,6.836,-11.230,0
1610548243.344,-54.688,20.996,35.645,-24.902,-2.930,0
1610548243.348,16.602,23.438,31.250,16.113,31.250,0
1610548243.351,97.656,23.926,28.809,55.176,0.977,0
1610548243.355,70.801,23.926,37.598,61.035,-40.039,0
1610548243.359,-1.465,31.738,29.297,15.137,-21.973,0
1610548243.363,-43.945,18.555,14.648,-15.625,-40.527,0
1610548243.367,-5.371,12.695,33.203,17.090,29.785,0
1610548243.369,78.125,28.320,38.086,60.059,49.316,0
1610548243.373,67.871,32.715,33.691,48.340,-36.621,0
1610548243.377,-9.766,31.738,50.293,6.348,-16.602,0
1610548243.381,-44.434,28.320,55.176,-9.766,28.809,0
1610548243.385,0.488,30.273,48.340,16.602,27.344,0
1610548243.389,86.914,38.086,39.551,66.406,78.613,0
1610548243.393,81.543,31.250,36.133,64.941,121.094,0
1610548243.396,2.930,26.367,37.598,20.020,79.590,0
1610548243.400,-37.109,25.391,23.438,-4.395,-1.953,0
1610548243.404,0.000,21.973,15.137,14.160,7.812,0
1610548243.408,69.336,20.508,19.043,45.410,54.688,0
1610548243.412,80.566,23.926,22.461,61.523,79.590,0
1610548243.414,24.902,31.738,38.086,23.438,39.062,0
1610548243.418,-42.969,30.762,50.293,-19.043,31.738,0
1610548243.422,-17.578,28.809,38.574,8.301,81.055,0
1610548243.426,81.543,30.273,32.227,52.734,83.496,0
1610548243.430,103.027,30.273,42.969,59.570,81.543,0
1610548243.434,26.367,25.879,37.598,20.508,52.246,0
1610548243.438,-42.969,18.066,28.809,-17.090,41.504,0
1610548243.441,-24.902,18.066,27.832,-4.395,63.477,0
1610548243.445,42.480,19.043,27.832,30.273,82.031,0
1610548243.449,80.566,22.461,16.113,47.363,32.715,0
1610548243.453,29.297,28.320,13.672,26.367,0.488,0
1610548243.457,-35.645,25.391,29.297,-9.766,44.434,0
1610548243.459,-22.949,33.691,41.992,18.066,30.273,0
1610548243.463,39.551,33.203,31.738,56.152,-16.602,0
1610548243.467,88.867,23.438,20.996,52.734,-0.977,0
1610548243.471,43.457,25.391,33.691,37.598,21.973,0
1610548243.475,-21.484,29.297,33.691,-1.465,-49.316,0
1610548243.479,-24.902,26.367,29.785,-7.812,-47.363,0
1610548243.483,33.203,25.391,33.203,32.715,18.555,0
1610548243.486,99.609,31.250,33.691,55.176,-14.160,0
1610548243.490,66.895,29.297,31.738,42.969,15.625,0
1610548243.494,-20.020,27.832,42.969,12.695,32.227,0
1610548243.498,-46.387,25.391,49.805,0.977,53.223,0
1610548243.502,24.902,23.438,40.039,41.016,40.527,0
1610548243.504,104.492,31.250,36.133,79.102,10.254,0
1610548243.508,72.266,37.109,34.668,61.523,-10.742,0
1610548243.512,-8.301,33.691,39.062,10.254,-18.066,0
1610548243.516,-34.180,31.738,38.574,-13.672,41.504,0
1610548243.520,12.695,29.785,36.621,11.230,28.320,0
1610548243.524,79.590,23.926,32.715,42.969,6.836,0
1610548243.528,61.035,25.391,29.785,39.551,41.504,0
1610548243.531,-24.902,26.855,37.109,7.812,26.855,0
1610548243.535,-46.387,25.391,35.645,-9.277,-9.766,0
1610548243.539,-2.441,20.020,21.484,14.648,-43.457,0
1610548243.543,63.477,18.066,19.043,53.711,-74.707,0
1610548243.547,86.914,28.320,35.645,63.477,-12.695,0
1610548243.550,13.184,31.738,31.738,23.438,37.109,0
1610548243.554,-41.016,27.344,16.602,-17.090,42.480,0
1610548243.558,0.977,27.832,19.531,-0.488,45.410,0
1610548243.562,72.754,17.578,25.391,37.109,74.707,0
1610548243.566,77.637,20.508,31.738,57.617,45.898,0
1610548243.570,-0.488,27.832,28.320,24.414,14.648,0
1610548243.574,-42.969,26.855,30.273,-14.160,1.465,0
1610548243.577,-0.488,20.996,30.762,9.277,8.789,0
1610548243.581,57.129,16.602,19.043,39.062,33.691,0
1610548243.585,77.637,27.344,32.715,44.922,41.504,0
1610548243.589,23.438,41.016,56.152,29.297,93.750,0
1610548243.593,-32.715,39.062,48.340,-3.418,59.570,0
1610548243.594,-20.020,20.996,23.926,-5.859,0.977,0
1610548243.598,49.805,18.066,19.043,36.621,1.953,0
1610548243.602,94.727,27.832,20.508,61.523,39.551,0
1610548243.606,32.715,30.762,28.809,40.039,39.551,0
1610548243.610,-27.344,34.668,32.227,9.277,12.695,0
1610548243.614,-10.742,35.156,40.527,27.344,-20.020,0
1610548243.618,51.270,22.461,42.969,45.898,3.906,0
1610548243.621,109.375,24.414,35.645,40.527,58.594,0
1610548243.625,55.176,35.156,36.621,29.785,35.645,0
1610548243.629,-31.738,31.738,35.156,-14.648,-16.113,0
1610548243.633,-22.461,28.320,39.062,-13.184,12.207,0
1610548243.637,41.016,26.367,39.551,29.297,95.215,0
1610548243.654,81.055,21.973,22.461,49.316,111.328,0
1610548243.658,46.387,20.508,21.973,40.039,62.988,0
1610548243.662,-31.250,27.832,35.156,2.441,38.086,0
1610548243.666,-33.691,35.645,41.992,12.695,56.641,0
1610548243.670,40.527,30.762,44.434,49.316,111.816,0
1610548243.674,86.426,19.043,45.410,46.875,137.695,0
1610548243.678,56.152,22.461,46.387,31.738,108.398,0
1610548243.681,-10.742,33.691,47.852,-1.465,36.621,0
1610548243.685,-30.762,30.762,39.062,-17.090,53.711,0
1610548243.689,18.555,27.344,28.809,14.648,75.684,0
1610548243.693,93.750,26.367,33.691,50.781,73.730,0
1610548243.697,71.777,29.297,35.156,42.969,60.059,0
1610548243.699,-6.348,35.156,33.203,15.625,27.344,0
1610548243.703,-23.438,30.762,34.668,6.836,24.414,0
1610548243.707,15.625,22.461,38.086,14.160,-51.270,0
1610548243.711,78.613,28.809,42.969,48.340,-5.371,0
1610548243.715,75.684,33.691,41.504,53.711,58.105,0
1610548243.719,-12.207,25.391,37.109,-6.836,8.789,0
1610548243.723,-51.270,18.555,39.062,-37.109,-8.301,0
1610548243.726,-6.836,20.996,42.480,2.441,33.691,0
1610548243.730,72.754,25.391,37.598,48.828,45.898,0
1610548243.734,80.566,22.461,25.391,55.176,31.250,0
1610548243.738,-3.906,21.484,25.879,16.113,31.250,0
1610548243.742,-43.457,22.949,37.598,-12.695,67.383,0
1610548243.744,-5.371,26.367,39.062,8.301,43.457,0
1610548243.748,59.082,19.531,33.691,37.598,19.531,0
1610548243.752,75.684,16.113,39.062,38.086,83.496,0
1610548243.756,20.020,32.227,39.062,12.695,113.281,0
1610548243.760,-47.363,31.738,33.203,-12.207,49.316,0
1610548243.764,-24.414,20.020,35.645,0.000,6.348,0
1610548243.768,59.570,22.461,34.180,37.109,12.207,0
1610548243.771,65.918,18.066,31.738,38.086,15.625,0
1610548243.775,6.348,13.672,37.109,5.371,-7.324,0
1610548243.779,-51.758,14.160,41.992,-19.043,37.109,0
1610548243.783,-34.180,17.090,26.855,-4.883,53.223,0
1610548243.787,48.340,18.555,19.043,40.039,48.340,0
1610548243.790,83.984,18.066,21.484,43.945,72.266,0
1610548243.794,50.293,32.227,27.832,44.434,43.457,0
1610548243.798,-13.184,30.762,37.598,17.090,-0.488,0
1610548243.802,-34.668,14.648,41.992,-19.043,15.625,0
1610548243.806,4.395,11.719,39.062,11.719,46.875,0
1610548243.810,64.453,16.602,33.691,54.688,66.406,0
1610548243.814,38.086,22.949,36.133,41.504,28.320,0
1610548243.817,-37.598,23.926,41.992,-4.883,7.812,0
1610548243.821,-34.668,20.508,39.062,-13.184,6.836,0
1610548243.825,28.809,18.066,36.133,24.414,0.488,0
1610548243.829,83.496,14.160,23.438,52.734,25.391,0
1610548243.833,50.293,18.066,12.695,42.480,41.016,0
1610548243.834,-23.926,25.391,32.227,5.371,21.484,0
1610548243.838,-21.484,33.203,49.316,1.953,1.465,0
1610548243.842,31.250,25.391,38.086,30.762,14.648,0
1610548243.846,64.941,13.184,25.879,43.457,24.902,0
1610548243.850,28.320,22.461,38.574,34.180,65.918,0
1610548243.854,-43.945,22.461,44.434,1.465,13.184,0
1610548243.858,-53.711,16.602,32.715,-15.137,-39.551,0
1610548243.861,-1.465,15.137,27.344,8.301,32.715,0
1610548243.865,70.312,18.066,32.715,37.598,55.664,0
1610548243.869,58.105,20.996,30.273,37.109,65.918,0
1610548243.873,-10.742,24.902,29.785,7.812,61.035,0
1610548243.877,-40.527,26.855,31.738,-8.789,13.672,0
1610548243.879,-1.465,31.250,41.016,17.578,11.719,0
1610548243.883,76.660,29.785,47.852,55.176,65.918,0
1610548243.887,85.938,26.855,38.574,57.129,36.621,0
1610548243.891,9.766,29.297,34.668,18.066,7.324,0
1610548243.895,-45.898,20.020,24.902,-27.344,37.109,0
1610548243.899,-13.184,16.113,31.738,-4.395,25.879,0
1610548243.903,66.895,17.090,39.062,43.945,12.207,0
1610548243.906,75.684,17.578,29.785,42.480,82.031,0
1610548243.910,1.953,19.531,34.180,12.207,83.984,0
1610548243.914,-33.203,32.227,43.945,0.977,-18.066,0
1610548243.918,-11.230,32.227,35.645,11.230,-25.879,0
1610548243.922,54.199,15.625,19.531,39.551,41.016,0
1610548243.924,86.914,16.113,17.578,60.059,32.227,0
1610548243.928,21.973,29.785,27.832,32.715,4.395,0
1610548243.932,-38.574,33.203,22.461,-6.836,22.949,0
1610548243.936,-29.785,25.879,23.926,-0.977,10.254,0
1610548243.940,39.551,18.066,29.785,26.367,16.113,0
1610548243.944,81.055,19.043,29.785,44.922,74.219,0
1610548243.948,21.973,21.484,34.668,25.879,83.984,0
1610548243.951,-36.621,29.785,44.434,-2.930,54.199,0
1610548243.955,-20.996,33.691,38.086,9.766,-0.488,0
1610548243.959,43.457,20.508,23.926,29.297,-9.766,0
1610548243.963,84.961,18.555,23.926,42.480,-12.695,0
1610548243.967,26.855,22.949,17.578,26.855,-26.367,0
1610548243.969,-31.250,28.320,16.602,-3.418,4.395,0
1610548243.973,-22.461,30.273,26.367,-7.812,58.594,0
1610548243.977,33.691,27.832,18.066,16.113,41.992,0
1610548243.981,93.262,28.809,5.371,53.223,-4.883,0
1610548243.985,68.359,32.227,20.020,60.059,46.387,0
1610548243.989,-23.926,27.344,39.062,-0.977,94.727,0
1610548243.993,-47.363,18.555,30.273,-29.785,5.859,0
1610548243.996,13.184,11.230,26.367,11.719,-3.418,0
1610548244.000,72.266,13.184,32.715,48.340,72.754,0
1610548244.004,46.875,20.508,22.949,34.180,92.285,0
1610548244.008,-26.855,23.438,12.695,-2.441,99.609,0
1610548244.012,-41.992,21.484,20.508,-5.371,61.523,0
1610548244.029,19.043,24.902,30.273,23.926,13.184,0
1610548244.033,69.336,22.949,17.090,63.477,1.465,0
1610548244.037,54.199,22.461,13.184,52.246,8.789,0
1610548244.041,-11.719,24.902,24.902,-6.348,52.246,0
1610548244.045,-36.133,20.996,20.508,-19.531,91.797,0
1610548244.049,16.602,25.391,15.625,16.602,-13.672,0
1610548244.053,82.031,29.785,14.648,57.617,-27.832,0
1610548244.056,78.613,30.273,15.137,62.988,41.504,0
1610548244.060,-0.488,28.809,15.137,13.184,35.645,0
1610548244.064,-46.387,20.020,27.344,-20.020,17.090,0
1610548244.068,4.395,17.090,28.809,10.742,49.316,0
1610548244.072,80.566,26.367,16.113,49.805,109.375,0
1610548244.074,79.590,32.715,13.672,55.176,68.359,0
1610548244.078,8.301,32.715,31.738,25.391,34.668,0
1610548244.082,-48.340,24.414,30.762,-13.672,31.738,0
1610548244.086,-20.508,20.508,21.484,-5.371,17.090,0
1610548244.090,62.012,22.461,25.391,41.992,-3.906,0
1610548244.094,74.707,24.414,34.180,48.340,11.719,0
1610548244.098,4.395,24.414,33.203,3.906,34.668,0
1610548244.101,-30.273,28.809,26.367,-16.602,43.945,2
1610548244.105,-6.348,30.273,19.531,2.930,48.828,0
1610548244.109,71.777,29.297,22.949,49.805,40.039,0
1610548244.113,99.121,22.949,19.531,62.012,69.824,0
1610548244.117,29.785,22.949,20.020,25.879,2.930,0
1610548244.119,-25.879,33.691,39.062,-4.883,1.465,0
1610548244.123,-9.766,33.203,38.574,-4.883,55.176,0
1610548244.127,46.875,22.949,23.926,36.621,-8.789,0
1610548244.131,89.355,26.367,21.973,62.988,30.762,0
1610548244.135,46.875,30.273,30.273,24.414,63.477,0
1610548244.139,-39.062,23.926,30.762,-19.043,39.062,0
1610548244.143,-47.363,20.508,29.785,-6.836,7.324,0
1610548244.146,45.410,22.461,28.809,36.133,0.977,0
1610548244.150,111.328,26.367,23.926,58.594,34.668,0
1610548244.154,53.711,30.762,17.090,36.621,41.504,0
1610548244.158,-23.926,27.344,28.809,-6.836,22.461,0
1610548244.162,-19.043,20.020,50.293,7.324,20.020,0
1610548244.164,36.621,19.531,45.410,51.270,44.922,0
1610548244.168,80.078,22.461,25.391,59.570,54.199,0
1610548244.172,58.105,29.297,24.902,33.203,64.941,0
1610548244.176,-19.043,27.344,28.320,-6.836,32.227,0
1610548244.180,-42.969,23.926,31.738,-9.277,21.973,0
1610548244.184,26.855,25.879,36.621,28.320,78.613,0
1610548244.188,91.309,26.855,38.574,55.176,86.426,0
1610548244.191,66.406,31.738,44.434,46.387,78.125,0
1610548244.195,-15.625,29.297,41.016,14.160,99.121,0
1610548244.199,-41.016,28.320,37.109,-6.836,34.668,0
1610548244.203,25.391,36.133,37.598,20.996,-7.812,0
1610548244.207,85.938,26.855,26.855,59.570,41.992,0
1610548244.209,67.871,23.926,15.625,51.758,-0.488,0
1610548244.213,2.441,29.785,18.555,18.555,1.953,0
1610548244.217,-29.297,30.762,27.832,14.160,51.758,0
1610548244.221,21.484,28.809,36.621,25.391,22.461,0
1610548244.225,94.238,26.367,41.504,47.363,11.719,0
1610548244.229,78.613,28.320,40.039,47.852,-10.742,0
1610548244.233,-15.137,26.855,45.898,9.766,-24.902,0
1610548244.236,-45.898,22.461,43.457,-20.508,-1.465,0
1610548244.240,4.395,19.043,39.551,0.977,20.996,0
1610548244.244,72.754,28.320,46.387,49.805,13.184,0
1610548244.248,85.938,35.645,39.551,54.199,21.973,0
1610548244.252,13.672,31.738,31.738,24.414,61.035,0
1610548244.256,-32.227,29.785,24.414,-2.930,32.227,0
1610548244.260,-6.836,22.949,24.902,0.000,-10.254,0
1610548244.264,64.941,26.367,33.203,57.129,23.926,0
1610548244.268,94.238,29.785,26.367,78.125,36.621,0
1610548244.272,23.926,23.438,27.344,29.297,29.297,0
1610548244.276,-39.551,25.391,41.504,-2.441,-19.043,0
1610548244.280,-10.742,22.461,40.039,10.254,-43.945,0
1610548244.283,62.988,19.043,38.574,41.992,27.344,0
1610548244.287,93.750,27.344,43.945,57.617,28.320,0
1610548244.291,30.762,33.691,40.527,28.320,8.789,0
1610548244.295,-46.387,27.344,28.809,-16.602,6.836,0
1610548244.299,-46.387,20.996,20.508,-14.648,52.734,0
1610548244.299,31.738,20.508,20.508,22.949,66.895,0
1610548244.303,95.703,21.973,25.879,47.363,54.688,0
1610548244.307,26.855,25.879,36.133,28.809,63.477,0
1610548244.311,-50.293,31.738,38.574,-11.719,67.383,0
1610548244.315,-29.297,25.391,22.949,-11.719,20.020,0
1610548244.319,29.297,17.578,16.113,30.762,-18.066,0
1610548244.323,82.520,27.832,30.273,58.594,26.855,0
1610548244.326,58.105,42.480,45.410,48.828,61.523,0
1610548244.330,-17.090,32.715,34.668,21.484,30.762,0
1610548244.334,-51.270,17.090,24.414,-11.230,47.852,0
1610548244.338,5.859,19.043,29.785,-0.488,97.656,0
1610548244.342,75.684,24.902,35.645,35.156,83.008,0
1610548244.344,48.340,25.391,38.574,22.461,6.348,0
1610548244.348,-39.551,27.832,37.109,-7.324,-17.578,0
1610548244.352,-47.852,32.715,32.715,-9.277,-35.645,0
1610548244.356,21.484,31.738,29.785,14.160,14.648,0
1610548244.360,81.055,27.344,30.273,46.387,65.430,0
1610548244.364,68.848,27.832,28.320,42.480,-2.441,0
1610548244.368,-2.930,29.785,27.832,7.812,-25.879,0
1610548244.371,-21.484,37.109,24.414,3.418,-16.602,0
1610548244.375,25.391,32.227,18.555,31.738,-2.930,0
1610548244.379,80.566,25.879,25.879,48.340,23.438,0
1610548244.383,69.824,29.297,36.133,43.457,7.812,0
1610548244.387,-8.301,31.738,37.109,8.789,23.438,0
1610548244.404,-47.363,34.668,38.086,-17.090,63.965,0
1610548244.408,-2.441,27.344,32.715,2.441,31.250,0
1610548244.412,68.848,19.043,24.414,36.621,-5.371,0
1610548244.416,77.148,22.949,28.809,41.016,11.230,0
1610548244.420,1.953,28.320,36.133,15.137,48.828,0
1610548244.424,-41.992,26.855,34.668,-4.395,5.859,0
1610548244.428,-5.371,27.344,26.367,15.625,-15.137,0
1610548244.431,73.242,27.832,26.855,58.594,0.488,0
1610548244.435,91.797,22.949,31.250,52.246,64.941,0
1610548244.439,7.812,25.879,33.203,11.719,30.762,0
1610548244.443,-43.945,28.809,37.598,-16.602,-6.348,0
1610548244.447,-16.113,25.879,29.297,-7.324,44.922,0
1610548244.449,43.457,20.996,22.461,42.969,17.090,0
1610548244.453,80.566,19.043,33.203,62.500,56.641,0
1610548244.457,33.691,32.227,46.387,38.086,77.148,0
1610548244.461,-28.809,35.156,40.527,0.488,46.387,0
1610548244.465,-20.996,21.973,27.832,-12.695,31.250,0
1610548244.469,52.246,19.043,30.273,22.461,32.715,0
1610548244.473,85.449,20.996,35.156,53.223,95.215,0
1610548244.476,31.250,29.297,34.668,35.156,45.898,0
1610548244.480,-18.555,36.133,35.645,2.930,5.859,0
1610548244.484,-20.996,27.832,28.809,3.906,43.457,0
1610548244.488,29.297,19.043,26.855,34.180,67.871,0
1610548244.492,100.098,27.832,36.621,62.500,77.637,0
1610548244.494,53.223,29.297,33.691,37.598,69.336,0
1610548244.498,-41.504,20.996,30.762,-1.465,51.758,0
1610548244.502,-33.691,22.949,34.180,-2.930,-10.254,0
1610548244.506,36.133,25.879,34.180,27.832,-45.898,0
1610548244.510,79.590,21.973,33.203,52.734,10.254,0
1610548244.514,51.270,24.414,36.621,42.969,77.148,0
1610548244.518,-10.742,27.344,36.133,14.160,66.895,0
1610548244.521,-18.555,31.738,44.434,0.488,29.297,0
1610548244.525,31.250,25.879,41.504,22.461,21.484,0
1610548244.529,95.703,25.391,30.273,63.477,40.039,0
1610548244.533,94.238,38.574,31.250,57.617,12.695,0
1610548244.537,10.254,36.621,27.344,6.348,8.789,0
1610548244.539,-36.621,26.855,30.762,-13.184,34.180,0
1610548244.543,3.418,19.043,29.297,14.648,48.340,0
1610548244.547,70.801,20.508,23.926,56.152,30.762,0
1610548244.551,61.523,27.832,34.180,64.941,27.344,0
1610548244.555,-15.625,31.250,38.086,19.531,14.648,0
1610548244.559,-32.715,29.785,41.016,-9.766,-2.930,0
1610548244.563,7.324,22.461,41.992,20.508,15.137,0
1610548244.566,57.617,24.414,33.203,65.918,27.344,0
1610548244.570,77.148,34.180,26.855,64.453,61.523,0
1610548244.574,18.066,35.645,24.902,27.832,73.242,0
1610548244.578,-42.480,29.785,25.391,-17.578,-18.066,0
1610548244.582,-8.301,23.438,30.762,-8.789,-40.527,0
1610548244.584,62.012,23.438,39.062,34.668,27.832,0
1610548244.588,78.613,25.879,37.598,36.621,22.461,0
1610548244.592,9.766,25.879,35.156,13.184,-13.672,0
1610548244.596,-49.805,20.508,34.180,-8.301,-9.277,0
1610548244.600,-16.602,22.461,36.133,5.859,-14.160,0
1610548244.604,61.523,33.203,31.250,52.246,30.762,0
1610548244.608,84.961,36.133,34.668,66.895,55.664,0
1610548244.611,20.508,35.645,30.762,27.344,0.977,0
1610548244.615,-26.855,30.273,20.508,-15.137,-0.977,0
1610548244.619,-17.578,24.902,14.648,1.953,32.227,0
1610548244.623,54.199,23.438,20.508,36.133,-4.883,0
1610548244.627,96.191,29.785,36.621,56.152,54.688,0
1610548244.629,39.551,31.250,41.016,36.133,99.609,0
1610548244.633,-21.973,26.855,41.992,-5.859,29.297,0
1610548244.637,-35.645,29.297,27.832,5.859,22.949,0
1610548244.641,28.320,30.762,26.855,44.922,49.316,0
1610548244.645,79.590,25.391,37.109,50.781,83.008,0
1610548244.649,37.109,23.926,36.621,29.785,83.496,0
1610548244.653,-11.719,31.738,36.621,3.418,40.039,0
1610548244.656,-24.902,25.391,33.691,-0.977,8.789,0
1610548244.660,21.973,18.555,21.484,22.949,26.855,0
1610548244.664,88.379,20.996,17.090,41.504,68.848,0
1610548244.668,55.664,20.508,18.555,35.156,64.453,0
1610548244.672,-19.531,27.832,23.438,2.930,34.668,0
1610548244.674,-26.367,36.621,26.855,-6.836,41.016,0
1610548244.678,27.344,30.273,28.320,23.438,-9.277,0
1610548244.682,79.590,27.344,33.691,56.152,2.441,0
1610548244.686,61.035,32.227,33.203,36.133,66.895,0
1610548244.690,-15.625,20.020,25.879,-13.184,44.922,0
1610548244.694,-35.156,24.414,25.391,-12.695,12.207,0
1610548244.698,10.254,33.203,32.715,27.832,-1.465,0
1610548244.701,81.543,28.320,25.879,60.059,42.480,0
1610548244.705,75.684,30.273,19.531,47.363,15.137,0
1610548244.709,-11.230,31.738,29.297,5.371,-41.992,0
1610548244.713,-35.645,34.180,31.250,-14.160,-53.223,0
1610548244.717,17.578,41.016,26.855,24.902,10.742,0
1610548244.720,79.590,38.086,23.438,61.523,51.758,0
1610548244.724,68.359,23.438,20.508,41.016,18.066,0
1610548244.728,-3.418,18.555,31.250,0.000,62.500,0
1610548244.732,-38.574,25.391,35.645,-16.113,58.594,0
1610548244.736,-10.742,24.414,21.973,0.000,-2.441,0
1610548244.740,57.129,13.672,26.367,28.320,17.578,0
1610548244.744,75.684,21.973,27.344,48.340,10.254,0
1610548244.747,8.301,27.832,18.066,22.461,-38.086,0
1610548244.751,-41.016,23.926,34.180,-5.371,34.180,0
1610548244.755,-23.926,29.297,44.434,9.277,45.898,0
1610548244.759,58.105,33.203,43.457,41.504,-5.859,0
1610548244.763,88.867,29.785,35.645,49.316,-2.930,0
1610548244.779,21.484,30.273,30.762,25.879,13.672,0
1610548244.783,-28.809,30.273,27.344,-2.930,46.387,0
1610548244.787,-13.184,20.508,19.043,3.418,15.137,0
1610548244.791,51.758,18.555,20.508,41.992,54.199,0
1610548244.795,88.867,22.949,28.809,63.965,23.438,0
1610548244.799,23.438,30.273,27.832,37.109,-43.945,0
1610548244.803,-44.434,33.691,28.809,1.953,104.004,0
1610548244.806,-21.973,30.762,31.738,14.648,75.684,0
1610548244.810,53.711,35.156,37.109,43.945,-25.391,0
1610548244.814,86.426,30.273,41.504,38.086,-5.371,0
1610548244.818,31.738,19.531,38.086,6.348,-13.184,0
1610548244.822,-27.832,27.344,39.551,-17.090,22.949,0
1610548244.824,-37.598,26.367,32.227,-10.742,69.336,0
1610548244.828,19.043,18.555,20.020,27.344,63.965,0
1610548244.832,78.613,23.926,31.738,53.223,29.297,0
1610548244.836,41.992,28.809,36.133,25.879,58.594,0
1610548244.840,-26.367,30.762,35.156,-6.836,80.566,0
1610548244.844,-30.762,30.762,44.922,-2.441,25.391,0
1610548244.848,17.090,22.949,33.203,24.902,22.949,0
1610548244.851,71.777,19.531,22.461,48.340,24.902,0
1610548244.855,58.105,24.902,36.133,40.527,26.855,0
1610548244.859,-13.184,25.391,42.969,3.906,20.508,0
1610548244.863,-28.320,26.367,31.250,-18.066,-18.555,0
1610548244.867,16.113,25.391,26.855,15.625,38.574,0
1610548244.869,73.730,21.484,37.598,51.270,41.992,0
1610548244.873,66.895,25.391,38.574,48.340,56.641,0
1610548244.877,-9.766,30.762,29.297,16.113,78.613,0
1610548244.881,-39.062,26.855,26.855,-6.836,13.672,0
1610548244.885,15.625,19.043,32.715,20.996,-18.066,0
1610548244.889,83.008,22.949,43.457,55.664,25.391,0
1610548244.893,67.871,33.203,39.062,50.293,69.824,0
1610548244.896,-10.742,28.809,32.715,5.859,44.434,0
1610548244.900,-40.527,27.832,37.109,-16.602,49.805,0
1610548244.904,3.418,27.344,26.367,12.695,41.016,0
1610548244.908,57.129,17.578,31.250,43.457,37.598,0
1610548244.912,68.359,24.902,45.898,56.641,74.219,0
1610548244.915,7.324,35.156,36.133,31.250,62.988,0
1610548244.919,-36.621,37.598,30.762,-6.348,21.973,0
1610548244.923,-0.977,36.621,40.527,6.348,13.184,0
1610548244.927,62.500,23.438,40.039,46.387,47.852,0
1610548244.931,82.520,12.695,31.738,52.246,90.332,0
1610548244.935,19.531,21.973,26.855,5.371,77.637,0
1610548244.939,-41.992,30.762,28.320,-20.508,55.664,0
1610548244.942,-5.371,32.715,32.227,6.348,67.383,0
1610548244.946,72.754,21.973,31.250,33.691,6.836,0
1610548244.950,88.379,21.973,38.086,47.363,-27.832,0
1610548244.954,20.020,34.668,45.410,33.203,-38.574,0
1610548244.958,-34.668,30.273,37.109,5.859,-65.918,0
1610548244.960,-16.602,28.320,28.320,19.531,-8.301,0
1610548244.964,49.805,24.902,28.809,42.969,47.852,0
1610548244.968,86.914,20.020,29.297,45.410,51.270,0
1610548244.972,36.133,28.809,26.855,26.367,8.301,0
1610548244.976,-20.020,29.297,29.785,-3.906,-41.992,0
1610548244.980,-31.250,20.996,28.809,-2.441,-11.719,0
1610548244.984,36.133,22.949,21.973,35.156,49.805,0
1610548244.987,90.820,26.367,32.227,53.223,71.289,0
1610548244.991,36.133,24.902,41.016,34.180,45.410,0
1610548244.995,-26.855,24.902,38.086,-7.812,44.922,0
1610548244.999,-35.645,29.297,38.086,-14.648,69.336,0
1610548245.003,19.043,28.809,32.227,29.297,73.242,0
1610548245.005,82.520,24.414,22.461,62.500,72.266,0
1610548245.009,60.059,26.367,20.508,36.621,103.027,0
1610548245.013,-26.855,27.832,27.344,-4.883,70.312,0
1610548245.017,-45.410,24.414,28.809,-8.789,19.531,0
1610548245.021,13.184,20.508,23.438,19.043,48.828,0
1610548245.025,80.566,21.484,21.973,53.223,57.617,0
1610548245.029,62.500,26.367,19.531,40.527,20.020,0
1610548245.032,-8.301,34.180,36.133,3.906,-4.883,0
1610548245.036,-35.156,37.598,45.898,-7.812,42.480,0
1610548245.040,5.859,28.809,35.156,20.020,58.594,0
1610548245.044,76.172,19.043,30.762,48.340,20.996,0
1610548245.048,53.711,20.508,32.227,32.715,20.996,0
1610548245.049,-16.602,23.438,35.645,1.953,42.480,0
1610548245.053,-37.598,29.785,33.691,3.418,13.672,0
1610548245.057,4.883,30.273,25.391,19.531,0.488,0
1610548245.061,68.359,22.461,21.973,46.387,9.277,0
1610548245.065,70.312,20.996,25.879,55.176,84.473,0
1610548245.069,11.230,26.855,37.598,9.766,104.492,0
1610548245.073,-36.621,29.297,46.387,-19.043,20.996,0
1610548245.076,-10.254,20.996,32.227,2.441,-1.953,0
1610548245.080,57.129,19.531,28.320,42.969,26.367,0
1610548245.084,79.590,36.621,37.109,61.035,64.453,0
1610548245.088,24.902,34.668,33.691,26.367,64.453,0
1610548245.092,-40.039,22.949,27.344,-16.113,41.504,0
1610548245.094,-23.926,23.438,29.297,-5.371,37.109,0
1610548245.098,60.059,26.855,29.785,34.668,79.102,0
1610548245.102,87.891,28.320,29.785,49.805,66.895,0
1610548245.106,13.184,24.414,32.715,20.508,-6.836,0
1610548245.110,-35.156,28.320,35.645,-6.348,-27.832,0
1610548245.114,-13.184,26.855,37.109,11.230,3.418,0
1610548245.118,50.781,19.043,29.297,48.340,24.414,0
1610548245.121,91.797,26.367,25.391,65.918,43.945,0
1610548245.125,30.273,36.133,32.227,38.574,0.000,0
1610548245.129,-38.574,36.621,35.645,3.906,39.062,0
1610548245.133,-19.043,29.297,28.809,12.207,58.594,0
1610548245.137,46.875,22.949,28.320,43.457,0.000,0
1610548245.154,95.215,23.438,27.344,57.617,20.996,0
1610548245.158,41.016,26.855,26.855,27.344,19.043,0
1610548245.162,-37.598,31.738,41.504,-9.766,56.641,0
1610548245.166,-30.273,31.250,40.527,0.488,9.277,0
1610548245.170,41.504,21.973,27.832,37.598,-9.766,0
1610548245.174,91.797,16.602,31.738,55.664,123.047,0
1610548245.178,53.711,28.809,37.598,35.156,135.254,0
1610548245.181,-14.648,37.109,39.062,0.000,18.555,0
1610548245.185,-25.391,26.855,34.668,-11.719,20.020,0
1610548245.189,29.297,21.484,30.273,15.625,58.594,0
1610548245.193,86.426,18.555,25.879,41.504,31.250,0
1610548245.197,45.898,19.043,22.949,32.227,75.684,0
1610548245.199,-33.203,20.996,23.438,-1.953,49.805,0
1610548245.203,-37.598,27.832,32.715,-11.719,45.898,0
1610548245.207,10.742,29.297,29.785,19.531,55.176,0
1610548245.211,74.219,20.020,20.020,60.059,7.324,0
1610548245.215,65.430,18.555,30.762,52.734,-6.836,0
1610548245.219,-4.395,26.367,41.504,9.766,-37.598,0
1610548245.223,-30.762,27.344,41.992,6.348,-7.324,0
1610548245.226,1.465,19.043,32.227,13.672,-2.441,0
1610548245.230,67.383,15.625,26.367,41.504,-10.254,0
1610548245.234,66.406,20.508,31.250,41.504,14.648,0
1610548245.238,-8.301,25.879,32.227,-2.441,28.320,0
1610548245.242,-41.992,25.391,27.832,-13.672,26.367,0
1610548245.245,-9.277,21.973,25.879,3.418,36.133,0
1610548245.249,65.918,28.320,28.320,55.176,46.875,0
1610548245.253,78.613,33.203,20.996,59.082,54.199,0
1610548245.257,-3.906,27.344,22.461,4.395,57.617,0
1610548245.261,-49.316,26.855,39.551,-17.578,23.438,0
1610548245.265,-10.742,27.344,43.945,-0.488,-16.113,0
1610548245.269,61.035,26.367,31.250,37.598,-0.488,0
1610548245.272,82.520,24.902,17.578,52.734,36.133,0
1610548245.276,29.297,30.273,22.949,27.344,23.926,0
1610548245.280,-24.414,32.227,31.250,-5.859,6.348,0
1610548245.284,-15.625,27.344,37.109,0.977,47.852,0
1610548245.288,48.340,26.367,33.691,35.156,79.102,0
1610548245.290,67.383,27.344,32.227,47.363,38.574,0
1610548245.294,15.137,27.344,35.156,20.020,-1.953,0
1610548245.298,-39.551,31.738,26.367,-13.672,-9.277,0
1610548245.302,-26.855,32.715,18.555,9.277,32.227,0
1610548245.306,44.922,28.809,23.926,44.922,27.344,0
1610548245.310,79.590,22.461,39.062,41.016,35.645,0
1610548245.314,30.273,21.973,41.504,19.043,77.637,0
1610548245.317,-32.715,27.344,41.992,-17.090,7.812,0
1610548245.321,-30.273,29.297,42.969,-16.113,-17.578,0
1610548245.325,29.297,25.391,37.598,28.809,50.293,0
1610548245.329,86.426,28.809,41.992,61.035,33.691,0
1610548245.333,41.992,35.645,41.504,37.598,-0.977,0
1610548245.335,-38.574,30.273,29.297,-18.555,23.438,0
1610548245.339,-39.551,27.344,31.250,-13.184,22.461,0
1610548245.343,37.109,24.902,33.691,26.367,11.230,0
1610548245.347,103.027,17.578,18.555,51.758,2.441,0
1610548245.351,53.223,17.090,18.555,37.109,26.855,0
1610548245.355,-29.297,20.996,33.203,-3.418,7.324,0
1610548245.359,-38.086,23.438,33.691,-10.254,3.418,0
1610548245.362,20.996,23.438,26.855,35.156,16.113,0
1610548245.366,82.520,14.648,21.484,70.801,23.438,0
1610548245.370,60.059,17.090,25.879,43.945,51.270,0
1610548245.374,-20.020,22.461,37.109,0.000,20.508,0
1610548245.378,-46.875,30.762,47.363,2.441,17.090,0
1610548245.379,17.578,39.062,44.922,26.855,-5.371,0
1610548245.383,86.914,26.855,26.855,45.410,-12.695,0
1610548245.387,65.430,22.949,19.043,39.551,36.133,0
1610548245.391,-4.395,32.715,26.367,5.859,72.754,0
1610548245.395,-40.039,29.785,29.785,-14.160,61.523,0
1610548245.399,-0.488,17.578,26.855,7.812,54.688,0
1610548245.403,63.477,21.973,30.273,49.805,12.207,0
1610548245.406,67.383,31.738,34.668,53.711,29.785,0
1610548245.410,2.441,33.691,36.621,16.602,103.027,0
1610548245.414,-45.410,31.250,36.621,-13.184,92.773,0
1610548245.418,2.930,31.738,34.668,3.418,42.969,0
1610548245.422,76.172,38.574,39.551,45.898,57.617,0
1610548245.424,79.102,36.621,38.086,57.617,54.688,0
1610548245.428,19.043,27.832,34.668,18.555,32.227,0
1610548245.432,-41.992,24.902,33.203,-15.625,26.855,0
1610548245.436,-30.273,25.391,33.691,0.000,23.438,0
1610548245.440,34.180,20.996,31.250,20.508,39.551,0
1610548245.444,54.199,23.438,31.250,26.855,41.504,0
1610548245.448,-13.672,33.203,43.457,7.324,5.371,0
1610548245.451,-77.148,29.785,41.504,-37.598,13.672,0
1610548245.455,-58.594,27.832,37.109,-35.645,24.902,0
1610548245.459,0.488,27.832,33.203,-1.953,20.508,0
1610548245.463,27.344,28.320,24.902,0.977,40.527,0
1610548245.467,-35.156,31.738,17.090,-33.203,37.598,0
1610548245.470,-123.535,29.785,21.973,-72.266,46.387,0
1610548245.474,-129.395,28.809,23.926,-88.867,37.109,0
1610548245.478,-56.641,29.297,15.625,-63.477,45.410,0
1610548245.482,-23.438,29.785,15.625,-45.410,62.500,0
1610548245.486,-72.754,33.691,21.973,-79.102,89.844,0
1610548245.490,-132.812,41.016,20.508,-105.957,133.301,0
1610548245.494,-140.625,35.645,11.719,-117.188,64.941,0
1610548245.497,-78.613,24.902,4.883,-89.844,5.859,0
1610548245.501,-19.043,27.832,13.184,-54.199,36.621,0
1610548245.505,-63.477,31.250,26.367,-71.777,80.078,0
1610548245.509,-122.559,24.902,25.391,-103.027,54.199,0
1610548245.513,-119.629,18.555,17.090,-101.562,44.922,0
1610548245.529,-58.594,22.949,12.207,-53.711,41.016,0
1610548245.533,2.930,22.949,23.438,-8.301,36.133,0
1610548245.537,-12.207,21.973,33.691,-18.555,28.809,0
1610548245.541,-69.824,26.367,34.668,-56.152,20.508,0
1610548245.545,-83.984,31.250,29.297,-57.129,54.688,0
1610548245.549,-23.926,34.180,31.250,-13.184,62.500,0
1610548245.553,41.504,22.949,31.738,16.113,22.949,0
1610548245.556,25.879,14.160,24.414,8.301,13.184,0
1610548245.560,-40.527,16.602,25.879,-13.672,6.348,0
1610548245.564,-65.430,18.066,28.809,-20.020,-58.594,0
1610548245.568,-13.184,18.555,26.367,7.812,-64.941,0
1610548245.572,60.059,20.996,19.043,38.574,-30.762,0
1610548245.574,63.965,27.344,25.879,43.945,-14.648,0
1610548245.578,-1.465,26.367,36.133,14.648,12.207,0
1610548245.582,-47.363,24.414,23.926,-9.277,3.418,0
1610548245.586,-9.766,28.320,25.391,15.625,-3.906,0
1610548245.590,83.008,22.461,32.715,47.852,0.977,0
1610548245.594,103.027,19.043,29.297,57.617,33.203,0
1610548245.598,22.461,22.461,31.738,31.250,78.125,0
1610548245.601,-20.996,25.879,34.180,5.371,6.836,0
1610548245.605,12.695,28.809,36.621,26.367,-54.688,0
1610548245.609,89.355,27.832,24.902,61.523,29.297,0
1610548245.613,114.746,32.227,14.160,75.195,47.363,0
1610548245.617,53.223,35.156,29.785,51.758,25.391,0
1610548245.619,13.672,35.645,48.340,40.527,54.199,0
1610548245.623,36.621,39.062,36.133,51.758,64.453,0
1610548245.627,82.031,40.527,10.254,81.055,7.324,0
1610548245.631,113.770,32.715,15.625,87.891,29.785,0
1610548245.635,62.012,24.414,36.133,46.875,102.539,0
1610548245.639,-10.742,27.832,45.898,19.043,31.250,0
1610548245.643,6.836,26.855,41.504,27.344,-25.879,0
1610548245.646,77.148,25.391,38.574,70.312,19.531,0
1610548245.650,122.559,25.879,39.551,90.820,53.711,0
1610548245.654,76.172,26.367,36.621,73.730,50.293,0
1610548245.658,16.602,35.156,37.109,54.199,6.348,0
1610548245.662,18.066,37.598,33.691,56.641,20.996,0
1610548245.664,76.172,25.391,25.391,76.172,68.848,0
1610548245.668,125.488,21.973,24.902,81.543,35.156,0
1610548245.672,92.285,27.344,26.367,69.336,12.207,0
1610548245.676,29.297,26.855,30.762,40.039,16.113,0
1610548245.680,4.395,26.367,33.203,33.203,9.277,0
1610548245.684,59.082,24.414,31.250,59.570,-70.312,0
1610548245.688,129.395,20.996,20.996,82.031,-41.992,0
1610548245.691,89.355,23.438,12.207,65.918,43.945,0
1610548245.695,6.348,26.367,27.344,21.484,40.039,0
1610548245.699,-16.113,22.949,36.133,7.812,65.918,0
1610548245.703,35.645,20.508,26.367,45.410,34.668,0
1610548245.707,100.098,17.578,26.855,76.660,30.762,0
1610548245.710,81.543,17.090,35.645,63.477,71.289,0
1610548245.714,9.766,24.414,25.391,41.016,45.898,0
1610548245.718,-14.648,26.855,26.855,14.160,21.484,0
1610548245.722,33.203,22.949,39.551,38.086,8.789,0
1610548245.726,101.074,21.973,38.086,83.984,17.578,0
1610548245.730,92.285,21.973,25.391,59.082,48.340,0
1610548245.734,22.461,23.926,27.832,15.137,34.180,0
1610548245.737,-18.555,21.484,41.016,-0.488,23.926,0
1610548245.741,9.766,20.996,31.250,18.555,-0.488,0
1610548245.745,75.195,24.902,21.973,58.105,6.348,0
1610548245.749,90.332,27.344,28.809,78.125,82.031,0
1610548245.753,25.879,28.320,35.156,46.387,56.641,0
1610548245.754,-22.461,25.879,35.156,5.371,47.852,0
1610548245.758,4.395,19.043,31.738,17.578,62.012,0
1610548245.762,85.938,26.855,38.086,60.547,54.688,0
1610548245.766,101.074,37.598,46.387,74.219,-7.812,0
1610548245.770,20.020,30.273,41.992,33.203,-48.828,0
1610548245.774,-24.902,30.273,45.898,6.348,-53.711,0
1610548245.778,-10.254,29.785,36.133,27.344,-30.762,0
1610548245.781,59.570,20.996,27.344,57.617,32.715,0
1610548245.785,100.586,22.949,27.832,72.754,83.496,0
1610548245.789,30.273,28.320,12.207,45.898,84.473,0
1610548245.793,-26.855,27.344,18.066,16.602,72.266,0
1610548245.797,0.977,33.203,35.156,11.230,101.074,0
1610548245.799,61.035,32.227,43.945,31.250,68.848,0
1610548245.803,91.309,20.508,50.293,55.664,44.922,0
1610548245.807,33.691,16.602,41.992,26.367,105.469,0
1610548245.811,-30.762,23.926,36.133,-7.812,20.996,0
1610548245.815,-19.531,28.320,34.668,-5.859,-9.277,0
1610548245.819,52.734,30.273,36.621,28.809,77.148,0
1610548245.823,99.121,26.367,37.109,58.594,59.082,0
1610548245.826,60.547,29.297,35.156,54.199,60.547,0
1610548245.830,-8.789,35.156,32.715,20.508,34.668,0
1610548245.834,-43.945,28.320,27.832,1.465,8.301,0
1610548245.838,13.672,26.855,25.879,39.551,111.328,0
1610548245.842,92.773,26.855,20.508,66.895,90.820,0
1610548245.844,68.848,31.738,18.555,46.875,14.160,0
1610548245.848,-16.602,23.926,30.273,2.930,57.129,0
1610548245.852,-35.156,18.555,36.621,-8.789,100.586,0
1610548245.856,25.391,24.414,40.039,17.578,96.191,0
1610548245.860,88.867,26.855,46.387,52.734,17.090,0
1610548245.864,59.082,29.785,47.363,55.664,-10.742,0
1610548245.868,-16.113,34.668,49.805,22.461,39.062,0
1610548245.871,-29.785,30.273,43.457,11.230,62.988,0
1610548245.875,14.160,18.555,31.250,36.133,26.367,0
1610548245.879,84.961,24.414,31.250,62.012,31.250,0
1610548245.883,77.637,35.156,31.738,61.523,50.293,0
1610548245.887,2.441,31.250,35.645,25.879,8.301,0
1610548245.904,-44.434,21.973,28.809,-9.277,27.344,0
1610548245.908,-1.953,16.602,15.625,12.207,33.691,0
1610548245.912,71.289,23.438,32.715,59.570,42.969,0
1610548245.916,72.266,28.809,45.898,66.406,33.691,0
1610548245.920,14.648,33.203,49.805,35.645,4.395,0
1610548245.924,-15.137,40.039,49.805,21.484,52.734,0
1610548245.928,10.254,22.461,33.691,23.438,88.379,0
1610548245.931,70.801,14.648,27.832,42.969,107.910,0
1610548245.935,84.961,23.438,34.668,60.547,41.016,0
1610548245.939,10.742,25.879,40.527,26.855,-16.113,0
1610548245.943,-29.785,27.832,39.551,-12.695,-45.410,0
1610548245.947,-3.906,26.367,29.297,1.953,-21.484,0
1610548245.949,67.383,25.391,24.902,43.457,52.246,0
1610548245.953,96.191,24.414,26.855,57.617,122.070,0
1610548245.957,22.461,16.602,22.949,31.738,54.688,0
1610548245.961,-43.945,15.625,31.738,1.953,-10.254,0
1610548245.965,-14.160,19.531,38.574,12.695,32.227,0
1610548245.969,70.312,23.926,31.738,53.711,16.113,0
1610548245.973,97.656,26.367,21.973,62.500,20.020,0
1610548245.976,45.410,31.738,25.879,31.738,26.855,0
1610548245.980,-28.320,29.785,36.133,-1.465,2.930,0
1610548245.984,-29.297,19.531,27.344,9.277,32.227,0
1610548245.988,60.547,23.438,27.832,40.527,7.812,0
1610548245.992,91.309,26.855,31.250,50.293,-16.602,0
1610548245.994,37.109,21.973,21.973,32.227,1.465,0
1610548245.998,-14.160,20.020,25.879,-3.418,-14.160,0
1610548246.002,-32.227,18.555,36.133,-9.766,20.508,0
1610548246.006,29.785,15.625,33.203,24.414,20.508,0
1610548246.010,85.449,18.555,22.949,45.898,39.062,0
1610548246.014,49.316,24.902,34.180,32.227,83.496,0
1610548246.018,-26.855,24.414,36.621,-0.977,24.414,0
1610548246.021,-27.832,24.902,28.320,4.395,49.805,0
1610548246.025,37.109,20.508,27.832,34.668,61.523,0
1610548246.029,97.656,21.973,31.250,54.199,1.953,0
1610548246.033,82.520,29.785,40.039,60.059,30.273,0
1610548246.037,-4.883,23.926,36.621,15.137,28.809,0
1610548246.040,-34.180,21.973,22.461,-11.719,-38.574,0
1610548246.044,21.973,24.902,22.461,17.090,-14.648,0
1610548246.048,93.750,22.949,22.949,61.035,-6.348,0
1610548246.052,76.660,24.414,17.578,49.805,18.555,0
1610548246.056,3.906,30.762,28.809,7.324,39.062,0
1610548246.060,-22.461,33.203,37.109,-6.348,5.859,0
1610548246.064,15.625,25.879,35.645,12.207,-29.785,0
1610548246.067,91.309,26.855,40.527,50.293,31.738,0
1610548246.071,100.586,31.250,43.457,63.477,91.309,0
1610548246.075,11.719,25.391,38.086,35.645,12.207,0
1610548246.079,-37.598,27.832,23.926,-2.930,-26.367,0
1610548246.083,0.488,30.762,7.812,12.695,-35.645,0
1610548246.085,74.219,23.438,7.324,58.105,41.504,0
1610548246.089,83.984,23.926,22.949,52.246,52.734,0
1610548246.093,7.812,29.297,38.086,11.719,21.484,0
1610548246.097,-40.527,28.320,35.156,-12.207,8.789,0
1610548246.101,-9.766,22.949,27.344,2.441,-13.672,0
1610548246.105,53.711,21.973,34.180,51.270,-52.734,0
1610548246.109,83.008,26.855,39.062,82.031,18.066,0
1610548246.112,20.996,26.855,29.785,40.039,111.328,0
1610548246.116,-42.969,20.996,26.855,-18.555,22.949,0
1610548246.120,-14.160,17.090,32.227,-7.812,-42.969,0
1610548246.124,51.270,18.555,32.227,33.691,-11.230,0
1610548246.128,83.008,19.043,31.738,46.387,1.465,0
1610548246.130,21.484,20.508,29.785,23.926,47.852,0
1610548246.134,-40.527,20.020,25.879,-10.254,27.832,0
1610548246.138,-16.113,23.438,20.508,5.859,15.137,0
1610548246.142,62.988,31.250,24.414,52.734,124.023,0
1610548246.146,91.797,23.926,24.414,54.688,148.926,0
1610548246.150,31.738,21.484,25.391,29.297,53.223,0
1610548246.154,-28.320,26.367,39.551,2.930,12.207,0
1610548246.157,-26.855,21.973,43.457,-9.277,67.383,0
1610548246.161,36.621,19.531,30.273,17.578,63.477,0
1610548246.165,80.078,17.090,21.973,47.852,61.035,0
1610548246.169,41.504,22.949,28.320,42.969,79.102,0
1610548246.173,-21.484,25.391,26.855,11.719,15.625,0
1610548246.175,-24.414,28.809,20.996,20.508,60.059,0
1610548246.179,39.062,36.133,20.020,50.293,113.770,0
1610548246.183,86.914,27.344,20.508,40.527,86.914,0
1610548246.187,47.363,19.531,35.156,23.438,67.871,0
1610548246.191,-27.344,24.414,42.969,-5.859,73.242,0
1610548246.195,-39.062,25.879,34.668,-9.277,83.496,0
1610548246.199,3.906,18.555,22.949,21.973,54.199,0
1610548246.202,74.219,24.414,16.113,49.316,28.809,0
1610548246.206,64.941,32.227,18.066,40.039,25.391,0
1610548246.210,-2.930,38.086,38.574,15.137,-9.766,0
1610548246.214,-20.508,40.039,45.898,10.254,-34.668,0
1610548246.218,19.531,29.785,30.273,27.832,-4.883,0
1610548246.219,85.938,26.855,18.555,62.988,30.762,0
1610548246.223,87.402,30.273,20.020,73.730,32.715,0
1610548246.227,16.113,35.156,28.320,40.527,10.742,0
1610548246.231,-29.297,33.203,28.809,-5.371,57.129,0
1610548246.235,7.324,24.414,28.809,5.371,63.477,0
1610548246.239,78.125,25.879,31.250,52.734,20.996,0
1610548246.243,80.566,30.762,33.203,55.664,28.320,0
1610548246.246,5.859,22.461,28.320,15.625,14.648,0
1610548246.250,-39.551,21.484,27.832,-12.207,-2.930,0
1610548246.254,-4.883,28.809,27.832,-1.465,42.480,0
1610548246.258,68.848,24.414,26.855,38.086,53.223,0
1610548246.262,85.449,25.879,28.809,54.688,29.297,0
1610548246.280,18.555,30.762,36.621,23.926,21.973,0
1610548246.284,-25.879,30.273,42.480,6.836,63.965,0
1610548246.288,-3.906,28.320,21.973,27.832,50.781,0
1610548246.292,66.895,25.879,3.906,41.504,47.852,0
1610548246.296,82.520,16.602,18.555,40.527,26.367,0
1610548246.300,18.555,20.996,35.645,20.996,-33.203,0
1610548246.304,-36.621,29.297,41.016,-13.184,41.504,0
1610548246.307,-40.039,22.461,40.527,-15.625,81.055,0
1610548246.311,36.133,25.391,37.109,27.344,31.250,0
1610548246.315,86.426,26.855,26.855,43.945,29.785,0
1610548246.319,31.738,21.484,21.973,15.137,16.602,0
1610548246.323,-29.785,26.367,25.391,-15.625,-0.488,0
1610548246.324,-22.461,28.809,33.203,4.395,28.809,0
1610548246.328,41.504,20.996,31.250,37.598,21.973,0
1610548246.332,91.309,23.438,16.602,50.293,24.414,0
1610548246.336,35.645,27.832,12.207,36.133,-1.953,0
1610548246.340,-29.297,26.855,30.762,9.766,-5.859,0
1610548246.344,-18.555,20.996,24.414,-0.488,-28.320,0
1610548246.348,36.621,20.996,12.695,28.320,9.277,0
1610548246.351,84.473,22.949,33.691,43.457,70.312,0
1610548246.355,46.387,22.949,31.250,24.902,39.062,0
1610548246.359,-14.160,27.832,29.785,-3.418,8.789,0
1610548246.363,-25.879,30.762,39.551,-19.043,28.320,0
1610548246.367,13.672,29.297,27.832,16.113,7.812,0
1610548246.369,77.148,28.809,20.020,44.434,16.602,0
1610548246.373,62.012,31.738,29.297,36.133,92.285,0
1610548246.377,-15.137,22.949,28.809,4.883,50.293,0
1610548246.381,-37.109,16.113,20.508,-4.395,0.000,0
1610548246.385,5.371,20.508,25.391,21.484,54.199,0
1610548246.389,72.754,29.297,35.645,47.852,94.238,0
1610548246.393,68.359,32.715,37.109,43.945,49.316,0
1610548246.396,-18.066,29.785,32.227,2.441,55.176,0
1610548246.400,-55.176,32.227,31.250,-12.695,72.266,0
1610548246.404,3.418,33.203,30.273,25.879,49.805,0
1610548246.408,69.336,25.879,24.414,48.828,24.414,0
1610548246.412,61.035,17.090,18.555,37.109,39.062,0
1610548246.414,-11.230,20.020,28.809,13.672,7.324,0
1610548246.418,-41.504,26.855,31.738,-6.836,-61.035,0
1610548246.422,-1.953,31.738,19.043,9.277,-20.020,0
1610548246.426,64.941,29.297,22.949,40.527,48.828,0
1610548246.430,83.496,27.344,31.738,49.805,48.828,0
1610548246.434,20.020,35.156,28.809,27.832,39.551,0
1610548246.438,-28.320,37.109,24.902,5.859,12.207,0
1610548246.441,-10.254,38.086,32.227,15.625,12.207,0
1610548246.445,54.688,32.227,35.156,30.762,72.754,0
1610548246.449,88.379,29.297,22.949,33.691,47.363,0
1610548246.453,21.484,32.715,20.508,12.695,-25.391,0
1610548246.457,-34.180,24.414,31.738,-21.973,5.371,0
1610548246.459,-5.859,24.902,32.715,-1.953,-0.488,0
1610548246.463,55.664,29.297,14.648,49.316,-7.324,0
1610548246.467,82.031,27.832,11.719,71.289,-10.254,0
1610548246.471,25.879,30.762,34.180,38.086,4.883,0
1610548246.475,-30.762,29.297,45.410,1.465,34.180,0
1610548246.479,-28.809,23.926,35.645,-0.488,5.859,0
1610548246.483,27.344,24.902,30.273,27.832,3.906,0
1610548246.486,86.914,27.832,31.738,63.965,71.777,0
1610548246.490,41.992,30.762,28.320,37.109,37.598,0
1610548246.494,-33.691,36.133,39.551,-2.930,-16.113,0
1610548246.498,-20.020,40.039,45.898,4.395,43.945,0
1610548246.502,36.133,29.785,27.832,31.738,78.125,0
1610548246.504,75.684,23.438,10.254,52.734,59.570,0
1610548246.508,38.574,26.367,22.949,32.227,37.109,0
1610548246.512,-42.480,20.996,37.598,-13.672,8.301,0
1610548246.516,-54.688,16.113,33.203,-25.879,-48.340,0
1610548246.520,26.855,21.973,37.109,17.090,-30.762,0
1610548246.524,90.820,28.809,41.992,67.383,14.160,0
1610548246.528,49.316,31.250,32.715,50.781,12.695,0
1610548246.531,-18.555,35.156,23.926,3.906,9.277,0
1610548246.535,-27.344,32.227,20.996,-9.766,12.695,0
1610548246.539,33.203,35.156,23.926,25.879,4.883,0
1610548246.543,90.820,39.062,41.016,53.223,-12.207,0
1610548246.547,57.617,32.715,38.574,36.621,-11.719,0
1610548246.549,-16.602,30.762,18.066,-6.348,2.441,0
1610548246.553,-40.039,32.227,19.043,-20.996,51.270,0
1610548246.557,-0.977,30.273,27.832,18.555,47.852,0
1610548246.561,70.801,30.273,28.809,57.129,47.363,0
1610548246.565,74.219,31.250,31.738,54.688,48.340,0
1610548246.569,-10.742,30.273,28.320,13.184,33.203,0
1610548246.573,-34.668,29.785,30.762,-21.973,10.254,0
1610548246.576,14.648,30.273,38.574,3.418,37.598,0
1610548246.580,78.613,31.250,35.645,47.852,76.172,0
1610548246.584,74.219,32.227,30.273,45.410,76.660,0
1610548246.588,7.812,36.621,23.926,14.648,37.598,0
1610548246.592,-31.738,38.574,30.273,-3.418,-14.648,0
1610548246.594,-4.395,31.738,41.504,9.277,23.926,0
1610548246.598,61.523,22.461,26.367,42.969,87.891,0
1610548246.602,83.984,27.832,9.766,51.758,38.086,0
1610548246.606,13.672,41.992,18.066,34.180,-14.160,0
1610548246.610,-46.387,36.133,31.738,-0.977,-2.441,0
1610548246.614,-11.719,27.832,31.738,0.977,18.066,0
1610548246.618,74.219,26.367,27.832,42.969,56.641,0
1610548246.621,92.285,23.926,26.367,60.059,85.449,0
1610548246.625,19.531,28.320,30.273,29.297,54.688,0
1610548246.629,-31.738,34.180,34.180,3.418,6.836,0
1610548246.633,-12.207,39.551,34.180,11.719,23.438,0
1610548246.637,53.711,34.180,33.203,41.016,5.859,0
1610548246.640,83.008,26.367,38.086,68.848,-50.781,0
1610548246.644,33.691,32.227,38.574,46.387,21.973,0
1610548246.648,-24.414,38.086,34.668,-0.977,92.285,0
1610548246.652,-22.949,34.180,34.180,-0.977,45.898,0
1610548246.656,44.434,19.043,30.273,29.297,7.324,0
1610548246.660,97.168,16.113,30.762,49.316,20.020,0
1610548246.664,53.711,22.949,28.809,33.691,50.293,0
1610548246.667,-20.020,31.250,29.785,0.977,-9.277,0
1610548246.671,-25.879,36.621,30.762,0.000,-20.996,0
1610548246.675,24.902,24.902,20.996,16.113,23.926,0
1610548246.679,75.195,22.461,23.926,42.969,55.176,0
1610548246.683,52.246,27.832,20.020,35.645,31.738,0
1610548246.700,-12.207,34.180,34.180,0.000,-12.695,0
1610548246.704,-28.320,36.133,45.898,-6.836,64.453,0
1610548246.708,29.297,24.414,29.297,20.996,49.805,0
1610548246.712,75.684,19.531,33.203,52.734,-21.973,0
1610548246.716,48.340,20.020,27.832,43.457,36.133,0
1610548246.720,-14.648,22.949,17.578,1.953,53.223,0
1610548246.724,-40.039,24.414,27.344,-15.625,0.488,0
1610548246.727,13.184,25.391,31.738,27.832,5.859,0
1610548246.731,80.566,31.250,25.391,63.965,36.133,0
1610548246.735,58.594,28.320,20.508,40.039,60.547,0
1610548246.739,-4.395,37.598,26.855,0.977,81.055,0
1610548246.743,-32.715,40.039,35.156,-16.602,18.555,0
1610548246.744,-15.625,22.461,24.414,4.395,-9.277,0
1610548246.748,55.664,17.578,24.414,44.434,58.105,0
1610548246.752,72.266,18.066,21.484,48.828,88.379,0
1610548246.756,2.930,24.902,18.555,12.207,73.730,0
1610548246.760,-37.109,33.203,37.598,-2.930,0.000,0
1610548246.764,-7.812,29.785,37.109,12.695,-47.363,0
1610548246.768,56.641,24.902,32.715,41.504,2.930,0
1610548246.771,75.684,23.926,39.551,56.641,-6.348,0
1610548246.775,14.648,23.926,33.203,18.066,35.156,0
1610548246.779,-43.945,32.715,28.320,-16.113,43.945,0
1610548246.783,-17.090,32.715,22.949,9.277,-24.414,0
1610548246.787,56.152,26.855,15.625,49.316,54.199,0
1610548246.789,80.078,26.855,21.973,52.246,94.727,0
1610548246.793,15.625,29.297,37.109,21.484,9.277,0
1610548246.797,-44.922,31.738,38.574,-10.254,3.906,0
1610548246.801,-18.555,35.645,35.645,5.859,38.086,0
1610548246.805,56.641,35.156,41.504,47.363,-8.789,0
1610548246.809,82.520,21.484,29.785,45.898,-16.602,0
1610548246.813,13.672,15.137,19.531,16.602,15.137,0
1610548246.816,-39.062,18.555,28.320,-7.324,39.551,0
1610548246.820,-31.738,23.438,30.762,2.930,63.477,0
1610548246.824,38.574,31.250,29.785,44.922,7.812,0
1610548246.828,93.262,28.320,29.785,53.711,-22.461,0
1610548246.832,38.574,26.855,20.508,29.297,14.648,0
1610548246.834,-33.203,31.250,32.227,2.441,43.457,0
1610548246.838,-29.297,28.809,49.805,2.930,31.250,0
1610548246.842,39.062,25.879,39.062,29.297,17.090,0
1610548246.846,78.613,21.484,25.391,50.293,15.137,0
1610548246.850,42.480,24.902,26.367,45.410,104.004,0
1610548246.854,-19.531,26.855,24.414,5.371,121.582,0
1610548246.858,-31.250,24.902,25.391,-10.254,-8.301,0
1610548246.861,21.973,21.973,27.344,24.414,-13.672,0
1610548246.865,81.055,20.508,25.391,48.828,98.145,0
1610548246.869,59.082,26.367,32.715,37.598,131.348,0
1610548246.873,-9.766,38.574,46.875,18.066,70.801,0
1610548246.877,-28.320,39.551,38.574,-2.930,56.641,0
1610548246.880,2.930,18.066,20.996,4.395,35.645,0
1610548246.884,72.754,15.625,28.320,41.992,-14.160,0
1610548246.888,71.289,20.996,33.691,51.758,-21.484,0
1610548246.892,-22.949,21.973,30.762,6.348,-19.043,0
1610548246.896,-45.898,26.855,28.320,-14.160,39.551,0
1610548246.900,4.395,24.902,24.902,13.184,66.895,0
1610548246.904,62.012,24.414,28.320,44.434,69.824,0
1610548246.907,69.336,25.879,29.785,47.852,67.383,0
1610548246.911,0.977,29.785,28.809,6.348,71.777,0
1610548246.915,-32.715,33.203,18.555,-13.184,34.180,0
1610548246.919,-5.859,21.973,17.090,13.672,-3.906,0
1610548246.923,62.500,18.066,17.090,37.109,16.602,0
1610548246.926,78.613,26.855,19.043,44.434,52.246,0
1610548246.930,8.789,33.691,41.504,20.508,68.359,0
1610548246.934,-34.668,26.367,40.527,-18.066,13.672,0
1610548246.938,-7.812,17.578,28.809,0.000,8.301,0
1610548246.942,59.082,20.020,26.855,45.898,81.055,0
1610548246.946,79.590,26.855,28.809,50.293,45.898,0
1610548246.950,26.367,34.180,33.203,23.926,5.859,0
1610548246.953,-30.762,39.551,37.598,-2.930,0.000,0
1610548246.957,-22.949,29.297,27.344,-12.207,-7.324,0
1610548246.961,41.504,20.020,11.719,29.297,45.898,0
1610548246.965,83.008,28.809,19.043,66.406,48.828,0
1610548246.969,34.180,28.320,29.785,21.973,-23.438,0
1610548246.969,-33.203,20.508,29.785,-23.926,-1.465,0
1610548246.973,-22.461,20.508,23.926,-14.160,67.383,0
1610548246.977,43.457,26.367,24.902,20.996,36.621,0
1610548246.981,87.891,26.855,31.250,49.805,76.660,0
1610548246.985,33.691,23.438,37.109,27.344,75.195,0
1610548246.989,-41.016,23.926,40.039,-12.695,35.156,0
1610548246.993,-26.367,27.344,31.250,-1.465,64.453,0
1610548246.996,43.457,32.227,31.250,51.270,-11.230,0
1610548247.000,78.125,25.391,33.203,64.941,-24.414,0
1610548247.004,36.621,21.973,22.461,27.344,-3.906,0
1610548247.008,-33.203,26.855,33.691,-2.930,-53.223,0
1610548247.012,-46.387,20.996,37.109,-18.555,-35.156,0
1610548247.029,23.438,26.367,28.320,13.184,12.207,0
1610548247.033,84.473,30.762,23.438,62.012,73.242,0
1610548247.037,57.617,36.133,18.066,43.457,61.035,0
1610548247.041,-18.555,35.156,23.926,-5.859,-14.160,0
1610548247.045,-56.152,24.902,30.762,-12.207,-7.324,0
1610548247.049,4.395,20.508,22.949,25.879,33.203,0
1610548247.053,86.914,22.949,27.344,58.594,89.355,0
1610548247.056,57.129,28.809,35.645,41.016,123.535,0
1610548247.060,-17.090,28.320,34.668,6.348,78.613,0
1610548247.064,-25.879,30.273,34.668,-3.906,47.363,0
1610548247.068,13.184,29.785,35.645,23.926,34.668,0
1610548247.072,77.637,30.762,30.273,50.781,80.078,0
1610548247.074,98.633,42.480,27.832,56.152,96.680,0
1610548247.078,21.484,40.039,31.250,26.367,24.414,0
1610548247.082,-39.551,26.367,21.484,-13.672,1.465,0
1610548247.086,5.859,24.414,23.926,11.719,-3.418,0
1610548247.090,66.406,22.949,31.738,51.758,23.926,0
1610548247.094,62.988,21.973,39.062,58.594,64.453,0
1610548247.098,-0.488,26.367,41.504,21.973,40.039,0
1610548247.101,-40.039,29.785,35.645,-6.836,-4.395,0
1610548247.105,-5.859,34.180,33.691,17.090,-13.672,0
1610548247.109,62.012,31.738,28.809,47.363,25.391,0
1610548247.113,69.336,21.973,32.715,42.480,80.566,0
1610548247.117,5.371,20.020,38.086,5.859,55.176,0
1610548247.119,-35.156,31.250,31.738,-5.371,53.711,0
1610548247.123,-7.812,34.668,27.344,24.902,96.191,0
1610548247.127,58.594,26.855,29.785,49.316,37.109,0
1610548247.131,84.961,27.832,30.273,54.688,40.039,0
1610548247.135,20.508,26.367,29.785,28.320,49.805,0
1610548247.139,-34.180,25.391,34.668,-4.883,0.000,0
1610548247.143,-11.719,32.715,24.902,2.930,17.090,0
1610548247.146,42.969,31.738,17.578,42.480,87.891,0
1610548247.150,86.914,32.227,30.273,61.035,50.781,0
1610548247.154,44.434,32.715,22.461,25.879,-22.949,0
1610548247.158,-38.086,28.809,23.926,-12.695,-29.297,0
1610548247.162,-34.668,30.762,40.527,-5.859,-17.578,0
1610548247.179,33.691,27.832,37.598,49.316,15.625,0
1610548247.183,72.266,21.973,22.461,64.453,-28.809,0
1610548247.187,31.250,22.461,24.902,15.625,-6.348,0
1610548247.191,-30.273,23.926,28.809,-24.902,15.137,0
1610548247.195,-33.691,29.297,29.785,-21.484,-2.441,0
1610548247.199,26.855,32.715,37.109,21.973,28.320,0
1610548247.203,73.730,24.902,37.598,33.691,79.102,0
1610548247.206,33.691,29.785,37.109,23.438,35.156,0
1610548247.210,-39.551,31.250,30.762,-8.301,36.621,0
1610548247.214,-47.852,25.391,24.902,-26.855,58.594,0
1610548247.218,13.672,24.902,30.762,10.254,32.715,0
1610548247.222,79.590,23.926,31.738,51.758,59.082,0
1610548247.209,55.176,27.832,19.043,53.223,56.152,0
1610548247.213,-17.578,29.297,19.043,21.484,22.949,0
1610548247.217,-38.086,27.832,37.109,8.301,-17.090,0
1610548247.221,18.066,34.180,43.945,24.414,-14.648,0
1610548247.225,90.332,32.715,19.531,42.480,30.273,0
1610548247.229,64.453,26.855,20.020,47.852,25.879,0
1610548247.233,-13.672,30.762,42.969,15.137,31.738,0
1610548247.236,-37.109,29.297,42.969,-23.438,39.062,0
1610548247.240,9.277,27.832,41.504,5.859,28.809,0
1610548247.244,79.590,30.762,32.227,56.641,18.066,0
1610548247.248,82.031,32.715,26.855,62.988,28.320,0
1610548247.252,14.648,29.785,50.293,41.016,65.430,0
1610548247.254,-37.598,24.414,40.527,2.441,0.000,0
1610548247.258,-14.160,22.461,12.695,-4.883,-22.461,0
1610548247.262,64.941,24.414,24.414,29.297,23.926,0
1610548247.266,83.008,31.738,23.438,51.758,36.133,0
1610548247.270,14.160,36.133,19.043,23.926,-30.762,0
1610548247.274,-35.156,32.227,46.875,-0.977,-49.805,0
1610548247.278,-5.371,27.832,48.340,12.207,15.625,0
1610548247.281,56.641,28.809,31.738,40.527,43.457,0
1610548247.285,76.660,25.879,23.926,46.387,27.832,0
1610548247.289,36.133,31.738,31.738,30.273,56.152,0
1610548247.293,-31.250,28.809,34.180,-5.371,64.453,0
1610548247.297,-26.855,23.438,18.066,-3.906,57.617,0
1610548247.299,53.223,25.391,14.648,38.086,30.273,0
1610548247.303,80.078,23.438,25.879,41.016,69.336,0
1610548247.307,22.461,26.367,35.645,17.090,97.656,0
1610548247.311,-36.621,19.531,30.273,-12.207,35.156,0
1610548247.315,-28.809,12.207,31.250,-5.859,63.477,0
1610548247.319,41.016,26.855,40.039,37.109,85.449,0
1610548247.323,84.961,34.668,40.039,53.223,25.391,0
1610548247.326,29.785,30.762,44.434,22.461,15.625,0
1610548247.330,-39.551,30.273,40.527,-0.488,27.344,0
1610548247.334,-44.434,20.020,17.578,3.906,-0.977,0
1610548247.338,19.043,13.184,14.648,27.344,1.465,0
1610548247.342,77.637,13.672,22.949,40.039,-30.273,0
1610548247.344,40.527,20.996,29.297,21.973,-10.742,0
1610548247.348,-27.344,27.344,27.832,-12.207,3.906,0
1610548247.352,-20.996,24.902,32.227,-7.324,-26.367,0
1610548247.356,37.598,26.855,32.227,27.832,22.949,0
1610548247.360,86.914,35.156,20.508,54.688,45.898,0
1610548247.364,62.988,38.574,29.297,52.734,37.598,0
1610548247.368,-12.695,23.926,35.645,3.418,-0.488,0
1610548247.371,-33.203,19.043,28.809,-19.531,8.301,0
1610548247.375,9.766,21.484,31.250,12.695,66.406,0
1610548247.379,66.406,20.020,36.133,40.039,83.984,0
1610548247.383,53.711,24.902,33.691,44.922,74.219,0
1610548247.387,-17.578,25.391,28.809,7.324,28.320,0
1610548247.390,-40.039,24.414,23.438,-24.414,22.461,0
1610548247.394,11.719,24.414,20.508,6.348,-2.441,0
1610548247.398,79.102,26.855,26.855,51.758,2.441,0
1610548247.402,71.777,31.250,35.156,47.852,23.926,0
