timestamps,TP9,AF7,AF8,TP10,Right AUX,Marker0
1610547363.110,154.785,33.203,142.090,121.094,74.219,0
1610547363.114,122.070,31.738,149.414,99.121,69.824,0
1610547363.118,-39.551,29.297,132.812,-19.531,25.879,0
1610547363.122,-94.238,27.832,81.055,-83.008,65.430,0
1610547363.126,-9.766,29.785,73.242,-7.812,89.355,0
1610547363.130,128.418,29.785,27.832,107.422,67.383,0
1610547363.134,130.859,27.832,45.898,105.957,35.156,0
1610547363.137,-16.602,25.391,143.066,-16.602,13.184,0
1610547363.141,-98.633,26.855,79.102,-91.797,28.320,0
1610547363.145,-35.156,32.715,-169.922,-28.809,41.016,0
1610547363.149,110.352,28.809,-84.961,83.496,30.273,0
1610547363.153,140.625,31.738,214.355,106.445,15.625,0
1610547363.155,-2.441,32.227,177.734,8.789,10.254,0
1610547363.159,-94.238,20.020,68.848,-82.031,21.484,0
1610547363.163,-42.969,24.414,46.875,-30.762,-31.250,0
1610547363.167,101.562,34.180,63.965,88.379,-69.824,0
1610547363.171,149.414,31.738,135.254,111.816,63.965,0
1610547363.175,12.207,28.809,126.465,17.090,118.652,0
1610547363.179,-96.680,27.344,32.227,-82.031,57.129,0
1610547363.182,-58.105,26.367,72.754,-42.969,32.227,0
1610547363.186,84.961,28.809,-34.668,79.590,-8.301,0
1610547363.190,148.438,24.414,-41.504,112.793,44.922,0
1610547363.194,32.715,30.762,219.238,30.762,64.453,0
1610547363.198,-78.125,38.086,162.598,-65.430,44.922,0
1610547363.200,-69.336,31.738,5.859,-53.223,22.461,0
1610547363.204,64.453,31.250,20.996,56.641,-11.719,0
1610547363.208,151.367,27.344,106.934,115.723,-2.930,0
1610547363.212,42.480,22.461,107.422,43.457,-47.852,0
1610547363.216,-84.961,34.668,25.879,-58.594,-11.230,0
1610547363.220,-75.684,37.109,-44.434,-62.500,11.719,0
1610547363.224,45.410,21.484,3.418,41.992,-14.648,0
1610547363.227,154.297,23.926,116.699,125.000,54.688,0
1610547363.231,68.359,32.227,39.062,67.871,77.637,0
1610547363.235,-74.707,33.691,64.941,-52.246,50.293,0
1610547363.239,-84.961,28.320,188.477,-73.242,114.746,0
1610547363.243,24.414,24.902,86.914,27.832,124.512,0
1610547363.246,147.949,32.227,56.152,118.652,74.707,0
1610547363.250,90.332,32.715,173.828,83.008,59.082,0
1610547363.254,-59.570,22.461,142.090,-41.992,12.207,0
1610547363.258,-91.309,23.438,-58.105,-82.520,22.949,0
1610547363.262,15.137,30.762,-83.008,17.578,12.207,0
1610547363.266,140.625,28.809,12.695,115.234,13.184,0
1610547363.270,110.840,30.273,106.934,98.145,9.766,0
1610547363.273,-38.574,32.715,52.246,-24.414,5.859,0
1610547363.277,-97.168,32.715,-136.719,-83.008,-38.574,0
1610547363.281,-7.812,35.156,41.504,3.906,-46.875,0
1610547363.285,126.953,26.855,146.484,103.516,48.340,0
1610547363.289,115.723,19.531,137.207,81.055,77.637,0
1610547363.290,-21.484,24.902,166.992,-23.926,97.656,0
1610547363.294,-89.355,30.762,78.125,-71.777,57.617,0
1610547363.298,-21.973,28.809,-20.508,-14.160,-12.207,0
1610547363.302,115.234,18.066,-19.531,89.844,4.395,0
1610547363.306,127.441,22.461,96.191,113.770,74.219,0
1610547363.310,-12.207,25.391,88.379,7.812,86.914,0
1610547363.314,-100.586,23.438,-56.152,-81.543,18.555,0
1610547363.317,-37.598,35.156,-224.609,-27.344,-29.785,0
1610547363.321,103.027,37.598,-153.320,84.473,-15.625,0
1610547363.325,138.184,32.227,144.043,108.887,47.852,0
1610547363.329,6.348,34.668,148.438,13.184,70.801,0
1610547363.333,-105.469,27.832,-8.301,-88.379,-3.418,0
1610547363.335,-63.477,21.973,34.180,-43.945,34.180,0
1610547363.339,82.520,22.461,82.520,73.730,96.191,0
1610547363.343,146.484,22.461,40.527,108.398,92.773,0
1610547363.347,28.809,20.996,63.477,23.926,64.941,0
1610547363.351,-87.891,19.043,33.691,-75.195,13.672,0
1610547363.355,-67.871,30.762,-44.434,-46.875,33.691,0
1610547363.359,71.289,33.691,-139.160,66.895,39.551,0
1610547363.362,167.969,32.227,-97.168,123.535,29.297,0
1610547363.366,48.340,34.668,143.066,40.039,20.508,0
1610547363.370,-96.191,32.715,58.594,-76.172,-44.922,0
1610547363.374,-81.543,35.645,-56.152,-65.430,-15.137,0
1610547363.378,52.734,32.227,39.062,48.828,49.805,0
1610547363.380,153.320,24.414,107.422,115.723,-5.371,0
1610547363.384,63.477,25.391,146.973,49.316,13.184,0
1610547363.388,-77.148,25.879,93.262,-48.828,48.828,0
1610547363.392,-84.961,20.508,17.578,-61.523,7.812,0
1610547363.396,28.809,29.785,20.020,24.414,-6.836,0
1610547363.400,149.414,43.457,9.277,110.352,45.898,0
1610547363.404,88.379,41.016,-47.852,69.336,100.098,0
1610547363.407,-69.824,31.250,6.836,-53.711,77.637,0
1610547363.411,-99.121,23.926,64.453,-85.449,12.695,0
1610547363.415,20.020,27.344,-2.441,21.484,23.926,0
1610547363.419,151.367,34.668,18.555,121.094,51.270,0
1610547363.423,106.934,37.109,77.148,89.355,38.574,0
1610547363.426,-45.410,41.504,76.660,-25.391,2.441,0
1610547363.430,-93.750,38.574,-46.875,-73.730,-12.695,0
1610547363.434,8.789,32.227,-99.121,13.184,2.441,0
1610547363.438,145.020,30.762,68.359,120.605,51.758,0
1610547363.442,128.418,38.574,145.508,113.770,49.316,0
1610547363.446,-23.926,43.457,8.301,-5.859,56.641,0
1610547363.450,-90.820,41.504,-112.305,-76.660,83.496,0
1610547363.453,-9.766,44.434,28.320,-11.719,54.199,0
1610547363.457,130.859,45.410,41.016,96.680,14.160,0
1610547363.461,137.207,38.086,18.066,108.398,7.812,0
1610547363.465,-12.207,31.738,65.430,0.977,11.230,0
1610547363.469,-97.656,35.156,22.949,-76.172,-12.207,0
1610547363.485,-29.785,30.273,-38.574,-16.113,-34.668,0
1610547363.489,110.352,20.996,9.766,95.215,53.711,0
1610547363.493,140.137,30.762,57.129,111.816,128.418,0
1610547363.497,5.859,42.969,49.805,5.371,41.504,0
1610547363.501,-96.191,36.133,16.113,-78.125,-36.621,0
1610547363.505,-52.246,36.133,-174.316,-33.203,-4.883,0
1610547363.509,95.215,45.410,-133.789,70.801,35.645,0
1610547363.512,147.461,35.156,135.742,107.422,43.457,0
1610547363.516,25.879,26.855,120.605,26.855,29.785,0
1610547363.520,-88.867,35.645,-22.461,-72.266,1.953,0
1610547363.524,-63.477,31.738,4.395,-49.805,-12.207,0
1610547363.528,79.102,20.996,42.969,66.895,-18.555,0
1610547363.530,152.832,23.926,23.926,115.723,25.391,0
1610547363.534,38.086,20.020,85.449,36.133,62.988,0
1610547363.538,-90.332,23.926,55.176,-67.383,-6.836,0
1610547363.542,-69.824,33.203,-19.531,-58.105,-0.977,0
1610547363.546,64.453,29.297,-22.461,50.781,68.359,0
1610547363.550,153.320,32.715,-45.898,122.559,80.566,0
1610547363.554,62.012,39.551,-8.301,60.547,39.551,0
1610547363.557,-81.055,35.645,-2.930,-56.152,-34.180,0
1610547363.561,-87.402,25.879,-117.676,-70.801,-12.695,0
1610547363.565,38.086,17.090,-203.613,30.762,18.066,0
1610547363.569,146.484,22.949,44.922,116.211,41.504,0
1610547363.573,70.801,29.785,217.285,63.965,83.984,0
1610547363.576,-79.590,30.762,127.441,-62.988,91.797,0
1610547363.580,-94.727,31.738,23.926,-80.566,44.922,0
1610547363.584,21.973,32.227,7.812,21.973,-17.578,0
1610547363.588,143.066,28.320,40.039,107.910,30.273,0
1610547363.592,91.797,24.902,84.473,81.055,80.566,0
1610547363.596,-56.641,25.879,30.762,-33.203,34.180,0
1610547363.600,-99.609,21.484,-36.621,-87.891,16.602,0
1610547363.603,-1.465,19.531,-3.906,3.418,5.859,0
1610547363.607,137.695,24.902,-149.414,105.469,9.277,0
1610547363.611,106.445,29.785,-25.879,80.078,64.453,0
1610547363.615,-46.875,35.645,227.539,-31.250,48.340,0
1610547363.619,-103.516,40.527,104.004,-78.613,82.031,0
1610547363.620,-20.020,38.086,0.488,-7.812,44.434,0
1610547363.624,121.582,33.203,61.035,87.402,0.488,0
1610547363.628,123.535,30.762,142.090,89.844,47.852,0
1610547363.632,-25.391,21.484,100.586,-12.695,27.344,0
1610547363.636,-101.562,25.879,0.000,-69.336,-13.672,0
1610547363.640,-33.691,37.598,-59.082,-16.602,-19.043,0
1610547363.644,111.816,39.551,-20.996,83.984,-49.805,0
1610547363.647,136.230,41.504,7.324,103.516,-4.883,0
1610547363.651,-7.324,43.457,3.906,1.953,46.875,0
1610547363.655,-104.492,41.016,61.035,-75.684,-56.152,0
1610547363.659,-46.387,40.527,99.609,-30.273,28.320,0
1610547363.663,100.098,37.598,76.660,76.660,117.676,0
1610547363.665,154.297,36.133,71.289,117.676,15.625,0
1610547363.669,21.484,30.762,167.480,23.926,8.789,0
1610547363.673,-93.262,26.855,93.750,-70.801,17.090,0
1610547363.677,-54.199,39.551,-43.945,-43.457,-19.531,0
1610547363.681,80.078,49.316,45.410,69.824,50.293,0
1610547363.685,152.832,48.340,85.938,125.000,32.715,0
1610547363.689,35.156,41.016,102.051,35.156,33.203,0
1610547363.692,-96.191,37.109,-51.270,-70.312,29.785,0
1610547363.696,-74.219,38.086,-62.500,-63.965,-20.020,0
1610547363.700,61.523,36.621,154.785,48.828,43.457,0
1610547363.704,149.902,29.297,131.836,120.117,80.566,0
1610547363.708,55.176,40.039,117.188,52.734,28.809,0
1610547363.710,-70.312,54.688,125.977,-50.781,-5.859,0
1610547363.714,-74.219,45.898,88.867,-56.152,22.949,0
1610547363.718,47.852,37.598,-16.113,51.270,56.641,0
1610547363.722,161.621,43.457,16.602,127.930,92.773,0
1610547363.726,80.566,53.223,185.059,71.777,77.637,0
1610547363.730,-65.918,50.781,107.422,-46.875,44.922,0
1610547363.734,-78.613,42.969,-106.934,-71.289,-3.418,0
1610547363.737,37.109,41.504,-121.094,25.879,-64.941,0
1610547363.741,153.320,32.715,127.930,109.863,-17.578,0
1610547363.745,88.379,32.715,230.957,70.312,61.035,0
1610547363.749,-69.336,37.598,199.707,-45.410,98.145,0
1610547363.753,-97.656,39.062,115.723,-78.613,89.844,0
1610547363.755,10.742,38.574,116.699,26.855,82.520,0
1610547363.759,141.602,30.762,105.957,114.746,51.758,0
1610547363.763,106.934,33.691,89.844,70.801,-2.930,0
1610547363.767,-42.480,33.203,132.812,-38.086,-22.461,0
1610547363.771,-90.820,33.691,108.887,-86.426,20.996,0
1610547363.775,-1.953,38.086,47.852,-7.812,44.922,0
1610547363.779,126.953,30.273,-72.266,102.539,57.617,0
1610547363.782,115.723,25.879,28.320,84.473,73.242,0
1610547363.786,-29.297,29.785,247.559,-22.461,-1.465,0
1610547363.790,-99.121,34.180,131.836,-83.496,-37.598,0
1610547363.794,-28.809,29.785,89.844,-19.043,26.367,0
1610547363.798,109.863,18.066,157.715,89.844,20.508,0
1610547363.815,125.000,25.879,213.379,102.539,38.086,0
1610547363.819,-16.113,33.203,158.691,1.953,0.977,0
1610547363.823,-102.539,31.250,60.547,-82.031,-26.367,0
1610547363.827,-43.457,35.645,108.887,-31.738,43.457,0
1610547363.831,101.562,35.645,116.699,91.797,10.742,0
1610547363.835,142.090,30.273,11.719,107.422,9.277,0
1610547363.839,7.324,27.344,44.922,-3.418,86.914,0
1610547363.842,-104.980,21.484,108.887,-90.820,27.832,0
1610547363.846,-58.594,26.367,81.055,-48.340,11.230,0
1610547363.850,85.938,28.320,108.887,76.172,123.535,0
1610547363.854,146.484,34.180,172.852,113.281,153.320,0
1610547363.858,27.832,42.480,261.719,26.367,86.426,0
1610547363.861,-89.355,36.133,168.457,-72.754,43.457,0
1610547363.865,-63.477,19.043,70.801,-59.570,17.578,0
1610547363.869,71.289,17.578,110.352,55.176,38.086,0
1610547363.873,166.504,31.738,193.848,125.977,83.984,0
1610547363.877,63.477,34.668,205.566,48.828,60.059,0
1610547363.881,-76.172,32.715,55.664,-71.289,14.648,0
1610547363.885,-72.266,29.297,-35.156,-61.035,-6.836,0
1610547363.888,61.523,31.250,86.426,62.500,32.227,0
1610547363.892,163.574,29.297,93.750,138.672,20.508,0
1610547363.896,62.500,26.855,-44.922,63.477,-49.316,0
1610547363.900,-94.727,30.762,-9.766,-67.383,-34.180,0
1610547363.904,-93.262,28.320,79.102,-73.242,1.953,0
1610547363.905,37.598,27.344,-12.695,40.039,-66.406,0
1610547363.909,150.879,30.273,-6.836,124.023,-39.551,0
1610547363.913,87.402,30.762,186.523,72.266,11.230,0
1610547363.917,-59.570,27.832,166.504,-42.969,-23.438,0
1610547363.921,-82.520,25.879,31.250,-70.801,-3.418,0
1610547363.925,23.926,24.414,1.465,22.461,78.125,0
1610547363.929,146.973,19.043,53.711,120.117,81.543,0
1610547363.932,110.840,17.090,171.875,85.449,35.156,0
1610547363.936,-49.316,18.066,39.062,-40.039,-5.859,0
1610547363.940,-98.633,26.367,-107.422,-83.008,-15.625,0
1610547363.944,1.953,26.855,85.938,8.789,-3.906,0
1610547363.948,139.160,23.926,121.582,111.328,-9.766,0
1610547363.952,122.070,26.367,123.047,98.145,-12.207,0
1610547363.956,-31.738,24.414,107.910,-19.531,-28.809,0
1610547363.960,-92.285,23.926,45.898,-82.520,-6.348,0
1610547363.964,-11.230,28.320,45.410,-0.488,8.301,0
1610547363.968,126.465,26.855,28.320,107.910,21.973,0
1610547363.972,133.789,21.484,85.938,103.027,80.078,0
1610547363.976,-13.672,23.438,115.723,-3.418,53.223,0
1610547363.979,-100.586,25.391,41.992,-78.125,-25.391,0
1610547363.983,-38.086,22.461,-53.711,-25.391,62.500,0
1610547363.987,112.793,26.855,20.508,86.914,61.035,0
1610547363.991,145.996,26.367,208.984,108.398,33.203,0
1610547363.995,7.812,18.066,187.988,20.020,69.824,0
1610547363.995,-92.773,19.531,54.199,-69.336,-4.395,0
1610547363.999,-43.945,30.762,51.270,-37.598,-43.945,0
1610547364.003,101.562,28.320,117.188,81.055,28.809,0
1610547364.007,150.391,20.996,119.629,120.117,63.965,0
1610547364.011,27.344,16.602,94.727,30.273,-12.695,0
1610547364.015,-89.355,18.555,11.719,-79.102,-64.453,0
1610547364.019,-64.453,20.020,83.984,-62.012,41.016,0
1610547364.022,79.102,20.996,63.965,59.082,62.500,0
1610547364.026,160.156,27.832,-41.504,110.840,60.059,0
1610547364.030,49.316,28.809,193.359,27.832,62.500,0
1610547364.034,-76.172,31.250,252.930,-73.730,53.711,0
1610547364.038,-62.988,29.297,116.699,-59.082,54.688,0
1610547364.040,67.871,23.438,115.234,61.523,36.621,0
1610547364.044,164.062,24.414,188.965,127.930,46.387,0
1610547364.048,68.359,28.809,250.000,53.223,95.703,0
1610547364.052,-75.195,24.902,171.875,-56.641,80.078,0
1610547364.056,-83.984,23.926,100.586,-62.500,22.949,0
1610547364.060,40.527,25.391,94.727,50.781,62.500,0
1610547364.064,155.762,22.461,113.281,115.723,45.410,0
1610547364.067,89.355,32.715,61.035,53.711,54.688,0
1610547364.071,-55.664,32.715,68.848,-51.758,96.191,0
1610547364.075,-83.984,27.344,169.434,-82.520,3.906,0
1610547364.079,30.762,34.180,132.324,26.367,-2.441,0
1610547364.083,156.250,33.203,154.297,125.488,66.895,0
1610547364.085,104.980,26.855,226.074,85.449,16.113,0
1610547364.089,-50.781,20.508,189.941,-29.785,-69.824,0
1610547364.093,-94.727,25.391,56.641,-72.266,-64.941,0
1610547364.097,8.789,32.715,46.387,9.277,-39.551,0
1610547364.101,143.066,28.809,140.625,110.352,19.043,0
1610547364.105,109.375,30.762,164.062,93.750,47.852,0
1610547364.109,-41.992,35.156,39.551,-25.879,-9.766,0
1610547364.112,-104.492,32.715,-67.871,-97.168,-40.527,0
1610547364.116,-20.020,28.809,107.910,-20.508,-14.160,0
1610547364.120,126.465,26.855,193.359,89.844,48.828,0
1610547364.124,119.629,18.555,180.176,78.613,115.234,0
1610547364.128,-23.926,22.461,183.105,-21.484,74.707,0
1610547364.130,-103.516,28.809,130.859,-87.402,25.879,0
1610547364.134,-37.109,22.949,57.617,-23.438,-20.996,0
1610547364.138,110.352,18.066,32.715,90.820,38.086,0
1610547364.142,126.953,13.672,118.652,104.492,97.656,0
1610547364.146,-13.672,19.043,182.129,15.625,63.965,0
1610547364.150,-105.957,25.391,20.996,-74.219,26.367,0
1610547364.154,-54.688,22.949,-164.062,-46.875,2.441,0
1610547364.157,84.961,22.461,-54.199,66.895,-2.441,0
1610547364.161,130.859,28.809,131.836,97.168,-29.785,0
1610547364.165,2.441,26.367,95.215,3.906,-8.301,0
1610547364.169,-104.980,18.066,38.574,-89.355,-4.395,0
1610547364.173,-65.430,28.320,62.012,-58.594,-3.418,0
1610547364.177,76.660,30.273,124.023,57.129,90.332,0
1610547364.181,150.879,27.344,41.016,108.887,95.703,0
1610547364.185,37.598,29.297,35.645,31.250,47.852,0
1610547364.189,-95.703,22.949,107.422,-72.754,38.574,0
1610547364.193,-75.195,27.344,47.852,-62.988,25.879,0
1610547364.197,60.059,26.367,-91.797,49.316,33.691,0
1610547364.201,145.996,28.809,-87.891,107.422,44.922,0
1610547364.204,54.199,34.180,145.508,36.621,65.430,0
1610547364.208,-77.637,33.691,127.441,-64.941,35.645,0
1610547364.212,-73.730,34.668,-57.129,-62.988,-0.488,0
1610547364.216,50.293,26.855,-31.738,44.922,25.879,0
1610547364.220,164.062,26.367,96.191,118.652,37.109,0
1610547364.235,92.773,35.156,135.254,67.383,35.645,0
1610547364.239,-59.570,40.039,68.848,-47.852,23.438,0
1610547364.243,-86.426,38.574,4.883,-72.754,3.418,0
1610547364.247,27.832,29.785,37.109,26.367,9.277,0
1610547364.251,155.273,32.227,47.852,125.000,55.176,0
1610547364.255,92.773,38.086,-45.410,84.961,66.406,0
1610547364.259,-66.895,26.367,-14.160,-52.734,60.547,0
1610547364.262,-98.633,14.648,93.262,-93.750,30.273,0
1610547364.266,5.371,17.090,-1.953,0.488,-20.996,0
1610547364.270,138.184,27.344,1.465,95.703,22.949,0
1610547364.274,110.840,31.250,149.902,75.195,75.195,0
1610547364.278,-41.016,32.227,166.992,-36.133,62.500,0
1610547364.280,-97.656,28.320,10.742,-81.543,29.297,0
1610547364.284,-8.789,19.531,-26.855,0.977,21.484,0
1610547364.288,132.324,22.949,62.988,98.145,27.344,0
1610547364.292,129.883,34.180,137.695,92.773,55.176,0
1610547364.296,-23.438,38.086,85.449,-20.508,46.387,0
1610547364.300,-99.121,32.227,-70.801,-84.961,-6.348,0
1610547364.304,-22.461,33.691,-29.297,-10.254,46.387,0
1610547364.307,130.371,39.062,72.266,94.238,84.473,0
1610547364.311,150.879,36.621,51.270,100.586,91.797,0
1610547364.315,-3.906,33.691,-39.062,-4.883,79.102,0
1610547364.319,-98.633,33.203,33.691,-82.031,-5.371,0
1610547364.323,-36.621,38.086,115.234,-18.066,39.551,0
1610547364.325,111.328,36.133,73.242,101.074,58.105,0
1610547364.329,145.996,29.785,98.145,113.770,13.672,0
1610547364.333,13.184,27.344,172.363,14.160,43.457,0
1610547364.337,-90.820,33.203,73.730,-79.590,47.852,99
1610547364.341,-57.129,36.621,-25.391,-38.086,17.090,0
1610547364.345,93.262,34.180,-34.668,81.543,24.414,0
1610547364.349,157.715,33.691,23.926,110.840,12.695,0
1610547364.352,25.391,39.062,118.652,26.367,4.883,0
1610547364.356,-91.797,40.527,-63.477,-74.707,25.391,0
1610547364.360,-68.359,36.621,-81.055,-60.547,25.391,0
1610547364.364,70.312,33.203,69.824,55.176,24.414,0
1610547364.368,151.367,29.297,62.012,111.816,53.711,0
1610547364.370,44.922,28.809,51.270,33.691,8.301,0
1610547364.374,-87.891,30.273,112.305,-72.266,-11.719,0
1610547364.378,-79.590,33.203,69.336,-58.105,22.949,0
1610547364.382,58.594,39.551,-11.230,58.594,24.902,0
1610547364.386,155.273,37.598,61.523,119.141,71.777,0
1610547364.390,57.129,30.762,90.332,52.734,53.711,0
1610547364.394,-81.543,23.438,90.820,-58.594,56.152,0
1610547364.397,-85.938,21.973,-39.551,-68.848,41.016,0
1610547364.401,25.391,24.414,-96.191,27.832,41.504,0
1610547364.405,148.926,31.250,93.262,117.676,4.395,0
1610547364.409,85.449,36.133,145.020,73.730,-62.012,0
1610547364.413,-76.660,28.320,93.750,-56.641,-53.223,0
1610547364.416,-101.562,20.020,12.695,-86.426,-5.859,0
1610547364.420,8.789,22.461,29.785,10.742,6.836,0
1610547364.424,134.277,31.250,105.469,106.934,30.762,0
1610547364.428,98.145,35.156,105.469,81.055,63.477,0
1610547364.432,-53.223,32.227,110.352,-36.133,39.062,0
1610547364.436,-102.051,31.250,42.969,-86.914,55.176,0
1610547364.440,-3.906,24.414,-23.926,-2.441,32.715,0
1610547364.443,136.719,23.438,-120.117,104.004,-25.391,0
1610547364.447,123.535,27.344,44.434,95.703,25.879,0
1610547364.451,-19.043,25.391,210.938,-12.695,0.488,0
1610547364.455,-85.938,32.227,80.078,-76.172,34.668,0
1610547364.459,-22.461,44.922,39.551,-4.395,90.820,0
1610547364.460,111.816,42.969,98.145,102.051,65.918,0
1610547364.464,122.559,36.133,154.785,106.934,72.266,0
1610547364.468,-29.297,32.715,122.559,1.465,80.078,0
1610547364.472,-108.398,33.203,-12.695,-78.125,28.320,0
1610547364.476,-38.086,33.203,-31.250,-16.113,-30.762,0
1610547364.480,100.098,22.949,61.035,89.844,83.008,0
1610547364.484,144.531,27.832,-8.789,98.145,55.176,0
1610547364.487,9.277,31.738,-102.539,-9.277,-39.062,0
1610547364.491,-105.957,30.762,32.227,-109.863,-29.297,0
1610547364.495,-57.617,36.621,109.375,-59.570,-47.363,0
1610547364.499,92.773,30.273,85.449,70.801,-20.996,0
1610547364.503,147.949,29.297,145.508,106.445,35.645,0
1610547364.506,18.555,34.180,237.305,8.301,109.375,0
1610547364.510,-101.074,34.668,144.043,-90.820,113.770,0
1610547364.514,-63.477,37.109,18.555,-56.152,52.246,0
1610547364.518,77.148,32.715,68.848,62.988,62.012,0
1610547364.522,155.762,32.715,108.398,106.445,42.480,0
1610547364.526,47.363,40.527,90.332,34.180,13.672,0
1610547364.530,-83.008,43.457,-94.238,-49.805,-5.859,0
1610547364.533,-73.730,39.551,-96.680,-49.805,14.160,0
1610547364.537,54.688,33.691,122.070,46.875,23.438,0
1610547364.541,160.156,34.668,114.258,118.652,25.879,0
1610547364.545,64.941,35.156,122.070,57.617,38.086,0
1610547364.549,-80.566,31.250,139.648,-67.383,39.551,0
1610547364.566,-80.566,23.926,41.992,-82.520,-28.809,0
1610547364.570,41.504,28.809,-27.344,36.621,-72.754,0
1610547364.574,148.926,38.574,33.203,121.094,-4.883,0
1610547364.578,83.496,38.574,175.781,62.012,74.219,0
1610547364.582,-61.035,37.109,125.488,-57.617,10.742,0
1610547364.586,-92.773,33.203,-90.820,-77.148,-37.109,0
1610547364.590,8.789,29.785,-118.164,12.695,28.809,0
1610547364.593,135.742,27.832,78.125,96.191,3.906,0
1610547364.597,93.262,32.715,174.316,67.383,11.230,0
1610547364.601,-55.176,33.691,100.098,-43.945,52.246,0
1610547364.605,-97.656,32.227,19.531,-89.844,-1.465,0
1610547364.609,-0.488,39.062,41.992,6.348,-59.570,0
1610547364.611,134.766,32.715,105.469,117.676,18.555,0
1610547364.615,115.234,34.180,89.844,104.004,51.758,0
1610547364.619,-35.645,37.598,83.984,-16.602,-12.207,0
1610547364.623,-104.492,24.902,86.914,-83.984,-8.789,0
1610547364.627,-19.043,30.762,54.688,3.906,22.461,0
1610547364.631,131.348,30.762,12.695,108.398,18.066,0
1610547364.635,119.629,20.996,53.223,91.309,31.250,0
1610547364.638,-37.109,27.832,167.480,-16.602,49.805,0
1610547364.642,-99.121,36.133,80.566,-85.938,6.348,0
1610547364.646,-32.715,32.227,-124.023,-31.250,-41.504,0
1610547364.650,103.027,28.320,7.324,79.102,6.348,0
1610547364.654,134.277,22.949,232.422,101.074,68.848,0
1610547364.655,0.488,24.902,130.859,7.324,43.945,0
1610547364.659,-94.727,28.320,0.000,-77.637,-13.672,0
1610547364.663,-43.945,31.738,83.008,-34.668,1.953,0
1610547364.667,97.656,31.250,138.672,78.613,72.266,0
1610547364.671,140.137,24.414,124.023,102.051,123.047,0
1610547364.675,11.230,30.273,113.770,11.230,135.742,0
1610547364.679,-93.262,37.598,42.480,-85.938,51.758,0
1610547364.682,-61.035,37.109,66.406,-62.012,-9.277,0
1610547364.686,79.102,36.133,16.113,56.641,33.691,0
1610547364.690,152.344,28.320,-26.367,101.562,70.312,0
1610547364.694,40.527,23.438,197.266,28.809,47.363,0
1610547364.698,-81.055,26.855,187.988,-62.012,55.664,0
1610547364.700,-64.453,22.949,41.992,-39.551,14.648,0
1610547364.704,64.941,29.297,49.805,67.383,-14.160,0
1610547364.708,154.297,27.832,139.160,128.906,55.664,0
1610547364.712,52.246,8.789,122.559,56.641,52.734,0
1610547364.716,-85.449,11.719,3.418,-58.594,-20.996,0
1610547364.720,-83.984,22.461,-22.461,-62.012,-4.395,0
1610547364.724,36.621,16.113,29.785,40.527,21.484,0
1610547364.727,143.555,21.484,79.590,112.793,-6.836,0
1610547364.731,68.359,25.879,47.852,62.988,68.848,0
1610547364.735,-76.172,22.949,61.523,-52.246,39.551,0
1610547364.739,-98.145,24.902,123.535,-81.055,-9.766,0
1610547364.743,19.531,27.832,43.945,18.555,16.113,0
1610547364.745,147.461,27.344,32.715,111.816,30.273,0
1610547364.749,87.891,27.344,144.043,69.336,32.715,0
1610547364.753,-57.129,31.250,150.879,-49.316,38.574,0
1610547364.757,-89.355,22.461,22.461,-86.914,48.828,0
1610547364.761,7.324,21.484,-33.691,4.395,3.418,0
1610547364.765,140.137,29.785,10.254,105.957,31.250,0
1610547364.769,113.770,30.762,93.750,82.031,78.613,0
1610547364.772,-37.109,25.879,22.461,-29.785,31.250,0
1610547364.776,-89.844,25.879,-145.020,-84.473,-13.672,0
1610547364.780,-5.371,30.762,57.129,8.301,35.645,0
1610547364.784,129.883,27.832,194.336,120.605,78.125,0
1610547364.788,132.324,27.344,148.438,107.422,48.340,0
1610547364.790,-16.113,26.367,140.137,-5.859,-17.090,0
1610547364.794,-88.867,25.879,87.402,-76.660,-44.922,0
1610547364.798,-11.230,29.785,66.895,-1.465,10.742,0
1610547364.802,130.859,32.227,73.242,110.352,89.844,0
1610547364.806,141.602,28.320,101.562,104.980,63.477,0
1610547364.810,-15.137,13.184,84.961,-7.812,30.273,0
1610547364.814,-101.074,7.324,15.137,-87.402,16.602,0
1610547364.817,-36.621,20.996,-122.070,-33.691,-47.852,0
1610547364.821,106.445,25.391,-72.266,81.543,-32.227,0
1610547364.825,145.508,20.508,135.254,107.910,5.859,0
1610547364.829,5.371,17.578,133.789,0.488,-7.812,0
1610547364.833,-104.004,17.090,18.066,-94.727,-21.973,0
1610547364.835,-57.617,11.230,75.684,-49.316,16.113,0
1610547364.839,81.543,8.301,127.441,66.895,62.012,0
1610547364.843,151.855,22.949,83.496,119.141,59.570,0
1610547364.847,31.250,27.832,115.723,39.551,47.363,0
1610547364.851,-102.051,25.391,67.383,-73.242,-32.715,0
1610547364.855,-74.707,26.367,-9.277,-54.199,-34.180,0
1610547364.859,68.359,22.949,-70.801,57.129,14.648,0
1610547364.862,155.273,20.020,-53.223,108.398,20.508,0
1610547364.866,39.062,21.484,184.570,30.762,50.293,0
1610547364.870,-101.562,20.020,172.852,-81.055,48.828,0
1610547364.874,-88.867,20.996,56.152,-71.289,59.082,0
1610547364.878,43.457,21.973,35.156,40.039,40.527,0
1610547364.881,151.367,17.090,45.410,105.957,49.316,0
1610547364.885,69.824,20.020,136.719,49.316,62.988,0
1610547364.889,-79.590,16.602,105.469,-63.477,98.145,0
1610547364.893,-89.355,19.531,46.387,-71.289,98.145,0
1610547364.897,36.133,26.367,42.969,34.180,1.953,0
1610547364.901,152.344,29.785,14.160,116.699,11.230,0
1610547364.905,91.797,32.227,-20.508,76.172,65.430,0
1610547364.908,-59.570,26.367,55.176,-55.176,73.730,0
1610547364.912,-98.633,25.391,123.535,-90.332,24.414,0
1610547364.916,11.719,31.738,52.734,17.578,32.715,0
1610547364.920,145.020,36.621,52.246,116.699,67.871,0
1610547364.924,101.562,41.016,166.504,86.914,80.566,2
1610547364.925,-47.852,39.551,178.223,-31.250,79.102,0
1610547364.929,-93.750,32.715,40.039,-78.125,52.246,0
1610547364.933,-7.324,31.250,-20.996,9.277,86.426,0
1610547364.937,136.230,38.574,6.836,120.117,22.461,0
1610547364.941,122.070,39.551,131.836,101.562,0.977,0
1610547364.945,-36.621,27.832,72.754,-20.020,69.824,0
1610547364.949,-105.957,24.414,-135.254,-88.379,69.824,0
1610547364.952,-27.344,34.668,18.066,-32.227,62.012,0
1610547364.956,124.023,32.715,164.062,86.426,85.938,0
1610547364.960,132.812,27.832,100.586,95.703,32.227,0
1610547364.964,-13.184,35.156,129.395,-12.207,5.371,0
1610547364.968,-102.051,29.785,101.562,-96.191,26.367,0
1610547364.985,-42.480,22.949,13.672,-42.480,-22.461,0
1610547364.989,109.863,31.250,11.230,89.355,-0.488,0
1610547364.993,140.137,26.855,78.613,112.305,36.621,0
1610547364.997,-4.395,25.879,120.605,-0.488,9.766,0
1610547365.001,-104.980,36.621,47.363,-90.820,17.090,0
1610547365.005,-57.617,28.809,-78.613,-43.457,-2.930,0
1610547365.009,93.262,30.273,-86.914,68.359,2.930,0
1610547365.012,152.344,36.133,51.270,110.352,34.180,0
1610547365.016,21.484,34.668,132.324,28.809,13.672,0
1610547365.020,-88.867,33.691,-124.023,-80.566,-57.617,0
1610547365.024,-50.781,24.902,-104.492,-62.988,-20.020,0
1610547365.028,86.426,21.484,123.535,61.523,58.105,0
1610547365.030,168.945,32.227,70.801,125.977,64.453,0
1610547365.034,60.059,35.645,80.566,49.805,27.344,0
1610547365.038,-78.125,26.855,70.801,-58.105,-40.527,0
1610547365.042,-77.148,21.484,24.902,-49.805,-41.992,0
1610547365.046,45.898,20.996,2.930,55.176,24.414,0
1610547365.050,147.461,26.367,-18.066,126.465,61.035,0
1610547365.054,56.152,32.227,90.332,69.336,80.078,0
1610547365.057,-76.660,33.203,139.648,-44.434,62.988,0
1610547365.061,-74.219,30.273,-50.293,-68.848,37.598,0
1610547365.065,40.527,28.320,-194.336,34.668,11.230,0
1610547365.069,152.832,22.949,30.762,117.676,17.578,0
1610547365.073,82.031,15.137,197.266,54.199,58.594,0
1610547365.075,-65.918,21.484,142.090,-60.547,97.168,0
1610547365.079,-83.984,38.574,50.293,-71.777,40.039,0
1610547365.083,29.785,36.621,41.016,26.855,-13.672,0
1610547365.087,140.137,21.484,42.969,105.957,6.836,0
1610547365.091,93.750,20.020,55.664,67.383,3.418,0
1610547365.095,-53.223,19.531,48.828,-52.246,22.461,0
1610547365.099,-102.539,20.020,-8.789,-99.609,18.555,0
1610547365.102,-0.488,25.391,54.199,-4.395,65.430,0
1610547365.106,128.906,32.715,-47.852,100.098,97.168,0
1610547365.110,104.980,27.344,-10.742,79.102,3.418,0
1610547365.114,-39.062,21.973,188.965,-34.180,-4.883,0
1610547365.118,-106.445,24.414,36.621,-90.332,17.578,0
1610547365.120,-26.855,25.879,-43.945,-15.625,-12.695,0
1610547365.124,124.512,35.156,86.426,92.285,28.809,0
1610547365.128,122.559,34.668,143.066,91.309,50.293,0
1610547365.132,-32.715,19.043,95.703,-21.973,43.457,0
1610547365.136,-111.816,15.625,9.766,-80.078,6.836,0
1610547365.140,-45.410,26.855,-17.090,-12.695,-31.250,0
1610547365.144,103.027,32.227,32.715,83.008,19.531,0
1610547365.147,133.301,27.832,21.973,92.285,29.785,0
1610547365.151,-4.883,23.926,19.043,-1.465,50.293,0
1610547365.155,-103.027,24.414,126.465,-94.238,61.035,0
1610547365.159,-50.293,26.367,102.051,-61.035,20.508,0
1610547365.163,96.191,29.785,44.922,66.406,2.441,0
1610547365.165,142.578,33.203,120.605,105.957,66.895,0
1610547365.169,8.789,24.902,194.336,7.812,60.059,0
1610547365.173,-97.168,22.461,34.668,-85.449,-31.250,0
1610547365.177,-60.547,34.180,-58.594,-48.340,-47.852,0
1610547365.181,82.031,37.598,50.293,67.871,11.719,0
1610547365.185,152.832,38.574,93.750,114.258,83.984,0
1610547365.189,26.855,31.738,110.840,30.762,50.781,0
1610547365.192,-92.285,28.809,-22.949,-76.660,12.207,0
1610547365.196,-75.195,34.668,-19.531,-63.965,31.250,0
1610547365.200,55.664,36.133,146.973,57.617,58.105,0
1610547365.204,148.438,33.203,104.492,129.395,72.266,0
1610547365.208,55.176,32.715,118.652,50.293,60.059,0
1610547365.210,-73.730,34.668,130.371,-59.082,12.695,0
1610547365.214,-72.754,30.762,90.820,-52.246,20.020,0
1610547365.218,44.922,18.555,-16.602,36.621,-15.625,0
1610547365.222,141.602,17.090,17.578,94.727,42.480,0
1610547365.226,74.219,22.461,178.711,40.527,146.973,0
1610547365.230,-65.430,19.043,79.590,-61.523,47.852,0
1610547365.234,-94.727,21.973,-66.406,-77.148,35.156,0
1610547365.237,20.996,27.344,-123.047,11.719,103.027,0
1610547365.241,143.066,28.320,53.711,103.516,104.492,0
1610547365.245,87.891,27.344,199.219,67.383,61.035,0
1610547365.249,-58.105,31.738,122.559,-44.434,16.113,0
1610547365.253,-92.773,37.598,24.414,-83.008,-57.129,0
1610547365.255,4.883,29.297,39.551,0.488,-57.129,0
1610547365.259,131.836,25.391,71.777,104.004,20.996,0
1610547365.263,104.980,27.344,95.215,84.961,78.125,0
1610547365.267,-41.992,19.531,113.770,-29.785,60.547,0
1610547365.271,-105.469,23.438,36.621,-87.891,12.695,0
1610547365.275,-18.066,28.320,-51.758,-7.324,-5.371,0
1610547365.279,119.141,22.949,-135.254,92.285,16.602,0
1610547365.282,108.398,29.785,-9.766,76.172,46.875,0
1610547365.286,-45.898,26.855,139.160,-32.715,14.648,0
1610547365.290,-119.629,18.555,35.156,-95.703,-15.137,0
1610547365.294,-35.645,25.879,-8.789,-29.785,2.930,0
1610547365.298,112.793,29.785,87.402,83.984,53.223,0
1610547365.315,125.977,26.367,148.438,99.609,65.918,0
1610547365.319,-17.090,26.855,104.004,-4.395,53.711,0
1610547365.323,-102.051,25.391,18.066,-79.102,28.809,0
1610547365.327,-50.781,15.137,41.016,-38.086,43.457,0
1610547365.331,95.215,25.879,71.777,74.219,89.355,0
1610547365.335,140.625,31.250,-40.039,106.445,73.730,0
1610547365.339,8.789,22.461,-31.738,8.789,58.105,0
1610547365.342,-96.191,23.438,76.172,-85.938,6.348,0
1610547365.346,-57.129,30.762,48.340,-45.898,-34.180,0
1610547365.350,84.473,31.738,26.367,74.707,41.016,0
1610547365.354,143.066,31.738,61.523,111.816,85.938,0
1610547365.358,20.996,29.297,109.375,20.996,58.105,0
1610547365.360,-91.797,34.668,80.078,-75.684,16.113,0
1610547365.364,-59.570,39.551,-7.324,-53.711,24.902,0
1610547365.368,66.895,28.809,12.207,52.246,46.387,0
1610547365.372,154.785,21.973,92.773,105.957,36.621,0
1610547365.376,50.293,24.902,130.371,40.527,48.828,0
1610547365.380,-88.379,29.297,53.223,-60.059,57.617,0
1610547365.384,-74.707,27.344,-14.648,-60.547,56.641,0
1610547365.387,46.875,28.809,30.762,42.480,8.301,0
1610547365.391,149.414,33.203,66.406,118.652,31.250,0
1610547365.395,61.035,28.320,-22.949,55.176,44.434,0
1610547365.399,-81.543,24.902,30.273,-64.453,28.809,0
1610547365.403,-85.938,27.344,77.148,-73.242,-43.457,0
1610547365.407,35.645,26.367,-2.441,31.738,-74.707,0
1610547365.411,153.809,26.367,-0.488,123.535,12.207,0
1610547365.415,87.402,31.738,59.570,75.195,-22.949,0
1610547365.419,-59.082,33.203,134.766,-40.527,-60.059,0
1610547365.423,-88.867,28.320,17.090,-64.453,-11.230,0
1610547365.427,13.184,22.461,-77.637,14.160,10.742,0
1610547365.431,136.230,19.043,36.133,101.562,-1.953,0
1610547365.434,96.680,23.926,179.199,78.125,-10.254,0
1610547365.438,-47.363,23.926,68.848,-35.156,-7.324,0
1610547365.442,-103.516,25.391,-67.871,-86.426,12.207,0
1610547365.446,-16.602,25.879,72.266,0.000,-5.371,0
1610547365.450,126.465,29.785,98.145,110.840,-16.602,0
1610547365.450,107.422,37.598,100.098,96.191,-8.301,0
1610547365.454,-34.180,35.156,128.906,-13.672,-41.504,0
1610547365.458,-100.098,33.691,112.305,-83.984,-6.348,0
1610547365.462,-24.902,29.297,64.941,-25.391,10.742,0
1610547365.466,118.164,19.531,-0.977,91.309,-0.977,0
1610547365.470,122.559,29.785,22.461,105.957,4.883,0
1610547365.474,-25.391,39.062,130.371,-18.555,66.406,0
1610547365.477,-105.957,35.645,116.699,-98.633,56.641,0
1610547365.481,-46.387,29.297,-89.355,-42.969,19.043,0
1610547365.485,95.215,27.832,-51.270,68.359,64.941,0
1610547365.489,136.719,30.762,204.102,98.145,100.586,0
1610547365.493,6.836,36.133,163.086,6.836,80.566,0
1610547365.495,-90.820,41.016,54.688,-84.473,48.340,0
1610547365.499,-59.570,34.668,93.262,-47.363,68.848,0
1610547365.503,76.660,28.809,93.262,68.848,62.988,0
1610547365.507,140.137,29.785,62.988,104.980,40.527,0
1610547365.511,13.672,33.203,124.023,17.090,51.270,0
1610547365.515,-106.934,31.738,98.145,-84.961,93.262,0
1610547365.519,-81.055,31.738,38.086,-67.383,48.828,0
1610547365.522,52.246,40.527,8.301,48.340,58.105,0
1610547365.526,116.211,42.969,-79.102,93.750,82.031,0
1610547365.530,6.348,47.852,76.660,-3.906,-39.551,0
1610547365.534,-120.605,49.316,148.438,-108.887,-114.258,0
1610547365.538,-116.699,48.340,125.488,-103.027,45.410,0
1610547365.540,11.719,53.711,152.344,5.371,146.484,0
1610547365.544,96.191,55.176,156.738,70.801,90.332,0
1610547365.548,6.836,52.246,168.945,2.441,30.273,0
1610547365.552,-118.164,57.617,125.000,-103.516,12.695,0
1610547365.556,-142.578,64.941,78.613,-121.582,24.414,0
1610547365.560,-49.805,56.641,11.230,-45.410,-10.254,0
1610547365.564,70.801,49.805,31.738,41.992,17.090,0
1610547365.567,13.672,60.059,59.570,-1.465,75.195,0
1610547365.571,-151.855,59.082,103.516,-143.555,36.621,0
1610547365.575,-191.406,48.340,190.918,-176.270,41.992,0
1610547365.579,-73.242,47.363,49.316,-63.477,20.508,0
1610547365.583,62.012,55.176,16.113,39.551,43.945,0
1610547365.585,19.531,61.523,170.898,-5.371,53.223,0
1610547365.589,-120.605,59.570,159.180,-121.582,-19.531,0
1610547365.593,-153.809,57.129,16.113,-162.109,-32.715,0
1610547365.597,-59.082,51.758,7.812,-76.172,8.301,0
1610547365.601,73.242,51.270,62.012,41.992,17.578,0
1610547365.605,55.664,52.734,54.199,33.203,-20.508,0
1610547365.609,-94.727,43.945,11.230,-74.707,-8.301,0
1610547365.612,-156.250,38.086,-31.250,-127.930,53.223,0
1610547365.616,-65.918,37.598,106.934,-51.270,67.871,0
1610547365.620,78.613,38.086,152.832,65.430,71.777,0
1610547365.624,83.984,43.457,114.746,65.918,51.270,0
1610547365.628,-56.152,44.922,120.117,-42.480,3.418,0
1610547365.631,-126.465,38.574,96.680,-106.934,23.438,0
1610547365.635,-59.082,29.297,9.277,-40.527,33.203,0
1610547365.639,84.961,23.926,-59.570,70.801,18.555,0
1610547365.643,124.512,23.438,59.570,90.332,51.270,0
1610547365.647,-13.184,28.809,140.137,-2.930,3.906,0
1610547365.651,-112.305,29.785,2.441,-85.449,-46.387,0
1610547365.655,-53.223,27.832,-141.113,-40.039,-19.531,0
1610547365.658,91.309,37.109,-19.043,79.102,78.125,0
1610547365.662,144.043,33.691,145.020,117.676,53.223,0
1610547365.666,20.996,22.461,110.840,26.855,1.465,0
1610547365.670,-89.355,27.344,44.922,-67.871,51.270,0
1610547365.674,-54.199,27.832,28.320,-36.133,37.109,0
1610547365.690,89.844,24.902,52.734,80.078,53.711,0
1610547365.694,160.645,22.461,10.742,118.652,53.223,0
1610547365.698,47.363,20.020,43.945,42.480,27.832,0
1610547365.702,-65.918,25.879,74.707,-54.688,40.527,0
1610547365.706,-49.316,31.738,-10.742,-40.527,8.301,0
1610547365.710,79.590,25.391,-79.590,78.613,32.227,0
1610547365.714,176.270,21.973,-143.066,142.090,81.543,0
1610547365.717,89.355,22.949,45.410,70.312,20.508,0
1610547365.721,-48.340,20.508,165.527,-41.016,27.832,0
1610547365.725,-60.547,19.531,21.973,-46.875,23.438,0
1610547365.729,68.848,17.090,-12.695,56.641,-45.410,0
1610547365.733,176.758,15.625,81.543,141.113,29.785,0
1610547365.736,94.727,11.719,147.461,91.797,104.004,0
1610547365.740,-42.969,13.672,94.238,-25.391,83.008,0
1610547365.744,-58.105,22.461,49.805,-40.039,92.773,0
1610547365.748,61.523,16.602,51.758,63.965,83.496,0
1610547365.752,178.711,10.254,22.461,149.414,41.992,0
1610547365.756,115.234,12.695,31.738,106.934,50.781,0
1610547365.760,-26.367,13.672,42.480,-4.883,54.688,0
1610547365.763,-61.035,14.160,14.160,-40.527,29.297,0
1610547365.767,37.109,17.090,11.230,46.875,-20.020,0
1610547365.771,173.828,21.973,-109.863,148.438,6.348,0
1610547365.775,137.207,16.602,-14.160,111.328,59.082,0
1610547365.779,-13.672,22.461,202.637,-7.812,37.598,0
1610547365.781,-65.918,25.391,77.637,-56.641,22.461,0
1610547365.785,18.555,21.484,33.203,21.484,54.688,0
1610547365.789,160.645,16.602,92.773,121.094,51.270,0
1610547365.793,155.273,14.648,130.859,109.375,30.273,0
1610547365.797,3.906,24.414,95.215,-0.977,7.324,0
1610547365.801,-68.848,30.273,-31.250,-63.965,-37.598,0
1610547365.805,7.812,29.785,-61.035,5.371,-81.055,0
1610547365.808,152.832,25.391,79.590,122.559,18.066,0
1610547365.812,164.062,22.461,61.035,128.906,88.379,0
1610547365.816,19.531,27.344,-6.348,17.090,40.527,0
1610547365.820,-67.871,32.227,71.777,-63.965,24.414,0
1610547365.824,-12.207,38.574,93.262,-13.672,56.152,0
1610547365.825,126.953,40.527,30.762,108.398,69.824,0
1610547365.829,162.598,29.785,67.383,127.930,93.750,0
1610547365.833,30.273,26.367,159.668,29.297,62.500,0
1610547365.837,-79.590,25.879,75.195,-54.199,25.879,0
1610547365.841,-43.945,29.297,-9.277,-20.508,12.695,0
1610547365.845,103.027,37.598,-12.695,104.004,70.801,0
1610547365.849,171.875,30.762,22.461,146.484,72.754,0
1610547365.852,45.410,25.879,87.891,41.504,-3.418,0
1610547365.856,-75.195,35.645,-82.031,-67.383,-16.602,0
1610547365.860,-55.176,33.691,-77.148,-48.828,5.859,0
1610547365.864,84.473,27.832,120.605,72.266,54.688,0
1610547365.868,170.898,28.809,65.918,130.859,52.246,0
1610547365.871,58.105,24.902,88.867,56.641,83.008,0
1610547365.875,-69.336,14.648,63.965,-49.805,62.012,0
1610547365.879,-65.430,17.090,41.016,-42.969,10.742,0
1610547365.883,72.266,26.367,26.367,75.684,86.914,0
1610547365.887,178.711,31.250,-37.598,141.113,50.293,0
1610547365.891,78.613,19.043,11.719,64.941,-19.531,0
1610547365.895,-71.289,8.789,49.316,-51.270,-16.602,0
1610547365.898,-87.402,10.742,-24.902,-67.871,26.855,0
1610547365.902,25.879,11.230,-101.074,27.344,27.344,0
1610547365.906,141.602,7.324,80.078,119.629,34.180,0
1610547365.910,82.520,4.395,185.547,76.660,84.961,0
1610547365.914,-66.406,15.137,96.191,-43.457,41.016,0
1610547365.915,-93.262,13.184,2.930,-66.895,-33.691,0
1610547365.919,18.066,3.906,37.598,32.227,-21.484,0
1610547365.923,149.902,13.672,62.012,116.211,5.371,0
1610547365.927,102.051,25.879,33.691,75.195,-8.789,0
1610547365.931,-47.852,25.391,44.434,-32.227,-27.344,0
1610547365.935,-91.797,19.531,20.508,-76.660,-27.832,0
1610547365.939,-2.930,21.484,24.902,7.812,27.344,0
1610547365.942,137.695,22.949,-57.129,116.211,49.805,0
1610547365.946,119.629,20.020,19.043,89.355,71.777,0
1610547365.950,-27.344,21.484,237.305,-16.602,60.547,0
1610547365.954,-90.820,24.902,111.328,-65.918,22.949,0
1610547365.958,-9.766,25.391,43.457,-2.930,33.691,0
1610547365.960,133.301,26.855,110.352,108.887,42.480,0
1610547365.964,134.766,21.484,166.016,108.887,66.406,0
1610547365.968,-5.859,19.531,129.395,6.348,39.062,0
1610547365.972,-86.426,26.855,62.012,-63.965,2.930,0
1610547365.976,-35.645,29.297,80.078,-17.090,3.418,0
1610547365.980,106.934,37.598,69.824,94.238,78.125,0
1610547365.984,144.043,38.086,-2.930,112.793,41.504,0
1610547365.987,2.930,30.762,-64.453,12.207,-44.922,0
1610547365.991,-99.609,31.738,77.148,-79.590,-5.859,0
1610547365.995,-43.457,33.691,155.273,-33.203,4.395,0
1610547365.999,103.516,30.762,91.309,91.309,30.762,0
1610547366.003,147.461,32.715,115.723,124.023,42.969,0
1610547366.005,28.320,36.133,187.012,24.902,19.043,0
1610547366.009,-79.102,38.086,128.418,-71.777,17.090,0
1610547366.013,-52.246,41.016,44.434,-41.016,20.020,0
1610547366.017,91.309,40.039,91.797,70.312,82.031,0
1610547366.021,172.363,31.738,125.000,125.488,108.398,0
1610547366.025,65.430,35.645,88.379,54.199,32.715,0
1610547366.029,-61.523,40.527,-41.504,-50.781,37.598,0
1610547366.032,-53.223,32.715,-28.809,-45.898,42.480,0
1610547366.036,69.824,30.762,141.602,65.918,62.988,0
1610547366.040,164.062,35.645,57.129,132.324,27.832,0
1610547366.044,82.031,36.621,59.570,72.754,-17.090,0
1610547366.048,-52.246,37.598,152.832,-38.086,36.133,0
1610547366.065,-72.266,28.320,101.074,-58.594,52.246,0
1610547366.069,47.852,28.809,8.789,45.410,50.293,0
1610547366.073,162.598,33.691,-36.133,124.512,19.531,0
1610547366.077,84.473,28.809,69.824,65.430,0.488,0
1610547366.081,-52.734,25.879,114.746,-45.898,-12.695,0
1610547366.085,-75.195,30.273,-77.148,-61.035,-41.992,0
1610547366.089,30.273,37.109,-146.973,26.855,-58.105,0
1610547366.092,159.180,39.551,66.895,105.957,-2.441,0
1610547366.096,117.188,39.062,165.039,82.031,31.738,0
1610547366.100,-35.156,31.738,95.703,-19.043,7.324,0
1610547366.104,-82.520,30.273,33.691,-62.012,17.578,0
1610547366.108,15.137,38.574,54.688,27.344,3.418,0
1610547366.110,152.344,37.109,5.859,122.070,-17.578,0
1610547366.114,128.418,32.715,1.465,92.773,13.184,0
1610547366.118,-26.855,37.598,117.676,-12.695,52.734,0
1610547366.122,-81.055,37.109,102.539,-66.406,36.621,0
1610547366.126,0.977,26.855,43.457,0.488,20.996,0
1610547366.130,128.418,30.273,9.766,109.863,73.242,0
1610547366.134,130.859,29.785,37.109,109.863,68.848,0
1610547366.137,-12.695,23.926,122.070,0.000,-2.441,0
1610547366.141,-90.332,36.133,56.152,-73.242,-39.062,0
1610547366.145,-26.855,43.945,-111.328,-20.020,2.930,0
1610547366.149,115.723,33.203,-4.883,91.797,92.773,0
1610547366.153,143.066,27.344,169.922,117.676,81.543,0
1610547366.155,-3.906,30.762,112.305,15.625,49.316,0
1610547366.159,-102.051,22.461,37.598,-75.195,57.617,0
1610547366.163,-39.062,21.484,32.715,-27.832,36.621,0
1610547366.167,105.469,33.203,29.297,87.891,45.410,0
1610547366.171,156.250,37.598,2.930,108.398,72.754,0
1610547366.175,29.785,30.273,10.742,17.090,93.262,0
1610547366.179,-85.449,28.320,44.434,-78.613,81.055,0
1610547366.182,-51.758,35.156,43.457,-50.781,2.441,0
1610547366.186,83.496,30.273,-54.199,66.895,-7.324,0
1610547366.190,156.250,34.668,-62.988,130.371,52.246,0
1610547366.194,33.203,38.086,142.090,46.387,31.738,0
1610547366.198,-90.332,30.273,113.770,-66.406,-0.977,0
1610547366.201,-67.871,21.484,-3.418,-48.828,-14.648,0
1610547366.205,67.383,25.879,9.277,62.988,-12.695,0
1610547366.209,169.922,39.551,69.824,137.207,2.930,0
1610547366.213,74.219,38.086,137.207,70.312,65.430,0
1610547366.217,-69.824,28.809,36.621,-49.805,19.043,0
1610547366.221,-81.055,23.438,-40.039,-62.500,24.902,0
1610547366.225,37.598,29.297,-16.113,40.039,97.656,0
1610547366.228,152.832,41.016,-7.812,125.488,45.410,0
1610547366.232,88.379,49.805,-51.270,76.172,22.461,0
1610547366.236,-57.617,44.922,-31.738,-39.551,20.020,0
1610547366.240,-89.355,32.227,129.395,-61.523,71.289,0
1610547366.244,22.949,27.832,57.129,28.320,78.125,0
1610547366.245,149.414,25.391,-31.250,104.980,-28.809,0
1610547366.249,96.680,26.855,100.098,65.430,-4.883,0
1610547366.253,-53.223,21.484,128.906,-42.480,40.527,0
1610547366.257,-93.262,21.973,-7.324,-72.754,24.902,0
1610547366.261,15.137,33.691,-35.156,22.461,17.090,0
1610547366.265,144.043,34.180,-8.789,126.953,41.504,0
1610547366.269,113.770,40.527,79.590,101.562,100.586,0
1610547366.272,-25.879,45.898,57.129,-14.160,101.562,0
1610547366.276,-88.379,39.551,-92.773,-74.707,40.527,0
1610547366.280,-8.789,35.156,-30.273,-8.301,-15.137,0
1610547366.284,139.648,34.180,47.363,107.422,-28.809,0
1610547366.288,133.301,32.715,32.715,104.980,-28.320,0
1610547366.290,-19.531,25.391,82.031,-8.301,38.086,0
1610547366.294,-93.750,22.461,101.074,-77.148,73.730,0
1610547366.298,-19.531,24.902,3.906,-20.020,8.789,0
1610547366.302,123.047,26.367,-7.812,99.609,6.348,0
1610547366.306,138.672,33.691,57.617,120.117,19.531,0
1610547366.310,-1.465,34.180,77.148,9.277,20.996,0
1610547366.314,-94.727,35.156,30.273,-70.801,62.988,0
1610547366.317,-32.227,37.109,-103.516,-29.785,26.367,0
1610547366.321,119.629,39.551,-32.715,81.543,26.855,0
1610547366.325,153.320,33.203,166.016,117.188,40.527,0
1610547366.329,9.277,25.879,131.348,15.137,2.930,0
1610547366.333,-94.727,31.738,49.805,-82.520,16.602,0
1610547366.336,-55.664,32.227,38.574,-46.875,42.480,0
1610547366.340,93.750,35.645,67.383,72.754,3.418,0
1610547366.344,167.480,36.621,57.129,118.164,33.691,0
1610547366.348,41.504,36.621,57.617,31.250,44.434,0
1610547366.352,-76.660,35.156,78.125,-68.359,-25.391,0
1610547366.356,-51.758,29.785,31.250,-39.062,-22.461,0
1610547366.360,73.730,33.203,-40.039,69.824,29.785,0
1610547366.363,162.109,41.504,-64.941,117.188,-14.160,0
1610547366.367,61.035,39.551,145.020,39.551,-45.410,0
1610547366.371,-71.289,37.598,198.730,-62.012,41.992,0
1610547366.375,-66.406,38.086,66.406,-58.594,39.062,0
1610547366.379,56.641,36.133,58.594,41.504,21.484,0
1610547366.380,160.645,41.504,102.051,123.535,27.344,0
1610547366.384,79.590,43.945,157.227,74.707,27.344,0
1610547366.388,-61.523,38.086,88.867,-46.387,63.477,0
1610547366.392,-72.266,34.668,-10.254,-68.359,-0.488,0
1610547366.396,42.969,33.691,59.570,28.320,3.906,0
1610547366.400,145.996,27.832,34.180,109.863,20.020,0
1610547366.404,89.355,27.344,-52.734,69.336,0.488,0
1610547366.407,-50.293,33.691,-7.812,-45.410,23.926,0
1610547366.411,-80.566,40.039,130.371,-74.707,34.668,0
1610547366.415,32.227,45.410,104.492,29.785,65.918,0
1610547366.419,153.809,39.062,68.359,123.535,88.379,0
1610547366.423,104.004,33.203,154.297,85.938,108.398,0
1610547366.440,-47.852,31.738,163.574,-24.902,110.840,0
1610547366.444,-92.773,25.879,-0.488,-69.336,32.715,0
1610547366.448,-0.977,29.297,-56.152,0.488,-0.977,0
1610547366.452,126.953,32.715,23.438,93.750,34.668,0
1610547366.456,114.258,30.762,63.477,91.309,-20.996,0
1610547366.460,-28.320,33.203,-29.785,-23.438,-50.293,0
1610547366.464,-95.703,31.738,-140.137,-88.867,-17.090,0
1610547366.467,-15.625,33.203,25.391,-4.395,3.906,0
1610547366.471,125.488,40.039,110.840,104.492,18.066,0
1610547366.475,137.695,44.922,56.152,102.539,60.547,0
1610547366.479,6.836,51.270,73.242,4.395,47.363,0
1610547366.483,-81.543,45.898,64.453,-81.543,-32.715,0
1610547366.485,-36.133,33.691,28.809,-30.762,-10.254,0
1610547366.489,110.352,27.344,22.461,88.867,20.996,0
1610547366.493,144.043,30.273,65.430,119.141,29.785,0
1610547366.497,6.836,35.645,121.094,20.020,47.852,0
1610547366.501,-84.961,36.133,82.520,-72.266,42.969,0
1610547366.505,-38.086,45.410,-45.898,-25.391,-21.973,0
1610547366.509,101.562,46.875,-58.594,90.332,-64.941,0
1610547366.512,154.297,38.574,99.609,128.418,18.555,0
1610547366.516,34.180,38.574,158.203,33.691,91.797,0
1610547366.520,-80.566,41.504,-99.121,-61.035,-2.441,0
1610547366.524,-61.523,29.297,-80.078,-30.273,38.086,0
1610547366.528,83.984,26.367,151.855,66.406,117.188,0
1610547366.530,166.016,35.156,77.148,105.957,44.922,0
1610547366.534,52.246,26.367,92.773,33.691,41.504,0
1610547366.538,-77.637,23.926,111.328,-72.754,30.273,0
1610547366.542,-70.801,28.809,66.406,-66.895,27.832,0
1610547366.546,59.570,30.762,5.859,53.223,55.176,0
1610547366.550,157.715,32.715,-20.996,125.000,96.191,0
1610547366.554,65.918,28.320,41.016,60.547,61.523,0
1610547366.557,-66.895,34.668,123.047,-53.711,87.891,0
1610547366.561,-69.336,35.156,-4.883,-65.918,62.988,0
1610547366.565,48.828,23.438,-97.168,41.016,18.066,0
1610547366.569,155.762,26.855,130.371,124.512,90.820,0
1610547366.573,86.426,32.715,144.531,80.566,28.320,0
1610547366.575,-50.781,28.809,45.898,-27.832,14.648,0
1610547366.579,-75.195,27.832,47.363,-66.895,11.719,0
1610547366.583,26.855,25.391,93.750,28.320,6.836,0
1610547366.587,146.484,26.367,97.656,120.605,57.617,0
1610547366.591,96.191,34.180,100.586,83.008,47.852,0
1610547366.595,-49.316,34.180,81.055,-17.090,29.297,0
1610547366.599,-86.914,22.949,29.785,-65.918,20.996,0
1610547366.602,8.789,26.855,70.801,16.113,38.574,0
1610547366.606,134.766,35.156,-38.086,114.258,76.172,0
1610547366.610,111.816,31.250,32.715,84.961,67.383,0
1610547366.614,-28.320,33.203,235.352,-25.391,67.871,0
1610547366.618,-82.520,30.762,91.797,-81.055,43.945,0
1610547366.620,-2.930,30.762,35.645,-0.488,41.504,0
1610547366.624,131.348,37.109,97.656,108.398,58.594,0
1610547366.628,134.766,39.062,112.793,101.562,25.391,0
1610547366.632,-8.301,41.992,93.750,-0.488,33.691,0
1610547366.636,-83.496,39.551,7.324,-73.242,8.789,0
1610547366.640,-16.113,36.621,-14.648,-18.066,-38.574,0
1610547366.644,110.840,31.250,67.383,88.867,29.297,0
1610547366.647,134.766,27.832,101.562,103.516,124.023,0
1610547366.651,0.000,28.809,43.945,15.625,72.266,0
1610547366.655,-95.215,33.691,106.934,-78.125,0.000,0
1610547366.659,-39.062,39.062,92.773,-40.039,-13.184,0
1610547366.663,105.469,34.180,20.996,89.844,-32.715,0
1610547366.665,150.391,31.250,54.688,120.605,-27.344,0
1610547366.669,19.043,37.109,146.973,13.184,3.418,0
1610547366.673,-87.402,36.621,100.586,-74.219,31.738,0
1610547366.677,-52.246,29.785,7.812,-34.180,0.977,0
1610547366.681,84.473,29.785,36.133,73.242,33.203,0
1610547366.685,157.227,30.273,15.625,117.676,21.973,0
1610547366.689,41.504,26.367,61.035,41.992,13.184,0
1610547366.692,-88.379,22.949,-38.574,-61.523,27.344,0
1610547366.696,-67.383,24.414,-102.051,-51.270,-16.113,0
1610547366.700,67.383,25.879,88.867,57.617,-7.812,0
1610547366.704,156.250,25.879,86.426,120.117,-10.254,0
1610547366.708,64.941,34.180,122.070,55.176,22.461,0
1610547366.710,-70.312,36.133,158.203,-57.617,40.039,0
1610547366.714,-72.266,27.832,96.191,-53.223,25.391,0
1610547366.718,48.340,20.996,0.977,51.758,-11.230,0
1610547366.722,144.531,23.438,31.250,122.559,56.152,0
1610547366.726,72.754,29.785,127.930,69.336,38.086,0
1610547366.730,-64.453,31.738,76.172,-29.297,-14.160,0
1610547366.734,-80.078,34.668,-43.457,-48.828,21.484,0
1610547366.737,37.109,33.691,-116.211,29.297,-31.738,0
1610547366.741,146.973,27.832,33.203,109.863,-1.953,0
1610547366.745,92.773,32.715,211.914,75.195,83.008,0
1610547366.749,-44.922,42.480,134.277,-29.297,64.453,0
1610547366.753,-71.289,42.969,72.266,-69.824,88.867,0
1610547366.755,27.344,37.109,128.906,6.836,106.934,0
1610547366.759,147.949,41.016,74.707,103.516,52.246,0
1610547366.763,118.164,42.480,104.980,87.891,63.477,0
1610547366.767,-31.738,38.574,113.281,-20.996,-9.766,0
1610547366.771,-94.727,34.180,63.965,-75.684,-34.180,0
1610547366.775,-11.230,27.344,16.113,7.812,44.922,0
1610547366.779,121.582,26.367,-151.367,108.398,3.906,0
1610547366.782,115.234,32.715,-72.754,96.680,-37.109,0
1610547366.786,-26.855,40.039,169.434,-1.465,-9.277,0
1610547366.790,-90.332,43.457,101.562,-70.312,56.152,0
1610547366.794,-17.578,41.504,37.598,-16.113,96.680,0
1610547366.798,113.281,41.504,42.969,97.168,63.477,0
1610547366.801,130.371,35.156,105.469,109.863,7.324,0
1610547366.805,-6.836,31.250,98.145,6.348,-34.668,0
1610547366.809,-96.680,34.668,21.484,-74.707,-3.906,0
1610547366.813,-44.922,32.227,78.613,-31.250,19.531,0
1610547366.817,94.727,25.391,73.242,92.773,-35.645,0
1610547366.821,137.207,23.926,-12.207,118.164,-19.531,0
1610547366.825,7.324,24.414,-9.766,8.789,-13.184,0
1610547366.828,-91.309,29.297,146.973,-71.289,-0.488,0
1610547366.832,-46.875,46.875,175.781,-22.949,70.312,0
1610547366.836,87.402,49.805,91.797,83.984,93.750,0
1610547366.840,141.602,36.133,113.281,120.605,113.770,0
1610547366.844,20.508,28.320,188.477,23.926,108.887,0
1610547366.862,-88.867,35.645,127.930,-82.031,74.219,0
1610547366.866,-71.289,38.574,32.715,-58.594,57.129,0
1610547366.870,61.035,36.133,-2.930,62.500,90.332,0
1610547366.874,148.926,34.180,26.855,117.676,15.137,0
1610547366.878,47.852,27.344,133.301,43.457,-43.457,0
1610547366.882,-83.984,29.297,-12.695,-62.012,9.766,0
1610547366.886,-85.449,34.180,-61.523,-65.430,61.523,0
1610547366.889,45.898,29.785,109.375,54.688,42.969,0
1610547366.893,156.250,33.203,92.285,135.742,59.570,0
1610547366.897,73.730,45.898,88.379,72.266,75.195,0
1610547366.901,-73.242,41.016,142.578,-53.711,62.500,0
1610547366.905,-83.496,33.691,100.098,-73.242,28.809,0
1610547366.906,32.715,34.180,11.230,29.785,12.207,0
1610547366.910,148.438,34.668,11.230,109.375,53.711,0
1610547366.914,90.820,40.039,94.727,76.660,24.414,0
1610547366.918,-52.734,36.133,86.914,-23.926,-23.926,0
1610547366.922,-78.125,37.598,3.418,-61.035,-19.043,0
1610547366.926,24.414,37.598,-43.945,18.555,-4.883,0
1610547366.930,146.973,32.227,0.000,115.234,35.645,0
1610547366.933,104.004,32.715,125.977,90.332,48.828,0
1610547366.937,-38.086,30.273,84.473,-24.414,-0.977,0
1610547366.941,-84.961,34.668,-106.445,-84.473,-14.648,0
1610547366.945,-3.906,41.992,44.922,-7.324,19.531,0
1610547366.949,137.207,41.504,134.766,107.910,-6.836,0
1610547366.951,127.930,40.039,118.164,93.262,-10.254,0
1610547366.955,-23.438,38.086,159.668,-14.160,2.441,0
1610547366.959,-88.867,40.039,126.465,-73.242,20.508,0
1610547366.963,-5.859,41.992,68.359,-6.836,12.695,0
1610547366.967,138.184,40.039,50.293,110.352,72.266,0
1610547366.971,144.531,39.551,58.594,116.699,98.633,0
1610547366.975,-9.277,33.203,79.102,8.301,40.527,0
1610547366.978,-86.426,36.133,25.391,-71.289,-15.625,0
1610547366.982,-20.996,33.203,-124.512,-21.973,-61.035,0
1610547366.986,116.211,27.344,-54.199,89.355,21.484,0
1610547366.990,151.367,42.969,188.477,107.910,54.688,0
1610547366.994,19.531,51.270,184.570,15.625,15.625,0
1610547366.996,-82.031,47.363,80.566,-57.129,-15.625,0
1610547367.000,-41.992,44.434,79.590,-24.414,-38.086,0
1610547367.004,96.191,37.109,83.984,75.684,-19.043,0
1610547367.008,146.973,36.621,71.289,114.258,27.832,0
1610547367.012,31.250,36.133,98.633,35.156,-12.695,0
1610547367.016,-74.219,27.832,84.473,-58.594,-13.184,0
1610547367.020,-48.828,30.762,58.105,-44.434,58.105,0
1610547367.023,89.355,34.668,-44.434,71.289,17.090,0
1610547367.027,160.156,26.367,-57.617,118.164,15.137,0
1610547367.031,42.969,28.320,186.523,37.109,40.527,0
1610547367.035,-76.172,35.645,141.113,-53.711,-24.902,0
1610547367.039,-65.430,36.621,-10.254,-46.875,1.465,0
1610547367.041,54.199,31.250,35.156,61.035,29.297,0
1610547367.045,151.367,34.668,89.844,129.395,-20.996,0
1610547367.049,65.918,36.133,163.574,63.965,33.203,0
1610547367.053,-66.406,36.621,173.340,-47.852,118.652,0
1610547367.057,-71.289,36.133,61.035,-56.641,29.297,0
1610547367.061,54.199,34.180,-4.883,59.082,-18.555,0
1610547367.065,159.668,37.109,23.926,127.930,66.895,0
1610547367.068,76.660,29.297,-5.859,58.105,69.336,0
1610547367.072,-58.105,29.297,45.410,-53.711,42.480,0
1610547367.076,-75.684,30.762,161.621,-72.754,60.059,0
1610547367.080,29.785,27.832,96.191,23.926,87.402,0
1610547367.084,150.391,34.180,23.438,117.676,23.926,0
1610547367.086,106.445,33.691,125.488,84.961,-1.465,0
1610547367.090,-41.016,23.438,123.047,-27.832,-7.324,0
1610547367.094,-90.820,34.180,-44.434,-67.871,-33.203,0
1610547367.098,-3.906,36.621,-37.598,18.555,-8.301,0
1610547367.102,129.395,29.785,83.496,117.188,42.969,0
1610547367.106,115.723,37.598,76.172,93.750,49.316,0
1610547367.110,-40.039,32.227,31.738,-24.902,31.738,0
1610547367.113,-99.609,25.391,62.012,-75.684,59.082,0
1610547367.117,-12.207,31.250,95.703,4.883,77.637,0
1610547367.121,128.906,32.715,48.828,105.957,25.391,0
1610547367.125,134.277,34.668,-1.953,98.145,15.137,0
1610547367.129,-11.230,39.551,37.598,-6.348,47.852,0
1610547367.130,-91.797,33.203,126.953,-79.590,21.973,0
1610547367.134,-16.602,32.715,74.219,-12.695,10.254,0
1610547367.138,125.488,38.086,20.020,108.398,21.973,0
1610547367.142,144.531,31.738,72.754,121.582,44.922,0
1610547367.146,6.836,29.297,123.047,13.672,86.426,0
1610547367.150,-86.426,32.227,41.016,-78.125,60.059,0
1610547367.154,-35.645,32.227,-98.145,-40.039,42.969,0
1610547367.157,99.609,27.832,-74.219,69.824,66.895,0
1610547367.161,148.926,31.738,170.410,108.887,107.422,0
1610547367.165,20.508,35.156,187.988,19.531,74.219,0
1610547367.169,-92.285,31.738,58.105,-74.219,-24.902,0
1610547367.173,-49.805,30.762,73.242,-44.922,-11.719,0
1610547367.190,83.984,33.691,97.168,72.754,36.133,0
1610547367.194,154.297,35.645,53.711,127.441,35.156,0
1610547367.198,38.574,32.715,91.797,41.016,34.668,0
1610547367.202,-91.309,33.203,111.328,-67.383,-4.395,0
1610547367.206,-73.730,27.832,76.172,-54.199,-12.207,0
1610547367.210,53.711,31.250,-35.156,60.547,9.277,0
1610547367.214,139.648,30.273,-71.777,114.258,63.477,0
1610547367.217,53.223,34.180,106.934,45.410,37.109,0
1610547367.221,-70.801,36.133,184.082,-55.176,6.348,0
1610547367.225,-77.637,30.762,50.293,-66.406,39.062,0
1610547367.229,47.363,31.250,23.438,39.551,73.730,0
1610547367.233,149.902,25.879,121.094,116.211,83.496,0
1610547367.235,68.848,28.809,151.855,64.941,42.969,0
1610547367.239,-69.336,27.832,125.977,-46.387,14.648,0
1610547367.243,-82.031,27.344,65.918,-69.336,-4.883,0
1610547367.247,27.832,31.250,97.168,33.203,37.109,0
1610547367.251,146.973,31.738,89.355,114.258,58.105,0
1610547367.255,93.750,32.715,59.082,69.336,-3.418,0
1610547367.259,-50.781,29.297,62.500,-32.227,-26.855,0
1610547367.262,-81.543,24.414,75.684,-71.289,-52.246,0
1610547367.266,21.484,23.438,101.562,14.648,-9.766,0
1610547367.270,148.926,18.555,-35.156,104.980,51.758,0
1610547367.274,113.281,17.090,37.109,71.777,59.570,0
1610547367.278,-34.180,27.832,267.090,-32.227,68.848,0
1610547367.280,-83.984,36.133,142.090,-71.289,67.383,0
1610547367.284,-2.441,37.109,4.395,6.836,12.207,0
1610547367.288,122.070,29.297,88.379,98.633,35.645,0
1610547367.292,113.770,28.809,159.180,89.844,62.500,0
1610547367.296,-26.855,32.227,106.934,-14.160,-6.348,0
1610547367.300,-98.633,27.832,26.855,-76.660,10.742,0
1610547367.304,-30.762,28.809,62.012,-4.395,93.262,0
1610547367.307,112.305,30.762,86.914,92.285,19.043,0
1610547367.311,128.418,20.508,47.852,84.473,23.926,0
1610547367.315,-17.090,17.090,50.293,-7.324,54.688,0
1610547367.319,-99.609,23.926,168.945,-78.125,58.105,0
1610547367.323,-38.574,30.762,145.020,-31.738,28.320,0
1610547367.329,93.262,29.297,52.246,82.031,25.879,0
1610547367.333,140.137,25.879,71.289,112.305,51.270,0
1610547367.337,20.020,30.762,190.430,17.090,21.973,0
1610547367.341,-95.703,28.320,144.043,-77.148,5.859,0
1610547367.345,-58.594,20.996,36.133,-49.316,-16.113,0
1610547367.349,83.008,21.973,11.719,68.848,11.719,0
1610547367.353,147.949,26.367,88.867,119.141,22.461,0
1610547367.356,36.133,34.180,227.539,32.227,66.406,0
1610547367.360,-76.660,38.086,46.875,-70.801,45.410,0
1610547367.364,-53.223,32.227,8.301,-53.223,15.625,0
1610547367.368,87.402,27.832,187.012,56.641,80.566,0
1610547367.372,174.316,30.273,125.000,113.281,87.402,0
1610547367.370,66.895,28.809,140.137,48.340,69.336,0
1610547367.374,-71.777,22.949,188.965,-52.734,83.984,0
1610547367.378,-72.266,23.926,132.812,-51.758,78.613,0
1610547367.382,53.223,27.832,37.598,59.082,60.059,0
1610547367.386,148.926,26.855,32.227,124.023,77.148,0
1610547367.390,66.895,27.344,120.117,62.500,78.125,0
1610547367.394,-67.383,34.668,101.074,-41.992,6.348,0
1610547367.397,-73.730,32.715,35.645,-58.594,58.105,0
1610547367.401,38.574,13.672,-112.305,28.809,21.484,0
1610547367.405,130.859,6.348,-4.395,99.121,-81.055,0
1610547367.409,59.082,15.137,216.797,52.246,-0.488,0
1610547367.413,-83.496,17.578,153.320,-66.406,12.207,0
1610547367.415,-113.770,7.324,83.008,-95.703,1.953,0
1610547367.419,-7.812,6.348,89.844,-1.465,4.883,0
1610547367.423,119.141,12.695,80.078,89.355,36.133,0
1610547367.427,78.613,8.301,94.727,56.152,10.742,0
1610547367.431,-61.523,12.207,140.137,-47.363,-17.090,0
1610547367.435,-102.051,23.438,48.828,-82.031,-51.270,0
1610547367.439,-9.766,18.066,39.551,-7.324,0.977,0
1610547367.442,125.977,6.836,-0.488,92.285,123.535,0
1610547367.446,97.656,7.812,17.090,76.172,55.664,0
1610547367.450,-40.527,18.066,251.953,-33.203,37.598,0
1610547367.454,-96.191,14.160,168.457,-85.449,33.691,0
1610547367.458,-20.508,15.137,63.477,-25.391,7.324,0
1610547367.460,119.141,34.668,124.512,79.102,54.199,0
1610547367.464,124.023,37.598,177.246,96.680,75.195,0
1610547367.468,-20.996,25.879,132.324,-10.742,26.367,0
1610547367.472,-104.492,13.184,55.176,-100.098,-10.254,0
1610547367.476,-36.133,11.719,60.059,-45.410,-12.695,0
1610547367.480,99.609,15.625,48.340,82.520,27.832,0
1610547367.484,123.535,16.602,19.531,105.469,54.688,0
1610547367.487,-6.836,15.137,29.297,-11.719,27.344,0
1610547367.491,-102.539,15.137,120.117,-97.168,-20.996,0
1610547367.495,-61.035,14.648,82.520,-52.246,-50.293,0
1610547367.499,81.055,11.230,-12.695,64.453,14.648,0
1610547367.503,139.160,12.695,72.754,101.074,40.527,0
1610547367.505,20.020,15.625,211.426,8.301,13.184,0
1610547367.509,-98.633,13.184,173.828,-88.379,38.086,0
1610547367.513,-75.684,19.531,86.914,-54.688,61.035,0
1610547367.517,67.383,21.484,74.219,68.359,56.152,0
1610547367.521,136.230,7.812,109.375,108.887,77.148,0
1610547367.525,22.949,3.418,110.352,23.926,74.707,0
1610547367.529,-94.727,6.348,-37.109,-75.684,29.297,0
1610547367.532,-81.055,17.090,-16.602,-77.148,39.062,0
1610547367.536,46.387,27.344,114.258,27.344,29.297,0
1610547367.540,144.531,29.297,69.824,102.539,52.246,0
1610547367.544,53.711,24.414,132.324,45.410,89.355,0
1610547367.548,-81.543,21.484,173.828,-65.918,68.359,0
1610547367.551,-89.355,19.043,80.078,-70.801,55.176,0
1610547367.555,24.414,21.484,-5.371,38.574,86.426,0
1610547367.559,132.812,24.902,2.930,115.234,96.680,0
1610547367.563,67.871,20.996,136.230,57.617,57.129,0
1610547367.567,-69.824,20.996,163.574,-60.059,21.484,0
1610547367.571,-93.750,21.973,-27.344,-79.102,-7.812,0
1610547367.575,13.672,20.508,-121.582,9.277,-18.555,0
1610547367.578,131.836,13.672,51.270,84.961,8.789,0
1610547367.582,78.613,18.066,154.785,60.547,4.883,0
1610547367.586,-63.965,19.531,107.910,-48.828,-6.348,0
1610547367.590,-98.145,13.184,52.734,-88.379,-2.441,0
1610547367.594,-11.719,8.301,61.035,1.953,6.836,0
1610547367.611,119.629,10.254,53.711,101.562,44.922,0
1610547367.615,104.980,14.160,83.984,72.266,82.031,0
1610547367.619,-49.805,11.230,113.770,-52.734,46.387,0
1610547367.623,-116.699,14.160,21.973,-102.051,-15.625,0
1610547367.627,-27.344,18.066,14.648,-20.508,15.625,0
1610547367.631,111.328,15.625,-80.566,87.402,44.434,0
1610547367.635,102.051,15.137,-50.781,86.426,21.484,0
1610547367.638,-41.504,13.672,191.895,-24.902,38.574,0
1610547367.642,-112.793,11.230,122.559,-97.168,83.984,0
1610547367.646,-40.039,15.625,-22.949,-30.273,28.809,0
1610547367.650,98.633,11.230,9.277,72.754,4.395,0
1610547367.654,117.676,4.395,103.516,85.449,52.246,0
1610547367.655,-18.066,13.672,91.309,-6.348,50.781,0
1610547367.659,-116.211,18.555,4.395,-102.539,23.926,0
1610547367.663,-66.895,19.043,-2.930,-56.152,-7.324,0
1610547367.667,79.102,18.066,8.789,72.754,-14.648,0
1610547367.671,128.418,11.230,-12.695,89.355,14.160,0
1610547367.675,1.953,10.742,17.578,2.930,39.062,0
1610547367.679,-109.375,18.555,18.066,-79.102,38.086,0
1610547367.682,-75.684,22.461,9.277,-57.129,-11.230,0
1610547367.686,70.801,19.531,-42.480,52.246,-10.254,0
1610547367.690,140.625,20.020,-117.188,97.656,46.875,0
1610547367.694,30.762,10.742,110.352,20.508,95.215,0
1610547367.698,-100.098,2.930,137.207,-80.566,48.828,0
1610547367.700,-86.914,12.695,-7.812,-67.871,-11.719,0
1610547367.704,54.688,15.137,-1.953,39.551,0.000,0
1610547367.708,134.277,5.371,51.758,93.750,24.902,0
1610547367.712,33.691,6.348,77.148,24.414,-11.230,0
1610547367.716,-90.820,14.648,37.598,-73.730,-34.668,0
1610547367.720,-90.332,16.602,12.695,-78.613,63.477,0
1610547367.724,32.715,12.207,-10.742,21.484,67.383,0
1610547367.727,145.020,11.230,35.156,101.562,51.270,0
1610547367.731,70.801,15.137,20.996,54.688,103.516,0
1610547367.735,-68.848,11.230,3.418,-57.129,41.992,0
1610547367.739,-85.938,9.277,94.727,-75.195,-22.949,0
1610547367.743,17.090,10.254,39.551,18.555,25.391,0
1610547367.745,129.883,12.695,-22.461,89.844,65.918,0
1610547367.749,75.195,11.719,121.582,47.852,87.891,0
1610547367.753,-69.336,13.184,125.000,-54.199,10.254,0
1610547367.757,-103.516,19.531,-10.254,-85.449,-2.930,0
1610547367.761,-1.465,9.277,17.578,4.883,75.195,0
1610547367.765,127.441,7.812,-1.953,103.516,36.621,0
1610547367.769,91.797,23.926,61.035,69.824,44.434,0
1610547367.772,-54.688,22.461,74.219,-52.734,78.613,0
1610547367.776,-99.121,14.160,-50.781,-96.191,58.105,0
1610547367.780,-17.578,10.742,46.875,-14.160,36.133,0
1610547367.784,109.375,14.648,110.840,98.633,81.543,0
1610547367.788,108.398,21.484,98.145,95.215,113.281,0
1610547367.791,-37.109,23.438,90.332,-18.066,58.105,0
1610547367.795,-109.375,25.879,89.355,-83.496,31.738,0
1610547367.799,-35.645,30.762,78.125,-9.766,43.945,0
1610547367.803,110.840,24.414,-8.789,103.516,37.598,0
1610547367.807,126.953,17.090,57.617,94.238,70.801,0
1610547367.811,-18.555,22.949,96.191,-14.648,46.875,0
1610547367.815,-105.469,19.043,-7.324,-82.031,-45.898,0
1610547367.818,-48.340,17.090,-93.262,-38.086,-17.578,0
1610547367.822,94.238,25.879,-65.430,68.848,-5.859,0
1610547367.826,134.766,26.855,129.395,94.238,16.602,0
1610547367.830,4.883,23.926,124.512,-3.418,-7.812,0
1610547367.834,-97.656,20.020,26.367,-84.961,-59.570,0
1610547367.835,-54.688,18.555,16.113,-51.758,-94.727,0
1610547367.839,82.520,19.531,49.805,56.152,-25.879,0
1610547367.843,135.254,22.461,18.555,97.168,45.410,0
1610547367.847,13.672,25.879,49.805,18.066,43.945,0
1610547367.851,-96.191,24.414,89.355,-75.684,34.668,0
1610547367.855,-76.172,25.879,12.695,-63.477,34.668,0
1610547367.859,56.152,26.855,-61.523,46.875,63.965,0
1610547367.862,136.719,22.949,-144.531,104.980,62.012,0
1610547367.866,35.156,20.020,51.270,26.367,34.668,0
1610547367.870,-87.402,28.809,175.781,-74.707,31.738,0
1610547367.874,-80.078,34.668,45.410,-61.035,33.203,0
1610547367.878,51.270,32.227,10.254,49.316,12.695,0
1610547367.881,149.902,25.391,71.777,120.605,61.035,0
1610547367.885,62.012,21.484,93.262,58.105,15.137,0
1610547367.889,-71.289,28.320,45.410,-57.617,-47.363,0
1610547367.893,-80.078,28.809,52.246,-60.059,30.273,0
1610547367.897,39.551,40.527,40.039,41.992,52.734,0
1610547367.901,160.645,49.316,-13.672,125.488,54.199,0
1610547367.905,95.703,43.945,-45.898,83.008,86.914,0
1610547367.908,-55.176,35.156,-22.461,-46.387,49.805,0
1610547367.912,-83.008,32.227,86.426,-75.195,-18.555,0
1610547367.916,28.809,41.504,39.551,29.785,-50.293,0
1610547367.920,147.461,38.086,4.883,122.559,-14.160,0
1610547367.924,106.934,29.785,118.652,97.168,32.227,0
1610547367.925,-29.297,44.922,140.625,-5.859,-15.137,0
1610547367.929,-72.754,54.199,44.922,-53.711,0.977,0
1610547367.933,18.066,60.547,-21.484,25.391,-6.836,0
1610547367.937,149.414,62.500,28.809,120.117,5.859,0
1610547367.941,118.652,46.875,105.469,104.004,35.645,0
1610547367.945,-28.809,41.016,24.902,-7.812,-3.906,0
1610547367.949,-80.078,49.316,-75.195,-67.383,5.859,0
1610547367.952,-3.418,41.992,78.613,2.441,53.223,0
1610547367.956,127.930,34.668,96.680,106.445,52.734,0
1610547367.960,132.812,36.621,-30.762,110.840,-21.484,0
1610547367.964,-9.277,36.133,63.477,3.906,-41.992,0
1610547367.968,-83.984,37.598,155.273,-62.988,14.160,0
1610547367.985,-25.879,31.250,92.773,-9.277,25.879,0
1610547367.989,109.863,33.203,36.621,89.355,47.852,0
1610547367.993,145.020,38.086,57.129,113.281,36.133,0
1610547367.997,25.391,46.387,128.418,23.438,-3.906,0
1610547368.001,-79.102,49.316,73.730,-68.848,-18.555,0
1610547368.005,-42.969,40.527,-41.504,-33.691,-45.898,0
1610547368.009,104.492,42.969,-40.039,85.938,6.348,0
1610547368.012,155.762,42.969,63.965,124.512,24.414,0
1610547368.016,37.109,42.480,132.812,40.039,3.906,0
1610547368.020,-74.707,42.480,-11.719,-58.594,2.441,0
1610547368.024,-53.711,38.574,-3.906,-41.992,7.324,0
1610547368.028,85.938,36.133,55.176,69.336,31.738,0
1610547368.031,162.598,34.668,0.488,120.605,70.312,0
1610547368.035,51.270,32.227,64.453,49.805,68.848,0
1610547368.039,-69.824,26.367,112.793,-50.293,30.273,0
1610547368.043,-55.176,26.367,78.613,-41.016,21.973,0
1610547368.047,61.523,27.832,18.555,62.988,84.961,0
1610547368.051,146.484,29.785,-49.316,123.047,63.477,0
1610547368.055,57.129,38.086,6.348,57.129,-30.273,0
1610547368.058,-80.078,40.039,118.164,-58.105,7.812,0
1610547368.062,-88.379,39.062,-3.418,-72.266,26.367,0
1610547368.066,32.715,40.039,-90.820,25.879,49.805,0
1610547368.070,141.602,38.574,76.660,99.609,77.148,0
1610547368.074,69.336,25.879,160.645,45.898,64.941,0
1610547368.076,-74.219,20.508,104.004,-59.570,53.711,0
1610547368.080,-96.191,25.879,52.246,-79.102,55.664,0
1610547368.084,15.137,21.484,20.996,13.672,66.406,0
1610547368.088,137.695,23.926,-2.930,113.770,43.457,0
1610547368.092,86.914,37.109,38.574,83.008,24.414,0
1610547368.096,-60.059,40.039,50.293,-43.945,39.551,0
1610547368.100,-94.238,34.180,17.090,-80.566,25.391,0
1610547368.103,5.859,38.574,60.059,17.090,82.520,0
1610547368.107,139.160,43.457,-47.852,105.469,64.941,0
1610547368.111,109.375,32.227,6.836,77.148,15.625,0
1610547368.115,-39.551,26.367,212.891,-26.367,40.039,0
1610547368.119,-91.797,32.227,96.680,-84.473,41.504,0
1610547368.120,-6.348,30.762,20.020,-12.695,37.598,0
1610547368.124,129.395,32.227,53.711,103.516,15.625,0
1610547368.128,131.348,34.180,122.559,110.352,39.551,0
1610547368.132,-8.789,22.461,120.605,-5.371,74.707,0
1610547368.136,-90.820,25.391,22.949,-94.727,52.246,0
1610547368.140,-21.484,36.133,-2.930,-28.320,68.848,0
1610547368.144,121.582,36.621,-10.254,92.285,59.082,0
1610547368.147,139.648,29.297,-46.387,105.957,-29.785,0
1610547368.151,4.395,24.902,-83.984,1.953,-40.039,0
1610547368.155,-85.449,23.926,37.109,-86.426,-25.879,0
1610547368.159,-32.715,34.180,132.812,-30.273,0.000,0
1610547368.163,105.469,42.480,73.242,88.867,47.363,0
1610547368.165,146.973,37.598,95.703,110.840,55.176,0
1610547368.169,18.066,33.203,185.059,14.648,61.523,0
1610547368.173,-84.473,31.738,105.957,-76.172,48.828,0
1610547368.177,-48.828,30.762,1.465,-33.691,-10.742,0
1610547368.181,94.727,34.180,62.988,83.984,56.641,0
1610547368.185,155.762,35.645,39.551,114.258,75.195,0
1610547368.189,34.180,31.250,69.824,32.227,-2.441,0
1610547368.192,-80.566,36.621,-17.578,-70.312,-9.766,0
1610547368.196,-63.477,41.016,-75.195,-68.848,-19.043,0
1610547368.200,66.406,40.039,103.516,53.223,-11.719,0
1610547368.204,162.598,42.969,87.402,120.605,-5.859,0
1610547368.208,62.012,41.992,66.406,41.992,-29.785,0
1610547368.210,-76.660,42.969,140.137,-62.988,7.812,0
1610547368.214,-62.500,44.434,122.559,-47.363,7.812,0
1610547368.218,62.012,39.062,57.129,63.965,33.691,0
1610547368.222,161.133,31.738,61.035,128.906,77.637,0
1610547368.226,73.730,30.273,130.371,69.336,39.551,0
1610547368.230,-74.219,22.461,93.750,-53.711,22.949,0
1610547368.234,-83.496,24.902,-34.180,-74.219,26.367,0
1610547368.237,28.320,40.527,-83.008,26.855,24.902,0
1610547368.241,150.879,48.340,77.637,113.770,69.336,0
1610547368.245,104.980,46.875,166.992,76.660,56.641,0
1610547368.249,-59.570,32.227,96.680,-46.387,16.602,0
1610547368.253,-104.492,19.531,11.230,-81.055,-22.461,0
1610547368.257,4.883,23.926,65.430,18.066,2.930,0
1610547368.261,139.648,23.926,92.773,109.863,18.066,0
1610547368.265,105.957,21.973,75.684,77.637,56.641,0
1610547368.269,-46.875,23.926,100.098,-37.598,55.176,0
1610547368.273,-94.238,20.508,66.895,-86.914,-4.395,0
1610547368.277,-0.977,24.414,-7.324,1.953,10.254,0
1610547368.281,123.535,26.855,-93.262,94.727,72.266,0
1610547368.284,111.328,32.715,2.930,77.148,95.215,0
1610547368.288,-33.691,35.645,169.922,-32.227,46.875,0
1610547368.292,-98.633,35.156,62.012,-84.961,1.465,0
1610547368.296,-17.578,37.109,6.348,-3.906,2.441,0
1610547368.300,121.094,33.691,55.176,97.656,25.879,0
1610547368.301,131.836,26.855,110.352,111.328,28.320,0
1610547368.305,-7.324,22.461,116.699,6.348,43.945,0
1610547368.309,-94.727,28.809,3.418,-83.496,20.020,0
1610547368.313,-45.410,28.320,35.156,-30.273,28.320,0
1610547368.317,104.004,30.273,103.516,85.938,113.281,0
1610547368.321,145.996,30.762,38.574,109.375,123.047,0
1610547368.325,10.742,34.180,-54.199,11.719,95.215,0
1610547368.328,-85.449,36.133,9.766,-69.824,0.488,0
1610547368.332,-39.551,30.273,137.207,-22.461,7.324,0
1610547368.336,97.168,36.133,77.148,86.426,43.457,0
1610547368.340,151.367,41.504,77.637,123.535,15.137,0
1610547368.344,26.367,36.621,188.477,34.180,57.617,0
1610547368.360,-87.891,32.715,141.602,-70.801,65.430,0
1610547368.364,-57.129,27.832,34.668,-47.852,18.555,0
1610547368.368,75.195,28.320,42.969,66.895,27.344,0
1610547368.372,149.902,36.133,96.680,123.047,50.293,0
1610547368.376,44.434,29.297,119.629,41.016,23.926,0
1610547368.380,-83.008,26.855,-33.203,-67.383,12.695,0
1610547368.384,-73.242,42.480,-100.098,-63.965,-29.297,0
1610547368.387,46.875,42.480,57.617,43.945,-34.180,0
1610547368.391,144.531,32.715,88.379,114.746,7.324,0
1610547368.395,61.523,34.668,57.129,56.152,28.320,0
1610547368.399,-74.707,39.551,98.145,-52.246,8.789,0
1610547368.403,-80.566,35.645,113.281,-63.477,6.836,0
1610547368.405,29.785,35.645,36.621,30.762,16.113,0
1610547368.409,136.719,36.133,18.066,104.004,36.133,0
1610547368.413,73.730,34.668,122.070,54.688,59.082,0
1610547368.417,-66.895,35.645,175.781,-50.781,114.258,0
1610547368.421,-84.473,37.109,41.504,-79.590,75.195,0
1610547368.425,19.043,38.574,-70.312,3.906,-12.207,0
1610547368.429,142.090,39.062,-6.348,102.051,26.855,0
1610547368.432,101.562,43.457,85.938,77.148,27.344,0
1610547368.436,-47.363,43.457,45.898,-32.227,26.855,0
1610547368.440,-84.961,36.133,-85.449,-76.660,62.988,0
1610547368.444,6.836,22.461,16.113,2.441,42.480,0
1610547368.448,135.254,16.602,116.699,103.027,52.246,0
1610547368.450,116.699,29.785,116.699,94.727,106.934,0
1610547368.454,-24.902,26.855,144.531,-13.672,97.656,0
1610547368.458,-87.402,26.855,96.191,-70.801,62.988,0
1610547368.462,-10.742,45.898,31.250,3.906,26.855,0
1610547368.466,129.395,51.270,-17.578,108.398,17.090,0
1610547368.470,135.254,45.898,-26.367,104.980,12.695,0
1610547368.474,-6.836,41.992,21.973,2.441,0.000,0
1610547368.477,-91.797,30.762,34.668,-70.312,6.348,0
1610547368.481,-31.738,27.344,-99.609,-13.672,5.859,0
1610547368.485,99.609,31.738,-66.406,91.309,19.531,0
1610547368.489,123.535,27.344,90.820,96.191,25.391,0
1610547368.493,2.441,27.344,77.148,4.395,11.719,0
1610547368.495,-83.496,32.715,48.828,-74.219,35.156,0
1610547368.499,-39.062,39.551,60.547,-34.668,9.766,0
1610547368.503,90.820,42.969,77.637,85.938,10.742,0
1610547368.507,146.973,44.922,65.918,125.488,82.031,0
1610547368.511,27.344,42.480,85.938,41.992,44.922,0
1610547368.515,-86.914,33.203,60.059,-57.129,6.836,0
1610547368.519,-59.082,25.879,16.602,-35.645,-10.254,0
1610547368.522,79.590,27.344,-22.461,68.848,32.715,0
1610547368.526,151.367,31.250,-32.227,106.934,81.543,0
1610547368.530,35.645,29.297,112.793,31.250,-43.457,0
1610547368.534,-79.590,32.227,138.184,-62.500,-85.938,0
1610547368.538,-57.129,31.738,69.336,-41.992,-0.488,0
1610547368.541,67.383,23.438,61.523,59.082,40.039,0
1610547368.545,159.668,31.738,43.457,119.629,43.457,0
1610547368.549,68.359,39.062,86.914,64.941,21.484,0
1610547368.553,-64.941,38.574,90.332,-45.898,48.828,0
1610547368.557,-69.824,37.109,26.367,-51.758,29.297,0
1610547368.561,43.457,35.645,20.508,52.246,27.344,0
1610547368.565,157.715,40.527,2.441,126.953,35.645,0
1610547368.568,80.566,35.156,-40.039,64.941,-11.230,0
1610547368.572,-72.754,27.344,22.949,-60.059,9.277,0
1610547368.576,-88.379,27.832,118.652,-79.590,-4.395,0
1610547368.580,24.902,29.785,50.781,30.762,9.277,0
1610547368.584,138.672,25.879,5.859,123.535,34.668,0
1610547368.585,89.844,30.762,108.887,78.125,47.852,2
1610547368.589,-46.875,43.945,184.082,-35.156,118.164,0
1610547368.593,-83.008,44.434,28.809,-72.266,58.594,0
1610547368.597,6.348,38.086,-25.879,6.836,20.020,0
1610547368.601,142.090,41.016,5.859,98.633,65.430,0
1610547368.605,125.000,40.039,20.020,82.520,36.133,0
1610547368.609,-31.250,38.574,31.250,-15.625,24.902,0
1610547368.612,-84.961,47.852,-125.977,-74.707,-12.695,0
1610547368.616,-0.488,44.922,-15.137,-3.906,-10.254,0
1610547368.620,131.348,32.715,109.375,104.004,16.113,0
1610547368.624,129.883,16.113,92.285,96.680,58.105,0
1610547368.628,-17.578,17.090,139.648,-3.906,78.125,0
1610547368.630,-89.844,36.133,101.562,-69.824,33.691,0
1610547368.634,-22.461,41.504,38.574,-4.883,18.066,0
1610547368.638,113.770,35.156,-23.438,106.934,-20.996,0
1610547368.642,131.836,33.691,43.457,117.676,8.301,0
1610547368.646,-0.488,34.180,130.859,11.230,52.734,0
1610547368.650,-84.961,33.691,32.715,-67.871,28.320,0
1610547368.654,-31.738,27.832,-103.027,-16.113,37.109,0
1610547368.657,106.445,18.555,-89.844,93.750,25.879,0
1610547368.661,145.996,17.090,84.473,115.234,-43.457,0
1610547368.665,26.855,25.391,154.785,14.648,-7.324,0
1610547368.669,-67.383,32.715,65.918,-72.754,35.156,0
1610547368.673,-36.133,21.484,58.105,-40.527,26.855,0
1610547368.675,91.309,21.484,68.848,75.684,8.789,0
1610547368.679,151.855,27.344,43.457,125.488,43.945,0
1610547368.683,37.109,27.344,82.031,41.992,58.594,0
1610547368.687,-75.684,23.438,97.168,-65.918,16.113,0
1610547368.691,-55.664,22.461,70.312,-44.434,18.066,0
1610547368.695,66.895,22.461,-51.758,68.848,17.578,0
1610547368.699,152.832,26.367,-125.000,120.117,5.371,0
1610547368.702,60.059,31.250,86.914,54.688,-15.137,0
1610547368.706,-71.777,29.297,157.227,-62.988,-9.766,0
1610547368.710,-70.312,30.273,43.457,-71.777,-1.953,0
1610547368.714,55.664,26.855,27.344,45.410,46.875,0
1610547368.718,160.645,25.879,87.891,124.023,70.312,0
1610547368.735,78.613,30.273,150.391,68.359,26.367,0
1610547368.739,-60.059,35.645,87.891,-42.969,18.555,0
1610547368.743,-69.336,39.551,60.059,-67.383,83.496,0
1610547368.747,33.691,35.156,88.379,28.320,68.359,0
1610547368.751,143.555,30.273,57.617,118.164,35.645,0
1610547368.755,98.145,28.320,60.059,77.637,32.227,0
1610547368.759,-47.852,30.273,71.289,-45.410,21.973,0
1610547368.762,-81.055,36.621,95.703,-79.102,43.457,0
1610547368.766,28.809,40.039,82.031,19.043,20.996,0
1610547368.770,147.949,38.574,-8.301,118.652,79.590,0
1610547368.774,104.492,32.227,77.148,93.262,90.332,0
1610547368.778,-33.203,21.973,208.008,-19.043,46.387,0
1610547368.781,-80.566,25.879,77.148,-69.336,7.324,0
1610547368.785,-3.906,36.133,-21.973,4.395,-35.645,0
1610547368.789,134.766,36.621,45.898,109.863,-5.371,0
1610547368.793,127.441,29.785,127.930,104.004,-16.602,0
1610547368.797,-18.555,36.133,131.348,2.441,59.082,0
1610547368.801,-87.402,44.922,-0.488,-72.754,54.688,0
1610547368.805,-24.902,31.738,17.578,-22.461,-4.883,0
1610547368.808,119.141,30.273,120.605,93.750,42.969,0
1610547368.812,137.695,40.039,55.664,107.422,20.508,0
1610547368.816,-4.395,36.133,15.137,12.207,-3.906,0
1610547368.820,-83.008,34.180,155.273,-60.059,50.293,0
1610547368.824,-25.879,33.203,153.320,-14.160,54.688,0
1610547368.825,115.234,32.715,76.172,98.145,38.086,0
1610547368.829,152.832,34.180,114.258,117.188,55.176,0
1610547368.833,14.648,30.762,182.617,23.438,26.367,0
1610547368.837,-83.984,30.762,137.695,-67.383,15.137,0
1610547368.841,-36.133,37.598,61.523,-41.016,39.062,0
1610547368.845,94.727,39.062,10.254,71.289,12.695,0
1610547368.849,151.367,32.715,49.805,109.863,26.367,0
1610547368.852,32.715,26.367,185.547,25.879,105.957,0
1610547368.856,-83.984,34.668,34.180,-72.266,66.895,0
1610547368.860,-59.082,37.598,-36.133,-50.293,11.719,0
1610547368.864,67.871,28.809,128.418,63.965,17.090,0
1610547368.868,149.902,33.203,99.609,117.676,31.738,0
1610547368.871,52.734,39.551,113.281,43.457,21.973,0
1610547368.875,-76.172,31.250,141.602,-58.105,13.184,0
1610547368.879,-69.336,27.344,124.512,-57.129,68.848,0
1610547368.883,55.664,35.645,48.828,46.387,88.379,0
1610547368.887,149.414,41.016,-0.488,114.258,43.457,0
1610547368.891,62.500,41.016,63.477,48.828,49.805,0
1610547368.895,-71.289,37.109,60.059,-59.082,51.758,0
1610547368.898,-81.055,32.227,-51.758,-78.125,-29.785,0
1610547368.902,35.645,35.156,-143.066,23.438,-25.879,0
1610547368.906,154.297,44.922,12.207,123.535,31.250,0
1610547368.910,91.797,45.898,175.781,81.543,3.418,0
1610547368.914,-50.781,37.598,136.230,-35.156,16.113,0
1610547368.916,-69.824,28.320,74.707,-60.059,4.395,0
1610547368.920,26.855,32.715,80.566,34.668,21.973,0
1610547368.924,140.625,39.551,59.082,126.953,57.617,0
1610547368.928,103.516,40.039,75.195,94.727,60.547,0
1610547368.932,-46.387,40.039,83.984,-24.902,9.766,0
1610547368.936,-95.215,33.691,19.043,-62.988,-9.277,0
1610547368.940,-0.977,30.273,8.789,27.832,32.715,0
1610547368.943,135.254,40.039,-72.266,116.699,70.312,0
1610547368.947,112.305,40.039,18.066,91.797,77.148,0
1610547368.951,-36.133,27.832,172.363,-12.207,46.387,0
1610547368.955,-86.914,30.762,67.871,-69.336,28.809,0
1610547368.959,-9.766,28.320,36.621,-5.371,52.734,0
1610547368.960,125.488,27.832,53.223,99.121,17.578,0
1610547368.964,121.094,34.668,113.770,104.980,6.836,0
1610547368.968,-19.531,36.621,118.652,-2.441,31.250,0
1610547368.972,-88.379,29.785,42.969,-77.148,-15.137,0
1610547368.976,-39.062,26.367,52.734,-16.602,-15.625,0
1610547368.980,101.074,34.668,35.156,88.867,81.055,0
1610547368.984,130.371,35.645,-12.695,103.516,78.125,0
1610547368.987,0.000,28.320,10.742,7.812,33.203,0
1610547368.991,-84.961,24.902,118.164,-75.684,25.879,0
1610547368.995,-32.227,29.785,139.648,-30.273,52.734,0
1610547368.999,107.422,32.715,39.551,80.566,56.641,0
1610547369.003,147.949,36.133,54.199,117.188,30.273,0
1610547369.006,14.160,26.855,119.141,30.273,37.598,0
1610547369.010,-92.773,23.438,81.543,-65.918,23.926,0
1610547369.014,-52.734,35.156,-25.879,-37.598,-40.039,0
1610547369.018,76.172,38.086,-54.688,66.895,-73.242,0
1610547369.022,142.578,38.574,68.848,115.234,-21.484,0
1610547369.026,41.504,37.109,99.609,35.645,0.000,0
1610547369.030,-74.707,28.809,-31.738,-69.824,-17.090,0
1610547369.033,-61.523,20.508,-25.879,-59.570,-18.066,0
1610547369.037,63.477,28.320,129.395,55.664,24.414,0
1610547369.041,154.785,40.039,88.379,122.559,40.039,0
1610547369.045,66.406,36.133,109.863,56.152,29.297,0
1610547369.049,-59.082,25.879,172.363,-52.246,59.082,0
1610547369.050,-64.941,27.344,136.230,-58.105,89.844,0
1610547369.054,44.434,27.832,21.973,54.199,33.691,0
1610547369.058,156.738,33.691,21.484,129.883,61.523,0
1610547369.062,94.238,39.551,111.328,74.707,98.145,0
1610547369.066,-48.340,33.203,109.863,-30.273,53.711,0
1610547369.070,-70.312,31.738,12.695,-56.152,19.531,0
1610547369.074,41.016,36.133,-155.762,33.203,-6.348,0
1610547369.077,159.668,35.156,-12.695,130.371,31.250,0
1610547369.081,105.469,23.926,218.750,86.914,85.938,0
1610547369.085,-31.250,27.344,160.156,-28.320,29.785,0
1610547369.089,-74.707,36.133,70.312,-67.383,-38.086,0
1610547369.093,10.742,33.691,99.609,20.508,5.859,0
1610547369.110,143.555,34.180,113.770,124.512,121.582,0
1610547369.114,121.094,40.039,67.871,99.121,41.992,0
1610547369.118,-20.996,38.574,112.305,-16.113,-13.672,0
1610547369.122,-72.754,38.086,146.973,-64.941,78.613,0
1610547369.126,7.812,49.316,70.801,16.113,50.781,0
1610547369.130,137.207,47.852,-10.254,122.070,47.363,0
1610547369.134,124.512,32.227,-7.324,98.633,23.438,0
1610547369.137,-16.602,31.738,78.613,-20.508,-13.672,0
1610547369.141,-82.520,40.527,107.910,-81.055,-5.371,0
1610547369.145,-11.719,45.898,-56.641,-12.695,4.395,0
1610547369.149,124.512,45.898,-69.824,103.516,30.762,0
1610547369.153,137.207,37.109,138.184,112.305,22.949,0
1610547369.155,6.836,39.551,157.227,10.254,13.672,0
1610547369.159,-79.590,38.574,78.125,-64.941,-3.418,0
1610547369.163,-34.180,30.273,93.750,-13.184,48.828,0
1610547369.167,107.910,31.250,59.082,100.586,53.223,0
1610547369.171,147.949,20.020,6.836,120.117,7.324,0
1610547369.175,16.602,15.137,45.410,32.715,35.156,0
1610547369.179,-73.730,28.320,25.879,-65.918,-41.504,0
1610547369.182,-42.480,33.691,44.922,-44.922,-92.773,0
1610547369.186,80.566,32.227,-6.836,71.289,-7.324,0
1610547369.190,143.066,32.715,-144.531,115.234,17.090,0
1610547369.194,38.086,40.527,84.961,33.203,36.133,0
1610547369.198,-59.082,41.992,165.527,-57.129,-33.691,0
1610547369.200,-51.758,35.156,41.504,-27.832,-74.707,0
1610547369.204,68.359,36.621,41.992,72.266,17.578,0
1610547369.208,151.367,41.016,49.805,118.652,23.926,0
1610547369.212,52.734,39.551,94.727,51.758,-3.906,0
1610547369.216,-66.895,29.297,76.172,-56.152,-4.883,0
1610547369.220,-61.523,28.809,-18.066,-53.223,-42.969,0
1610547369.224,58.594,41.016,-6.836,52.246,20.508,0
1610547369.227,160.156,46.387,68.848,120.117,98.145,0
1610547369.231,85.449,48.828,0.000,67.871,56.152,0
1610547369.235,-43.945,47.852,19.531,-46.387,23.438,0
1610547369.239,-57.617,43.457,110.840,-68.359,-22.949,0
1610547369.243,46.875,31.250,47.852,32.715,20.996,0
1610547369.246,152.832,30.273,-20.508,121.094,70.801,0
1610547369.250,97.168,41.992,86.426,81.543,72.754,0
1610547369.254,-46.875,42.969,145.508,-28.320,19.043,0
1610547369.258,-85.449,38.574,4.883,-62.988,-34.180,0
1610547369.262,19.531,38.086,-18.066,23.926,68.359,0
1610547369.266,143.555,39.551,1.953,121.582,82.031,0
1610547369.270,104.004,39.062,62.500,91.309,32.715,0
1610547369.273,-35.156,32.715,86.426,-23.926,37.109,0
1610547369.277,-86.914,24.902,-10.254,-76.660,68.848,0
1610547369.281,-2.930,33.203,74.219,-0.488,66.406,0
1610547369.285,133.301,50.293,92.773,122.070,32.715,0
1610547369.289,116.699,40.527,81.543,98.633,34.180,0
1610547369.291,-31.250,28.320,137.207,-29.785,33.691,0
1610547369.295,-94.727,33.203,141.602,-80.566,56.641,0
1610547369.299,-17.090,41.016,94.238,-8.301,77.637,0
1610547369.303,114.746,45.898,29.297,98.633,115.234,0
1610547369.307,130.859,40.527,43.945,105.957,50.781,0
1610547369.311,1.465,32.227,94.238,4.883,-4.395,0
1610547369.315,-86.426,28.320,55.664,-67.383,-29.785,0
1610547369.318,-29.785,32.227,-55.664,-20.020,-15.137,0
1610547369.322,102.539,33.203,-38.574,82.031,52.734,0
1610547369.326,123.047,25.879,131.836,96.191,11.230,0
1610547369.330,-5.859,20.508,176.270,0.977,8.301,0
1610547369.334,-93.262,28.809,138.184,-71.777,67.871,0
1610547369.336,-45.898,39.062,99.121,-23.926,30.762,0
1610547369.340,90.332,42.969,66.895,85.938,9.766,0
1610547369.344,142.090,39.062,17.578,115.723,-12.695,0
1610547369.348,23.438,36.133,101.074,26.855,26.367,0
1610547369.352,-85.938,40.039,124.512,-60.547,6.348,0
1610547369.356,-60.059,39.062,23.438,-41.504,-3.418,0
1610547369.360,69.824,34.668,-37.598,51.758,62.988,0
1610547369.363,145.508,36.621,-110.840,109.375,72.754,0
1610547369.367,48.828,39.062,63.477,35.645,31.738,0
1610547369.371,-71.289,35.645,190.430,-62.500,-15.625,0
1610547369.375,-70.801,30.762,73.730,-54.199,2.930,0
1610547369.379,47.363,28.320,21.484,46.387,-5.859,0
1610547369.381,141.602,30.762,76.660,117.676,41.016,0
1610547369.385,60.059,38.086,146.484,53.711,75.684,0
1610547369.389,-67.871,41.504,116.699,-57.617,59.082,0
1610547369.393,-70.801,39.062,62.500,-61.523,43.945,0
1610547369.397,43.457,32.227,19.043,42.480,-4.883,0
1610547369.401,143.066,27.344,-41.504,122.070,-9.277,0
1610547369.405,76.660,38.574,-58.105,65.918,31.250,0
1610547369.408,-57.129,39.062,46.387,-46.387,54.199,0
1610547369.412,-81.055,32.227,143.066,-69.824,59.082,0
1610547369.416,19.531,34.180,17.578,14.160,64.453,0
1610547369.420,134.277,38.086,-51.758,102.539,32.715,0
1610547369.424,91.797,34.668,95.215,71.777,24.902,0
1610547369.426,-46.387,26.367,189.941,-46.387,44.922,0
1610547369.430,-85.449,30.762,87.402,-88.867,54.199,0
1610547369.434,6.348,31.250,-15.137,1.465,10.254,0
1610547369.438,133.301,33.691,14.160,92.773,41.992,0
1610547369.442,102.539,32.715,113.770,74.707,94.727,0
1610547369.446,-37.109,20.020,55.176,-21.973,29.785,0
1610547369.450,-85.449,22.461,-60.547,-70.801,-3.418,0
1610547369.453,-5.859,29.785,51.270,-11.230,22.461,0
1610547369.457,126.465,34.180,87.402,96.680,23.926,0
1610547369.461,120.117,26.855,60.547,104.492,21.973,0
1610547369.465,-23.926,19.531,147.949,-13.184,59.082,0
1610547369.469,-92.285,25.391,94.727,-81.543,38.574,0
1610547369.471,-27.344,24.902,44.434,-18.555,50.781,0
1610547369.475,96.191,20.508,-23.438,87.402,38.574,0
1610547369.479,129.883,23.438,-0.488,104.980,12.695,0
1610547369.483,5.859,24.414,163.574,7.812,27.344,0
1610547369.487,-92.285,27.344,121.094,-76.172,8.301,0
1610547369.491,-44.922,30.762,20.508,-26.367,40.527,0
1610547369.495,90.820,18.555,-29.785,88.867,39.062,0
1610547369.498,134.766,13.672,39.551,113.281,-17.090,0
1610547369.502,16.602,23.926,145.996,25.879,4.883,0
1610547369.506,-83.008,25.391,26.367,-72.754,40.527,0
1610547369.510,-53.223,23.438,-6.348,-46.387,7.324,0
1610547369.514,74.219,31.738,75.195,75.195,10.742,0
1610547369.530,143.066,34.180,31.250,121.094,67.383,0
1610547369.534,37.109,31.738,89.355,39.062,101.562,0
1610547369.538,-73.730,30.762,80.566,-62.988,65.430,0
1610547369.542,-51.270,26.367,33.203,-45.898,31.738,0
1610547369.546,76.172,26.367,-12.207,60.059,30.762,0
1610547369.550,154.785,34.180,-112.793,118.164,44.922,0
1610547369.554,53.223,34.668,40.039,56.641,19.531,0
1610547369.557,-71.777,33.691,154.785,-46.875,-9.766,0
1610547369.561,-68.848,28.320,11.719,-48.828,8.301,0
1610547369.565,48.828,27.344,-64.941,53.223,19.043,0
1610547369.569,153.809,41.504,58.105,129.883,60.547,0
1610547369.573,77.148,34.180,108.398,68.359,37.598,0
1610547369.575,-66.895,28.320,72.266,-52.734,5.371,0
1610547369.579,-80.078,36.133,19.531,-56.152,-43.945,0
1610547369.583,29.785,38.086,24.902,41.504,-44.434,0
1610547369.587,143.066,34.668,40.039,120.605,71.777,0
1610547369.591,91.309,35.645,76.172,87.402,88.379,0
1610547369.595,-49.805,35.156,55.664,-34.668,-0.488,0
1610547369.599,-84.473,32.715,-22.461,-75.195,-94.238,0
1610547369.602,14.648,39.062,-1.953,28.320,-68.359,0
1610547369.606,145.996,39.062,-71.777,121.582,21.973,0
1610547369.610,111.816,40.527,-31.250,92.773,24.902,0
1610547369.614,-29.785,52.246,216.797,-16.602,52.734,0
1610547369.618,-77.148,48.340,154.297,-68.848,75.684,0
1610547369.620,3.418,42.969,45.410,8.789,55.176,0
1610547369.624,135.254,40.039,61.035,103.027,68.359,0
1610547369.628,125.977,34.180,127.930,104.004,120.605,0
1610547369.632,-17.090,35.156,125.977,-3.906,111.816,0
1610547369.636,-80.078,40.527,33.691,-75.684,13.672,0
1610547369.640,-9.766,35.156,-4.883,-4.883,9.766,0
1610547369.644,122.070,30.762,2.930,105.469,39.551,0
1610547369.647,138.672,38.574,46.875,107.910,96.191,0
1610547369.651,2.930,36.621,-43.945,2.930,72.754,0
1610547369.655,-82.520,28.809,37.109,-72.754,24.414,0
1610547369.659,-28.320,36.133,133.301,-18.066,18.066,0
1610547369.663,105.957,42.969,35.156,102.539,16.602,0
1610547369.666,148.438,43.457,57.617,127.930,49.316,0
1610547369.670,32.227,44.922,148.926,39.062,23.926,0
1610547369.674,-70.801,44.434,102.051,-50.781,-55.176,0
1610547369.678,-45.898,40.527,32.227,-22.461,-52.246,0
1610547369.682,87.402,37.109,3.906,85.938,-13.184,0
1610547369.686,148.926,33.691,12.695,114.746,42.480,0
1610547369.690,39.062,37.109,128.418,36.133,97.168,0
1610547369.693,-69.824,43.457,9.766,-65.918,43.457,0
1610547369.697,-50.293,39.551,-43.457,-65.918,20.996,0
1610547369.701,75.684,44.434,83.008,45.410,25.879,0
1610547369.705,161.621,44.434,32.227,111.328,12.695,0
1610547369.709,60.547,42.480,38.574,48.340,-10.254,0
1610547369.711,-75.195,49.316,91.309,-59.082,-36.621,0
1610547369.715,-69.336,40.527,97.168,-55.664,-36.621,0
1610547369.719,60.547,37.109,33.203,55.664,37.598,0
1610547369.723,151.367,38.574,-22.949,116.211,82.031,0
1610547369.727,68.848,37.598,95.215,54.199,22.461,0
1610547369.731,-60.547,39.062,117.676,-58.105,11.230,0
1610547369.735,-78.613,36.621,11.719,-71.289,61.523,0
1610547369.738,34.180,34.668,-81.543,35.645,33.691,0
1610547369.742,157.227,28.320,23.438,125.000,26.855,0
1610547369.746,104.980,40.527,159.180,87.891,48.828,0
1610547369.750,-51.270,47.363,125.000,-38.574,25.879,0
1610547369.754,-84.961,42.969,60.547,-73.730,1.953,0
1610547369.757,16.113,30.273,51.758,27.832,-3.418,0
1610547369.761,139.648,20.508,33.691,115.234,35.156,0
1610547369.765,104.004,36.621,62.500,86.426,93.262,0
1610547369.769,-39.551,41.016,122.070,-18.066,56.152,0
1610547369.773,-80.078,38.086,89.355,-67.383,0.000,0
1610547369.777,0.488,35.156,9.277,7.812,23.438,0
1610547369.781,130.371,43.457,-133.789,104.004,21.973,0
1610547369.784,116.211,49.805,-79.102,83.984,-27.832,0
1610547369.788,-33.691,40.039,175.781,-26.367,-20.996,0
1610547369.792,-92.773,33.203,138.672,-84.473,8.789,0
1610547369.796,-20.020,37.109,30.762,-14.648,-4.395,0
1610547369.800,120.605,37.598,39.062,98.633,26.367,0
1610547369.801,135.742,34.668,104.004,107.422,57.129,0
1610547369.805,-5.859,44.922,120.605,2.930,53.711,0
1610547369.809,-86.914,45.898,41.016,-73.242,-9.766,0
1610547369.813,-29.785,39.551,61.035,-14.160,-8.301,0
1610547369.817,111.816,38.574,43.945,100.098,8.789,0
1610547369.821,150.879,38.086,-17.090,121.582,0.977,0
1610547369.825,16.113,39.062,-59.570,20.508,40.527,0
1610547369.828,-83.984,28.809,47.852,-72.266,46.875,0
1610547369.832,-35.645,26.367,145.996,-20.508,29.785,0
1610547369.836,97.656,33.203,43.457,88.379,40.039,0
1610547369.840,145.996,39.551,54.199,109.375,89.844,0
1610547369.844,36.133,45.898,148.926,29.785,82.031,0
1610547369.860,-65.918,43.945,109.375,-57.129,17.090,0
1610547369.864,-45.898,43.457,60.547,-42.480,57.617,0
1610547369.868,80.566,39.551,18.066,59.570,103.027,0
1610547369.872,155.762,33.203,-6.348,118.164,42.480,0
1610547369.876,41.992,33.691,75.195,41.016,-3.418,0
1610547369.880,-86.426,36.133,57.617,-61.035,29.297,0
1610547369.884,-76.660,28.320,33.691,-50.293,87.891,0
1610547369.887,45.410,18.066,2.441,41.992,1.465,0
1610547369.891,140.137,26.367,-28.320,107.422,8.789,0
1610547369.895,52.246,31.250,-35.156,43.945,75.684,0
1610547369.899,-81.055,31.250,12.695,-72.266,37.598,0
1610547369.903,-84.473,37.598,132.324,-77.637,40.039,0
1610547369.905,39.551,39.551,46.875,26.367,45.898,0
1610547369.909,142.090,39.551,-21.973,103.516,42.480,0
1610547369.913,65.918,36.133,92.285,50.293,51.758,0
1610547369.917,-65.918,27.344,142.578,-48.340,38.574,0
1610547369.921,-86.914,24.902,35.156,-67.871,13.672,0
1610547369.925,13.672,32.227,-62.988,24.902,0.977,0
1610547369.929,134.766,41.992,-24.902,122.559,36.133,0
1610547369.932,92.285,46.387,108.887,82.520,37.109,0
1610547369.936,-47.852,44.922,71.777,-38.574,6.836,0
1610547369.940,-90.820,36.133,-37.109,-81.543,41.504,0
1610547369.944,4.395,31.738,23.926,5.371,29.785,0
1610547369.948,132.324,35.645,31.738,103.516,9.766,0
1610547369.950,103.516,38.086,19.043,72.754,5.371,0
1610547369.954,-41.016,37.109,113.281,-43.945,71.777,0
1610547369.958,-90.332,32.227,139.160,-92.285,47.852,0
1610547369.962,-8.301,29.785,73.242,-9.766,5.371,0
1610547369.966,120.117,33.691,9.766,101.074,21.484,0
1610547369.970,121.582,32.227,24.414,99.609,66.406,0
1610547369.974,-16.602,26.367,122.070,-11.230,105.469,0
1610547369.977,-93.262,26.367,102.051,-79.590,13.672,0
1610547369.981,-28.320,33.203,-67.383,-19.531,-27.832,0
1610547369.985,105.469,34.668,-88.379,89.844,-14.648,0
1610547369.989,125.000,32.715,92.773,98.633,-6.348,0
1610547369.993,-7.812,33.203,123.535,-0.488,10.742,0
1610547369.996,-94.238,34.668,89.355,-81.055,32.227,0
1610547370.000,-46.387,40.527,65.918,-39.062,92.773,0
1610547370.004,83.496,38.574,13.184,75.684,54.688,0
1610547370.008,134.277,35.156,33.203,104.980,74.707,0
1610547370.012,17.090,36.133,70.801,13.672,86.914,0
1610547370.016,-82.031,31.250,81.543,-75.195,63.477,0
1610547370.020,-49.805,30.762,49.805,-50.781,55.176,0
1610547370.023,76.172,36.621,-30.762,63.477,31.738,0
1610547370.027,141.602,37.109,-85.449,109.863,45.410,0
1610547370.031,36.133,41.504,108.887,27.344,30.273,0
1610547370.035,-72.754,39.551,174.805,-68.848,13.672,0
1610547370.039,-57.617,32.715,67.383,-58.594,37.598,0
1610547370.040,65.918,29.785,17.578,49.316,31.250,0
1610547370.044,147.461,32.227,43.457,106.445,26.855,0
1610547370.048,55.176,36.133,100.098,40.039,7.324,0
1610547370.052,-68.848,33.203,81.055,-55.176,-33.691,0
1610547370.056,-71.289,34.180,35.156,-66.406,-11.719,0
1610547370.060,46.387,39.062,-11.719,32.227,34.668,0
1610547370.064,148.926,39.062,-17.578,121.094,37.109,0
1610547370.067,76.172,37.598,2.441,63.477,67.383,0
1610547370.071,-58.594,32.715,-6.836,-60.547,12.207,0
1610547370.075,-78.613,24.902,106.445,-76.172,-0.488,0
1610547370.079,22.949,33.691,119.629,24.414,94.238,0
1610547370.083,138.184,33.691,7.812,108.887,36.621,0
1610547370.085,87.402,27.832,78.125,73.730,-39.062,0
1610547370.089,-52.246,30.762,155.273,-41.016,-47.363,0
1610547370.093,-90.820,36.133,71.777,-77.637,-16.602,0
1610547370.097,6.348,43.945,17.090,18.555,-3.418,0
1610547370.101,135.742,41.992,52.246,115.723,52.734,0
1610547370.105,107.422,42.969,43.945,93.262,8.789,0
1610547370.109,-34.180,39.551,51.758,-16.602,-16.113,0
1610547370.112,-95.215,32.715,-68.848,-75.684,31.738,0
1610547370.116,-8.301,32.715,12.207,-6.348,51.270,0
1610547370.120,129.395,29.785,136.719,95.703,85.449,0
1610547370.124,117.188,29.785,87.402,96.191,48.828,0
1610547370.128,-25.391,28.809,136.230,-7.812,32.227,0
1610547370.130,-92.773,35.156,114.746,-71.777,-6.348,0
1610547370.134,-21.973,43.945,70.312,-5.371,1.465,0
1610547370.138,115.723,39.062,-3.418,94.238,-11.230,0
1610547370.142,125.000,33.203,24.902,93.750,-24.902,0
1610547370.146,-12.695,30.273,125.977,-1.465,3.906,0
1610547370.150,-89.844,34.180,47.363,-73.730,-20.508,0
1610547370.154,-36.621,31.738,-86.914,-23.926,-3.418,0
1610547370.157,102.051,27.832,-60.547,99.609,55.664,0
1610547370.161,142.578,32.715,101.562,112.793,51.270,0
1610547370.165,12.695,34.668,162.598,11.719,75.195,0
1610547370.169,-78.125,21.973,77.148,-68.359,68.359,0
1610547370.173,-43.945,18.555,31.250,-36.621,3.906,0
1610547370.176,81.055,31.250,59.082,69.824,26.367,0
1610547370.180,142.090,41.504,15.137,109.863,22.461,0
1610547370.184,27.832,40.039,42.480,29.785,32.227,0
1610547370.188,-84.961,31.738,116.211,-61.523,36.621,0
1610547370.192,-59.082,35.645,88.379,-42.480,-12.695,0
1610547370.196,74.707,41.504,-55.176,68.359,-26.367,0
1610547370.200,151.367,43.945,-101.074,123.047,43.457,0
1610547370.203,52.246,41.016,97.168,52.246,28.809,0
1610547370.207,-76.660,36.133,172.852,-62.988,25.391,0
1610547370.211,-78.613,33.691,80.566,-68.359,91.797,0
1610547370.215,53.711,32.715,32.227,51.270,71.777,0
1610547370.219,152.344,29.785,66.406,122.070,67.383,0
1610547370.222,65.918,31.738,118.164,59.082,44.922,0
1610547370.226,-64.941,37.598,22.949,-43.457,-57.129,0
1610547370.230,-82.031,33.691,8.789,-60.547,-61.035,0
1610547370.234,28.320,31.738,88.867,26.855,25.391,0
1610547370.238,140.137,28.320,6.348,109.375,-13.672,0
1610547370.242,79.102,23.926,23.438,71.777,-0.488,0
1610547370.246,-58.105,32.227,86.914,-42.969,37.598,0
1610547370.249,-79.102,41.992,84.473,-66.895,-2.930,0
1610547370.253,25.879,34.668,75.195,27.344,35.156,0
1610547370.257,148.438,34.180,-70.312,111.328,60.059,0
1610547370.261,114.746,34.668,9.277,95.215,62.988,0
1610547370.265,-34.180,31.250,192.871,-19.043,79.590,0
1610547370.281,-83.496,37.598,81.543,-78.125,34.668,0
1610547370.285,0.977,30.762,10.254,-1.953,14.160,0
1610547370.289,118.164,29.785,18.066,95.703,38.574,0
1610547370.293,103.516,37.109,58.105,86.426,57.129,0
1610547370.297,-33.691,34.668,74.707,-21.484,71.289,0
1610547370.301,-99.121,23.438,-39.551,-86.914,36.621,0
1610547370.305,-25.391,17.090,17.090,-19.531,21.484,0
1610547370.308,116.699,33.203,109.375,103.516,64.453,0
1610547370.312,123.047,47.363,33.203,102.539,69.336,0
1610547370.316,-14.160,41.016,26.855,-17.090,8.789,0
1610547370.320,-86.426,42.969,125.977,-76.660,-15.625,0
1610547370.324,-30.273,35.156,111.816,-21.484,45.898,0
1610547370.325,102.539,22.461,32.715,80.078,80.566,0
1610547370.329,135.742,31.250,42.969,102.539,76.172,0
1610547370.333,6.348,40.527,115.234,5.371,20.996,0
1610547370.337,-87.891,42.969,71.289,-71.777,-57.129,0
1610547370.341,-40.527,33.203,20.020,-26.855,-30.762,0
1610547370.345,92.773,22.461,-0.488,79.590,80.566,0
1610547370.349,142.578,36.133,-11.719,112.305,110.840,0
1610547370.352,29.297,36.133,81.055,21.484,60.547,0
1610547370.356,-78.125,28.809,-6.348,-75.684,-18.555,0
1610547370.360,-51.758,40.039,-38.086,-41.992,40.039,0
1610547370.364,87.891,39.551,112.793,70.312,94.727,0
1610547370.368,160.645,35.156,76.660,114.258,71.777,0
1610547370.371,47.852,41.016,88.867,40.039,43.945,0
1610547370.375,-77.637,39.062,134.766,-61.523,33.203,0
1610547370.379,-61.523,30.273,107.422,-53.711,43.945,0
1610547370.383,69.824,43.945,20.996,62.500,52.246,0
1610547370.387,153.320,45.898,4.395,119.629,119.141,0
1610547370.391,61.035,27.344,49.316,47.852,80.078,0
1610547370.395,-66.406,29.785,80.566,-58.105,6.348,0
1610547370.398,-70.801,40.527,12.695,-64.453,-1.953,0
1610547370.402,44.434,32.227,-71.777,42.969,50.781,0
1610547370.406,154.785,28.809,11.230,121.582,82.031,0
1610547370.410,90.332,32.227,111.328,73.242,50.781,0
1610547370.414,-45.410,30.762,80.078,-38.574,15.137,0
1610547370.416,-69.336,44.922,16.602,-63.477,-24.414,0
1610547370.420,36.133,56.152,72.266,32.715,-14.160,0
1610547370.424,150.879,40.039,39.551,111.816,7.324,0
1610547370.428,102.539,27.344,79.590,75.195,33.203,0
1610547370.432,-39.062,34.180,150.391,-27.344,62.988,0
1610547370.436,-82.031,39.062,63.477,-64.453,50.293,0
1610547370.440,8.301,33.203,56.152,15.137,70.312,0
1610547370.443,131.348,28.809,-36.133,108.398,98.145,0
1610547370.447,107.910,34.180,-33.691,86.426,25.879,0
1610547370.451,-35.156,34.668,166.016,-14.160,-42.480,0
1610547370.455,-92.285,31.738,105.957,-62.500,-43.457,0
1610547370.459,-13.184,36.621,63.477,5.371,22.461,0
1610547370.462,119.629,36.621,31.250,98.633,88.379,0
1610547370.466,122.070,36.621,48.340,91.309,51.270,0
1610547370.470,-14.160,41.992,107.910,-12.207,25.879,0
1610547370.474,-85.938,40.039,48.340,-82.520,48.828,0
1610547370.478,-21.973,34.668,70.312,-19.531,58.105,0
1610547370.482,118.652,33.203,-9.766,99.609,-20.508,0
1610547370.486,140.625,31.738,-37.598,113.281,0.000,0
1610547370.489,4.883,36.621,39.551,1.465,83.496,0
1610547370.493,-78.613,45.410,102.051,-72.754,8.301,0
1610547370.497,-25.391,48.340,80.078,-12.695,-36.133,0
1610547370.501,109.863,37.598,4.395,95.703,-23.926,0
1610547370.505,156.738,20.996,58.105,123.535,28.809,0
1610547370.505,31.250,24.902,173.828,32.227,49.316,0
1610547370.509,-77.148,41.504,127.930,-59.082,-8.301,0
1610547370.513,-48.340,40.527,71.289,-26.367,33.691,0
1610547370.517,84.473,33.203,19.043,90.820,59.082,0
1610547370.521,147.461,31.738,10.742,121.582,16.602,0
1610547370.525,34.668,30.273,90.332,35.645,-12.207,0
1610547370.529,-74.707,28.320,-17.090,-61.523,-75.684,0
1610547370.532,-60.059,32.715,-47.363,-59.082,-56.641,0
1610547370.536,59.570,37.109,118.164,57.129,24.414,0
1610547370.540,143.555,38.574,108.887,123.535,29.785,0
1610547370.544,49.316,41.504,104.004,55.664,-18.555,0
1610547370.548,-75.195,39.062,149.902,-50.781,-14.160,0
1610547370.550,-68.359,35.156,102.539,-55.176,-17.578,0
1610547370.554,50.293,35.645,12.695,46.387,-17.090,0
1610547370.558,147.461,25.391,-3.418,118.652,32.227,0
1610547370.562,77.637,25.391,118.652,65.918,42.480,0
1610547370.566,-56.152,42.969,162.598,-46.875,36.133,0
1610547370.570,-76.172,45.410,53.711,-61.523,69.824,0
1610547370.574,34.180,41.992,-118.164,37.109,70.801,0
1610547370.577,145.508,40.527,-23.438,115.234,73.730,0
1610547370.581,94.238,34.180,173.340,69.824,76.172,0
1610547370.585,-49.316,24.902,101.074,-41.992,-17.090,0
1610547370.589,-93.262,23.438,79.590,-79.102,36.133,0
1610547370.593,13.184,36.133,79.102,9.766,47.363,0
1610547370.610,145.020,36.621,33.691,114.258,25.879,0
1610547370.614,116.699,32.715,84.473,104.004,88.867,0
1610547370.618,-29.297,43.945,127.441,-2.441,63.477,0
1610547370.622,-90.332,41.992,93.750,-62.988,6.348,0
1610547370.626,-6.348,31.738,27.832,9.277,-37.598,0
1610547370.630,127.441,28.320,-77.148,106.934,-73.730,0
1610547370.634,120.117,30.762,-13.672,99.609,-48.828,0
1610547370.637,-23.438,34.668,155.762,-5.371,17.578,0
1610547370.641,-87.891,29.785,115.234,-78.125,26.855,0
1610547370.645,-20.020,27.832,-1.953,-19.043,8.301,0
1610547370.649,106.934,26.367,10.742,86.426,51.758,0
1610547370.653,125.000,25.879,83.008,94.727,65.918,0
1610547370.655,-8.301,26.855,112.793,0.977,21.484,0
1610547370.659,-94.238,27.832,-31.738,-79.590,19.531,0
1610547370.663,-38.086,25.391,-27.832,-35.645,0.000,0
1610547370.667,107.910,23.438,96.191,80.078,44.922,0
1610547370.671,146.484,34.668,61.523,108.887,100.098,0
1610547370.675,13.184,38.086,45.410,24.414,39.551,0
1610547370.679,-80.566,35.156,80.566,-63.477,35.156,0
1610547370.682,-39.551,32.227,89.844,-30.273,-9.277,0
1610547370.686,87.402,22.949,-8.301,91.797,-2.441,0
1610547370.690,137.695,15.137,-81.055,119.629,41.992,0
1610547370.694,25.879,21.484,113.770,25.879,20.508,0
1610547370.698,-77.148,32.715,180.176,-65.918,41.504,0
1610547370.700,-54.199,35.156,16.113,-46.387,46.875,0
1610547370.704,83.496,39.062,12.207,64.941,83.008,0
1610547370.708,164.551,34.668,73.242,125.488,60.059,0
1610547370.712,58.105,28.320,103.027,51.270,11.719,0
1610547370.716,-71.289,30.762,125.000,-56.152,30.273,0
1610547370.720,-67.383,31.738,21.484,-52.246,-10.742,0
1610547370.724,54.199,29.785,-2.930,58.594,2.441,0
1610547370.727,151.367,31.250,59.082,132.324,34.180,0
1610547370.731,78.613,37.598,-6.348,62.988,-5.859,0
1610547370.735,-55.176,37.598,31.738,-57.129,17.578,0
1610547370.739,-72.754,32.227,140.625,-68.359,17.578,0
1610547370.743,37.598,30.762,70.801,34.180,32.227,0
1610547370.760,147.461,35.156,33.691,117.676,94.727,0
1610547370.764,87.402,41.504,118.164,79.590,66.895,0
1610547370.768,-48.828,36.133,144.043,-30.762,-11.719,0
1610547370.772,-81.055,36.133,23.438,-65.430,-14.648,0
1610547370.776,16.602,40.527,-38.574,29.297,-16.113,0
1610547370.780,139.648,35.156,-9.766,122.559,13.184,0
1610547370.784,98.633,30.273,98.633,86.426,106.445,0
1610547370.787,-43.457,28.809,97.168,-28.809,78.613,0
1610547370.791,-88.867,30.273,-22.461,-76.172,54.688,0
1610547370.795,0.000,30.762,61.035,2.441,37.109,0
1610547370.799,128.906,29.785,67.383,104.980,-12.207,0
1610547370.803,106.934,30.273,49.316,89.355,-8.301,0
1610547370.790,-38.086,30.762,126.953,-20.020,33.691,0
1610547370.794,-96.191,31.738,125.000,-79.102,41.504,0
1610547370.798,-15.137,35.645,60.059,-8.789,17.090,0
1610547370.802,122.559,32.715,0.000,103.516,6.348,0
1610547370.806,131.836,27.832,52.734,108.398,51.270,0
1610547370.810,-8.301,32.227,121.094,0.000,106.445,0
1610547370.814,-89.844,36.133,44.922,-71.289,73.730,0
1610547370.817,-25.879,34.668,-7.324,-19.531,21.973,0
1610547370.821,119.141,33.691,28.320,89.355,38.574,0
1610547370.825,148.926,34.668,68.848,116.699,53.711,0
1610547370.829,15.625,38.086,116.211,22.461,24.414,0
1610547370.833,-81.055,27.344,-43.457,-70.312,16.602,0
1610547370.836,-41.992,23.926,-83.008,-38.086,32.715,0
1610547370.840,93.262,31.250,53.711,83.008,4.883,0
1610547370.844,145.996,27.344,9.277,115.723,-11.719,0
1610547370.848,20.020,28.809,71.289,25.391,42.969,0
1610547370.852,-88.379,35.645,92.285,-75.684,10.742,0
1610547370.856,-57.617,33.691,2.441,-46.875,-35.156,0
1610547370.860,73.730,31.250,-60.547,73.730,4.395,0
1610547370.863,148.926,29.785,-89.355,111.816,13.672,0
1610547370.867,50.781,32.715,91.309,32.715,24.414,0
1610547370.871,-74.707,35.156,145.020,-65.430,18.555,0
1610547370.875,-73.242,35.156,5.859,-61.035,-19.043,0
1610547370.879,56.152,33.203,-19.043,52.246,-2.930,0
1610547370.881,159.180,24.902,84.961,114.746,60.547,0
1610547370.885,63.477,28.320,113.770,41.504,15.137,0
1610547370.889,-76.660,35.645,94.727,-63.965,-9.766,0
1610547370.893,-65.918,39.062,100.586,-62.012,74.219,0
1610547370.897,49.805,33.691,80.566,37.109,97.656,0
1610547370.901,142.578,26.855,-7.324,106.445,70.801,0
1610547370.905,75.195,29.297,-60.059,53.223,31.738,0
1610547370.908,-60.059,34.180,41.504,-58.594,40.527,0
1610547370.912,-82.520,36.133,149.414,-67.871,52.734,0
1610547370.916,23.926,31.738,33.203,23.926,-11.230,0
1610547370.920,143.555,29.785,8.789,101.562,-13.184,0
1610547370.924,93.262,29.785,89.355,65.918,65.430,0
1610547370.927,-49.316,34.180,104.004,-50.781,9.766,0
1610547370.931,-89.844,34.180,90.820,-92.773,24.902,0
1610547370.935,13.184,37.598,28.320,3.906,100.586,0
1610547370.939,143.066,37.109,35.156,103.027,66.895,0
1610547370.943,100.586,32.227,84.961,77.148,-0.977,0
1610547370.947,-43.945,30.762,41.992,-30.762,-43.945,0
1610547370.951,-93.262,27.344,-38.086,-89.844,-3.418,0
1610547370.954,-18.066,29.785,53.223,-14.648,9.277,0
1610547370.958,116.211,30.273,108.398,102.051,45.410,0
1610547370.962,122.070,24.414,96.680,116.699,96.680,0
1610547370.966,-27.344,15.137,139.648,1.465,61.035,0
1610547370.970,-102.051,24.414,147.949,-88.867,45.410,0
1610547370.986,-23.438,34.180,92.285,-21.484,44.922,0
1610547370.990,113.770,29.297,29.297,90.820,65.918,0
1610547370.994,133.301,26.855,34.668,98.633,133.301,0
1610547370.998,-4.883,26.367,82.031,0.977,73.730,0
1610547371.002,-88.867,29.785,111.816,-71.289,14.648,0
1610547371.006,-35.156,30.762,-35.645,-28.809,38.086,0
1610547371.010,90.820,28.320,-125.488,71.777,28.320,0
1610547371.013,138.672,24.414,79.590,104.980,20.508,0
1610547371.017,17.578,26.855,187.988,14.160,50.781,0
1610547371.021,-83.984,34.180,106.445,-74.219,17.090,0
1610547371.025,-49.316,28.809,75.195,-34.180,-3.418,0
1610547371.029,81.055,20.020,68.359,76.172,40.039,0
1610547371.030,152.832,28.809,6.348,112.305,7.812,0
1610547371.034,44.922,45.898,50.293,33.691,-21.484,0
1610547371.038,-79.102,40.039,94.238,-61.523,-33.691,0
1610547371.042,-61.523,29.297,54.199,-56.152,-69.336,0
1610547371.046,67.383,31.250,19.043,50.293,11.230,0
1610547371.050,148.926,34.668,-33.203,114.746,59.570,0
1610547371.054,52.246,35.156,57.617,44.434,79.102,0
1610547371.057,-76.172,33.691,99.609,-67.383,43.945,0
1610547371.061,-70.312,32.227,23.926,-59.570,-16.113,0
1610547371.065,50.781,35.156,-108.398,40.527,33.691,0
1610547371.069,149.414,32.715,-7.324,107.422,65.430,0
1610547371.073,73.730,29.785,201.660,67.383,88.867,0
1610547371.076,-60.059,31.738,156.250,-41.016,66.406,0
1610547371.080,-74.707,31.738,81.055,-61.523,21.973,0
1610547371.084,44.922,26.855,49.805,38.574,-15.625,0
1610547371.088,158.203,24.902,6.836,120.117,-52.734,0
1610547371.092,84.961,28.320,59.082,76.660,-13.184,0
1610547371.096,-62.988,24.902,76.172,-36.133,23.438,0
1610547371.100,-92.773,24.902,25.879,-66.895,-5.371,0
1610547371.103,5.371,26.855,61.035,24.414,-11.230,0
1610547371.107,127.441,24.414,-71.777,116.699,13.672,0
1610547371.111,99.609,26.367,-37.598,89.355,72.754,0
1610547371.115,-39.551,37.109,202.637,-18.555,61.035,0
1610547371.119,-90.332,38.086,129.883,-62.988,19.531,0
1610547371.120,-1.465,26.855,44.434,8.301,48.340,0
1610547371.124,131.836,20.508,56.152,99.121,68.359,0
1610547371.128,114.746,20.996,84.961,89.355,50.781,0
1610547371.132,-28.809,24.414,77.148,-12.695,33.203,0
1610547371.136,-95.215,25.879,45.410,-71.289,16.602,0
1610547371.140,-23.926,35.156,14.160,-8.301,26.855,0
1610547371.144,121.582,41.016,22.949,99.121,70.801,0
1610547371.147,138.672,35.156,18.066,116.211,42.480,0
1610547371.151,1.465,33.691,4.883,1.465,43.457,0
1610547371.155,-81.055,30.762,89.355,-78.125,38.574,0
1610547371.159,-20.508,26.855,73.730,-19.531,-56.152,0
1610547371.163,118.652,39.551,-50.781,98.145,-4.883,0
1610547371.165,149.414,41.016,-25.391,121.582,41.016,0
1610547371.169,20.020,38.086,115.723,18.066,-52.246,0
1610547371.173,-85.449,41.992,111.328,-72.754,-30.273,0
1610547371.177,-50.781,32.715,47.852,-36.621,16.602,0
1610547371.181,84.473,30.762,-0.977,83.008,-17.090,0
1610547371.185,135.254,36.133,-6.836,116.699,20.020,0
1610547371.189,21.484,31.738,105.957,22.949,68.359,0
1610547371.192,-83.984,23.926,9.277,-81.055,18.066,0
1610547371.196,-63.965,22.949,-56.152,-66.406,-5.371,0
1610547371.200,71.777,31.738,99.121,57.129,62.988,0
1610547371.204,154.785,29.297,35.156,116.699,-2.930,0
1610547371.208,49.805,24.902,94.238,42.480,48.340,0
1610547371.211,-74.707,34.180,150.879,-57.617,128.418,0
1610547371.215,-70.801,38.086,81.543,-51.758,64.941,0
1610547371.219,53.223,39.062,-3.418,58.594,106.445,0
1610547371.223,149.902,38.086,-47.852,119.629,94.238,0
1610547371.227,68.848,30.273,86.914,55.664,36.621,0
1610547371.231,-65.430,26.855,95.703,-48.828,-11.230,0
1610547371.235,-72.266,37.598,-0.977,-66.406,7.812,0
1610547371.238,40.039,38.086,-78.125,27.832,31.250,0
1610547371.242,142.090,28.809,20.020,104.980,24.414,0
1610547371.246,87.402,29.297,147.949,62.500,12.695,0
1610547371.250,-53.223,32.715,111.816,-41.016,-9.766,0
1610547371.254,-83.008,36.133,83.008,-73.242,42.969,0
1610547371.256,22.461,36.133,82.520,24.902,55.664,0
1610547371.260,146.484,27.344,36.133,119.141,37.109,0
1610547371.264,97.656,24.414,67.871,81.055,77.148,0
1610547371.268,-57.129,34.180,114.746,-33.691,63.965,0
1610547371.272,-98.633,35.156,85.449,-75.684,24.902,0
1610547371.276,-5.371,30.273,36.133,5.371,72.266,0
1610547371.280,129.883,34.668,-97.656,102.051,89.355,0
1610547371.283,118.652,35.645,-60.059,86.426,63.477,0
1610547371.287,-25.879,34.180,176.758,-15.137,59.570,0
1610547371.291,-90.820,33.691,140.625,-67.383,32.227,0
1610547371.295,-14.160,24.902,39.551,2.930,29.297,0
1610547371.299,121.582,21.484,21.973,102.539,21.973,0
1610547371.300,126.465,29.785,65.430,96.680,0.000,0
1610547371.304,-5.371,37.598,104.492,3.906,8.301,0
1610547371.308,-82.520,33.203,48.340,-71.289,17.578,0
1610547371.312,-33.691,21.973,34.180,-28.809,8.789,0
1610547371.316,104.492,18.555,10.254,87.891,-14.648,0
1610547371.320,138.184,28.320,-31.738,109.863,13.184,0
1610547371.324,6.836,34.668,-12.207,8.789,33.691,0
1610547371.327,-88.379,31.250,80.078,-75.684,20.508,0
1610547371.331,-47.852,29.785,98.633,-31.250,29.297,0
1610547371.335,95.703,35.156,-0.488,86.914,51.758,0
1610547371.339,145.020,39.062,35.156,117.676,111.328,0
1610547371.343,12.695,29.297,171.387,19.043,58.105,0
1610547371.360,-92.285,25.391,152.832,-84.473,56.152,0
1610547371.364,-62.012,25.391,53.223,-51.270,35.645,0
1610547371.368,73.730,32.715,14.648,64.453,-2.441,0
1610547371.372,155.273,40.039,59.082,110.840,35.645,0
1610547371.376,47.852,28.809,111.816,37.109,21.484,0
1610547371.380,-74.219,28.320,55.176,-64.941,13.184,0
1610547371.384,-63.965,38.574,-11.719,-56.641,-46.387,0
1610547371.387,61.035,45.898,43.945,51.758,-0.488,0
1610547371.391,146.484,48.340,37.109,114.258,20.508,0
1610547371.395,47.852,40.039,-1.953,53.223,12.207,0
1610547371.399,-74.707,34.180,20.996,-55.176,30.273,0
1610547371.403,-72.266,36.621,53.711,-69.336,-34.668,0
1610547371.405,38.086,27.832,15.137,30.273,-21.973,0
1610547371.409,139.160,23.438,-31.250,114.258,27.344,0
1610547371.413,78.125,32.227,115.723,69.336,88.867,0
1610547371.417,-55.176,30.762,156.250,-53.223,57.617,0
1610547371.421,-81.543,27.344,35.156,-76.172,-0.488,0
1610547371.425,22.949,23.438,-33.691,29.785,24.902,0
1610547371.429,143.555,29.297,-4.395,105.957,61.035,0
1610547371.432,101.562,40.527,128.418,66.895,76.660,0
1610547371.436,-40.039,43.945,84.473,-34.180,21.484,0
1610547371.440,-90.332,41.992,-29.297,-77.637,42.480,0
1610547371.444,2.441,32.227,58.105,6.348,63.477,0
1610547371.448,132.812,31.250,52.246,113.770,1.953,0
1610547371.451,108.398,29.785,44.434,95.703,-6.836,0
1610547371.455,-30.762,28.320,56.152,-22.949,-34.668,0
1610547371.459,-89.355,33.203,53.223,-79.590,-2.441,0
1610547371.463,-7.812,32.227,66.895,0.977,45.898,0
1610547371.467,124.023,27.344,-44.922,103.027,47.852,0
1610547371.471,113.281,22.461,-35.645,93.750,54.199,0
1610547371.475,-27.832,22.461,67.871,-10.742,32.227,0
1610547371.478,-100.586,27.344,29.297,-93.750,-16.602,0
1610547371.482,-36.133,34.668,-59.570,-38.574,25.391,0
1610547371.486,100.098,39.062,-41.992,82.520,44.922,0
1610547371.490,125.000,30.762,141.113,102.539,98.633,0
1610547371.494,-4.395,27.832,145.996,2.930,78.125,0
1610547371.496,-96.191,26.855,17.578,-82.520,-35.156,0
1610547371.500,-40.039,22.949,52.246,-29.785,-2.441,0
1610547371.504,100.098,25.879,71.289,81.055,43.457,0
1610547371.508,140.625,27.832,34.180,104.004,56.152,0
1610547371.512,13.672,22.461,38.574,14.648,32.227,0
1610547371.516,-93.750,29.297,15.137,-79.590,-26.367,0
1610547371.520,-59.082,33.691,12.695,-43.945,-15.137,0
1610547371.523,78.125,25.391,-12.695,80.078,43.945,0
1610547371.527,143.555,21.484,-113.281,111.328,56.152,0
1610547371.531,26.855,22.949,48.828,16.602,37.598,0
1610547371.535,-85.938,29.785,186.523,-68.359,36.133,0
1610547371.539,-67.383,28.809,72.754,-48.828,15.625,0
1610547371.541,62.988,24.414,39.062,53.223,44.922,0
1610547371.545,151.855,25.391,76.660,119.629,67.383,0
1610547371.549,54.199,27.832,97.168,52.246,-2.930,0
1610547371.553,-72.754,23.438,62.500,-62.988,-25.391,0
1610547371.557,-66.406,29.785,78.125,-59.570,52.246,0
1610547371.561,48.828,34.668,31.738,40.039,107.910,0
1610547371.565,144.531,36.621,-0.977,114.258,62.012,0
1610547371.568,66.406,41.016,-11.230,57.129,17.090,0
1610547371.572,-77.637,30.762,-25.879,-65.918,-12.695,0
1610547371.576,-83.008,20.996,123.047,-72.266,20.020,0
1610547371.580,39.062,24.414,97.168,34.668,43.457,0
1610547371.584,146.484,28.320,10.254,115.723,25.391,0
1610547371.586,85.938,32.715,108.398,67.383,41.016,0
1610547371.590,-57.617,37.598,170.410,-46.875,52.246,0
1610547371.594,-88.867,33.203,69.336,-81.543,30.273,0
1610547371.598,21.973,36.621,10.254,13.184,19.043,0
1610547371.602,142.090,45.410,32.715,112.305,44.434,0
1610547371.606,97.656,37.598,82.520,83.984,112.793,0
1610547371.610,-44.922,32.227,54.688,-26.855,83.496,0
1610547371.613,-89.355,31.738,-62.012,-88.379,-14.648,0
1610547371.617,-9.766,22.461,59.570,-12.695,58.105,0
1610547371.621,124.512,21.973,109.863,101.562,89.844,0
1610547371.625,118.652,22.949,36.621,93.262,35.156,0
1610547371.629,-32.227,25.391,83.008,-18.555,22.949,0
1610547371.630,-98.633,26.367,105.469,-86.914,-5.859,0
1610547371.634,-21.484,24.414,59.570,-21.484,-12.207,0
1610547371.638,111.816,35.156,2.930,90.820,59.082,0
1610547371.642,120.605,32.227,59.570,92.773,118.164,0
1610547371.646,-11.719,23.438,151.367,-9.766,102.539,0
1610547371.650,-91.309,28.809,52.734,-86.426,47.363,0
1610547371.654,-41.504,25.879,-107.422,-37.109,-0.488,0
1610547371.657,101.074,18.066,-104.492,74.219,-7.812,0
1610547371.661,138.672,18.066,47.363,94.727,-62.012,0
1610547371.665,-0.977,27.832,142.090,3.418,-8.301,0
1610547371.669,-90.820,33.691,112.793,-82.031,77.637,0
1610547371.673,-46.387,23.926,59.570,-42.480,33.203,0
1610547371.676,86.914,23.926,35.645,69.824,-0.977,0
1610547371.680,148.438,30.762,2.930,114.258,49.316,0
1610547371.684,23.926,22.949,39.062,27.344,41.992,0
1610547371.688,-92.285,19.531,107.422,-75.684,12.695,0
1610547371.692,-69.824,14.160,101.074,-50.781,56.641,0
1610547371.696,58.105,8.301,-26.855,60.547,76.660,0
1610547371.700,140.625,15.137,-106.934,108.398,70.801,0
1610547371.703,39.551,28.809,98.633,33.203,91.309,0
1610547371.707,-83.008,35.156,149.414,-65.918,15.625,0
1610547371.711,-72.754,27.832,41.992,-55.176,5.859,0
1610547371.715,44.922,25.391,3.418,46.875,35.156,0
1610547371.719,136.230,22.949,15.625,106.445,3.906,0
1610547371.735,62.500,29.297,97.168,45.898,24.414,0
1610547371.739,-70.312,31.250,80.078,-63.477,12.695,0
1610547371.743,-80.566,25.879,27.344,-71.777,-11.719,0
1610547371.747,38.574,30.273,35.645,26.855,25.391,0
1610547371.751,140.625,23.926,11.719,101.074,54.688,0
1610547371.755,74.707,12.207,-49.805,62.500,7.324,0
1610547371.759,-65.918,23.438,-41.504,-41.504,-12.207,0
1610547371.762,-94.727,33.691,87.402,-79.590,1.465,0
1610547371.766,15.625,34.180,79.590,4.883,10.742,0
1610547371.770,139.648,42.480,33.203,109.375,73.730,0
1610547371.774,89.355,43.457,90.820,81.543,59.570,0
1610547371.778,-59.570,32.227,119.141,-31.250,-26.855,0
1610547371.780,-93.750,28.809,36.621,-73.242,-62.500,0
1610547371.784,-5.859,26.855,7.812,0.000,12.695,0
1610547371.788,118.652,20.020,30.762,94.727,52.246,0
1610547371.792,101.074,18.555,73.730,87.891,15.137,0
1610547371.796,-40.039,22.949,81.055,-22.949,-6.348,0
1610547371.800,-98.145,29.297,1.465,-82.031,6.836,0
1610547371.804,-14.160,33.691,-15.137,-5.371,18.066,0
1610547371.807,118.652,35.645,5.371,91.309,16.113,0
1610547371.811,122.070,45.410,32.715,93.262,50.781,0
1610547371.815,-14.648,36.133,-31.738,-17.090,57.129,0
