timestamps,TP9,AF7,AF8,TP10,Right AUX,Marker0
1610634685.975,48.340,36.621,52.734,49.316,-43.457,0
1610634685.979,89.844,39.551,35.645,80.078,31.250,0
1610634685.983,59.570,37.109,26.367,55.176,16.113,0
1610634685.987,-20.020,41.992,44.922,12.695,-50.781,0
1610634685.991,-8.301,53.223,62.988,3.418,-41.016,0
1610634685.995,62.500,45.410,53.223,55.176,33.203,0
1610634685.999,104.492,39.062,44.434,92.773,93.750,0
1610634686.002,56.641,55.664,73.242,76.660,38.086,0
1610634686.006,-25.391,52.246,66.406,12.207,-24.902,0
1610634686.010,-46.875,29.785,40.527,-25.391,22.949,0
1610634686.014,14.648,32.227,43.945,29.297,-30.762,0
1610634686.018,105.957,41.992,44.922,85.938,17.090,0
1610634686.021,76.172,44.434,37.109,73.242,45.898,0
1610634686.025,-7.812,43.457,28.320,9.766,-44.434,0
1610634686.029,-25.391,40.527,41.504,-11.719,-48.828,0
1610634686.033,34.668,48.828,56.641,42.480,-72.266,0
1610634686.037,105.957,51.270,57.617,85.938,-67.871,0
1610634686.041,71.777,39.551,47.852,65.430,-1.465,0
1610634686.045,-12.207,41.504,47.363,12.695,-62.988,0
1610634686.048,-17.090,51.758,52.734,-15.137,-42.480,0
1610634686.052,15.625,52.734,49.805,16.113,33.691,0
1610634686.056,84.473,39.551,43.945,57.617,20.996,0
1610634686.060,97.656,31.738,37.109,68.848,29.785,0
1610634686.064,10.742,34.180,36.621,20.508,20.020,0
1610634686.080,-19.043,46.387,49.805,-1.465,-27.832,0
1610634686.084,28.320,65.918,64.941,47.852,-51.270,0
1610634686.088,75.195,49.805,43.457,69.824,4.883,0
1610634686.092,60.059,34.180,30.273,74.707,34.180,0
1610634686.096,6.348,46.387,42.969,45.898,-21.484,0
1610634686.100,-35.156,44.922,39.062,-23.438,-49.316,0
1610634686.104,-9.277,43.945,44.434,-5.859,1.465,0
1610634686.107,70.312,55.664,51.270,68.848,-8.789,0
1610634686.111,104.492,54.688,44.434,93.750,2.930,0
1610634686.115,37.109,40.527,33.691,41.504,-18.066,0
1610634686.119,-21.484,39.062,34.668,-8.301,23.926,0
1610634686.123,8.301,42.480,41.504,8.301,61.035,0
1610634686.125,50.781,43.945,31.250,60.547,56.152,0
1610634686.129,100.586,59.082,34.180,92.773,40.039,0
1610634686.133,69.824,55.664,52.734,56.641,31.250,0
1610634686.137,-26.855,32.227,48.340,-18.555,45.898,0
1610634686.141,-35.645,29.785,40.527,-21.484,29.785,0
1610634686.145,59.570,43.457,47.852,46.875,40.039,0
1610634686.149,109.375,44.922,51.758,72.754,48.828,0
1610634686.152,36.621,36.133,43.457,31.738,14.160,0
1610634686.156,-33.203,39.062,34.180,-17.090,21.484,0
1610634686.160,-34.668,40.039,27.344,-15.137,1.465,0
1610634686.164,49.316,39.551,53.711,52.246,3.418,0
1610634686.168,125.977,54.199,64.453,99.609,57.129,0
1610634686.170,78.125,55.664,42.480,69.336,46.875,0
1610634686.174,-10.254,40.039,35.156,-8.301,-42.969,0
1610634686.178,-24.902,38.574,33.203,-30.762,-98.633,0
1610634686.182,31.250,38.574,25.879,26.367,-35.156,0
1610634686.186,99.609,39.551,24.414,78.613,-21.484,0
1610634686.190,62.500,40.527,40.527,58.594,-13.672,0
1610634686.194,-11.230,46.387,58.594,6.836,18.066,0
1610634686.197,-2.930,53.711,58.594,-2.930,-35.156,0
1610634686.201,33.691,43.945,36.621,32.227,-6.348,0
1610634686.205,95.703,32.227,26.367,80.078,71.777,0
1610634686.209,89.844,43.457,43.457,88.867,54.688,0
1610634686.213,-5.859,47.852,39.062,19.043,34.180,0
1610634686.215,-25.391,41.016,21.484,-28.320,27.832,0
1610634686.219,31.250,41.504,28.320,16.602,18.555,0
1610634686.223,93.750,35.156,32.227,61.523,-20.508,0
1610634686.227,81.055,33.203,36.621,66.406,8.789,0
1610634686.231,12.207,35.645,45.898,27.832,40.039,0
1610634686.235,-17.578,39.062,51.270,-19.531,27.344,0
1610634686.239,20.508,41.016,51.270,9.277,92.773,0
1610634686.242,109.375,45.410,38.086,69.824,58.594,0
1610634686.246,102.539,40.527,36.621,75.684,-24.414,0
1610634686.250,-6.348,21.973,40.039,13.184,-23.926,0
1610634686.254,-32.227,32.227,41.016,-38.574,5.859,0
1610634686.258,17.578,47.852,41.992,-6.348,33.203,0
1610634686.261,89.355,41.992,39.062,55.176,-5.371,0
1610634686.265,105.957,39.551,39.551,79.590,-60.547,0
1610634686.269,37.109,43.457,37.598,50.293,-29.785,0
1610634686.273,-12.207,48.340,31.250,3.418,20.996,0
1610634686.277,-10.254,42.480,38.086,2.930,23.438,0
1610634686.281,56.641,29.297,39.062,49.805,-4.883,0
1610634686.285,106.934,35.645,38.086,81.543,-30.273,0
1610634686.288,52.734,45.410,40.527,62.012,23.438,0
1610634686.292,-17.578,37.109,34.668,-5.859,52.246,0
1610634686.296,-12.695,34.180,31.738,-19.043,20.020,0
1610634686.300,57.617,37.598,40.039,51.270,28.320,0
1610634686.304,103.516,35.645,49.316,90.332,20.020,0
1610634686.305,54.199,41.992,47.852,62.500,-32.715,0
1610634686.309,-12.695,41.992,42.480,-0.977,-11.230,0
1610634686.313,-2.441,41.016,40.039,6.836,41.504,0
1610634686.317,64.453,43.945,35.645,71.289,35.156,0
1610634686.321,104.492,38.086,35.645,88.867,49.316,0
1610634686.325,58.105,37.598,43.457,66.406,-16.602,0
1610634686.329,-1.953,46.875,45.410,10.254,-5.859,0
1610634686.332,0.977,51.758,51.758,-10.254,19.531,0
1610634686.336,52.734,42.480,48.340,42.969,-25.879,0
1610634686.340,94.238,31.738,37.109,79.102,27.344,0
1610634686.344,53.223,30.762,37.109,60.547,23.926,0
1610634686.348,-9.277,41.016,42.969,5.371,-20.020,0
1610634686.350,-28.320,43.945,44.434,-16.602,-24.414,0
1610634686.354,16.602,36.621,37.598,35.156,-12.207,0
1610634686.358,95.215,35.156,41.504,85.449,31.738,0
1610634686.362,72.266,40.527,40.527,74.707,61.035,0
1610634686.366,-7.812,42.969,32.715,18.555,74.707,0
1610634686.370,-28.320,42.969,35.645,-19.531,11.719,0
1610634686.374,31.250,53.223,52.734,21.484,-19.043,0
1610634686.377,101.074,47.363,52.246,75.684,28.809,0
1610634686.381,75.195,39.062,33.203,79.102,25.879,0
1610634686.385,-9.277,34.180,34.180,25.879,-8.789,0
1610634686.389,-31.250,35.645,41.016,-24.902,-1.953,0
1610634686.393,25.391,46.875,50.781,11.719,45.410,0
1610634686.410,101.562,43.457,51.758,77.148,5.371,0
1610634686.414,88.867,36.621,42.480,78.613,-47.852,0
1610634686.418,2.930,40.039,49.316,30.273,6.348,0
1610634686.422,-28.809,42.969,45.410,-22.949,28.320,0
1610634686.426,20.020,46.387,42.480,13.184,25.391,0
1610634686.430,103.516,56.152,51.758,93.262,-14.648,0
1610634686.434,105.957,50.293,48.340,88.867,-29.297,0
1610634686.437,23.926,39.062,32.715,27.832,17.578,0
1610634686.441,-14.648,49.805,37.598,-6.836,8.789,0
1610634686.445,22.949,52.246,40.527,16.113,21.484,0
1610634686.449,85.449,41.504,26.855,60.059,69.824,0
1610634686.453,91.309,35.645,33.691,62.012,66.406,0
1610634686.455,26.855,40.527,44.922,24.414,90.332,0
1610634686.459,-26.855,41.016,45.898,-24.902,33.203,0
1610634686.463,6.348,53.223,54.688,-3.418,-40.039,0
1610634686.467,84.961,56.152,61.035,60.547,26.367,0
1610634686.471,99.121,39.062,48.340,80.566,88.379,0
1610634686.475,24.414,39.551,44.922,49.805,61.523,0
1610634686.479,-17.578,44.434,50.781,0.488,-10.742,0
1610634686.482,12.207,50.293,60.059,17.578,-30.762,0
1610634686.486,65.918,48.828,61.035,63.965,63.965,0
1610634686.490,113.770,47.363,49.316,86.914,22.949,0
1610634686.494,52.246,49.316,35.156,65.430,10.254,0
1610634686.498,-30.762,39.062,31.250,-1.953,40.039,0
1610634686.500,-14.160,43.457,42.969,-14.648,-1.953,0
1610634686.504,55.176,53.711,52.734,49.805,-1.953,0
1610634686.508,106.934,40.527,38.574,91.309,4.395,0
1610634686.512,60.059,25.879,36.621,55.664,-4.395,0
1610634686.516,-19.531,36.133,42.480,-11.719,-38.574,0
1610634686.520,-15.137,47.852,46.387,-15.625,-22.461,0
1610634686.524,43.457,46.387,48.340,40.527,1.953,0
1610634686.527,121.582,52.246,53.711,85.938,-38.086,0
1610634686.531,94.727,51.270,59.082,81.543,36.133,0
1610634686.535,-1.465,35.156,37.598,11.230,82.031,0
1610634686.539,-37.109,36.621,26.367,-34.668,-7.324,0
1610634686.543,34.180,50.293,38.086,11.230,-7.324,0
1610634686.545,125.488,59.570,52.734,85.449,48.828,0
1610634686.549,76.172,50.781,41.504,75.684,45.898,0
1610634686.553,-17.578,37.109,32.227,5.371,29.297,0
1610634686.557,-19.043,43.945,40.527,-20.508,-57.617,0
1610634686.561,21.973,47.852,32.715,18.066,-83.984,0
1610634686.565,96.680,48.340,40.039,83.496,-5.859,0
1610634686.569,90.332,48.828,56.641,78.613,67.383,0
1610634686.572,-7.324,40.527,50.781,17.578,37.109,0
1610634686.576,-20.020,50.781,52.734,-8.301,-11.230,0
1610634686.580,21.973,50.293,55.176,15.625,44.922,0
1610634686.584,81.543,35.645,35.645,62.012,96.191,0
1610634686.588,87.891,41.016,24.414,70.801,50.781,0
1610634686.590,7.324,48.340,36.133,18.066,-21.973,0
1610634686.594,-20.508,48.340,44.434,-24.902,-48.828,0
1610634686.598,3.906,48.828,42.480,-1.953,-51.270,0
1610634686.602,68.359,47.852,48.828,53.223,-23.438,0
1610634686.606,106.445,43.457,39.062,77.637,22.949,0
1610634686.610,27.344,43.457,32.715,37.598,38.574,0
1610634686.614,-14.160,57.129,64.941,-0.977,-54.199,0
1610634686.617,3.906,54.688,65.918,3.906,-55.664,0
1610634686.621,58.594,40.527,38.574,47.363,1.953,0
1610634686.625,81.055,37.598,35.156,78.125,-14.648,0
1610634686.629,13.184,38.086,37.598,40.527,-0.488,0
1610634686.633,-22.949,40.039,40.527,-12.695,-15.625,0
1610634686.635,-12.695,49.316,38.574,-15.625,-53.223,0
1610634686.639,48.828,56.641,44.434,37.598,-8.301,0
1610634686.643,98.145,44.434,40.039,62.988,29.297,0
1610634686.647,43.945,41.016,34.180,38.086,26.367,0
1610634686.651,-26.367,41.504,41.504,-10.742,22.461,0
1610634686.655,-6.836,53.711,51.758,-5.371,4.395,0
1610634686.659,57.617,49.805,45.410,54.199,4.883,0
1610634686.662,109.863,32.227,22.949,71.289,22.461,0
1610634686.666,76.172,43.457,32.227,55.664,11.719,0
1610634686.670,-11.719,41.992,46.387,1.465,-2.441,0
1610634686.674,-18.066,38.086,43.945,-26.367,24.414,0
1610634686.678,36.621,45.410,40.039,38.086,27.832,0
1610634686.680,90.820,45.410,38.574,84.473,-43.457,0
1610634686.684,54.199,46.387,44.434,70.312,-56.152,0
1610634686.688,-21.973,41.992,43.457,14.648,-26.855,0
1610634686.692,-22.949,45.898,43.457,-20.996,-34.668,0
1610634686.696,30.273,51.270,38.574,21.973,-35.156,0
1610634686.700,103.027,50.781,38.574,83.008,54.688,0
1610634686.704,94.238,55.664,44.922,84.473,30.762,0
1610634686.707,-7.324,53.223,37.598,16.113,-25.879,0
1610634686.711,-45.898,34.668,36.621,-37.598,6.836,0
1610634686.715,19.043,25.391,33.691,11.230,46.387,0
1610634686.719,90.332,41.016,35.645,81.543,123.535,0
1610634686.723,75.195,42.969,42.969,74.219,102.051,0
1610634686.726,5.371,40.527,42.480,21.484,-1.465,0
1610634686.730,-18.066,43.945,39.062,-9.766,23.438,0
1610634686.734,16.602,47.852,41.504,12.207,22.461,0
1610634686.738,87.891,60.059,57.617,83.496,36.621,0
1610634686.742,105.957,48.340,46.875,94.238,61.035,0
1610634686.746,21.484,29.297,26.855,23.926,14.648,0
1610634686.750,-29.785,39.062,31.250,-20.020,-17.578,0
1610634686.753,0.977,41.016,34.180,6.348,-12.207,0
1610634686.757,74.707,35.156,36.621,62.988,27.832,0
1610634686.761,88.867,31.738,37.598,74.219,13.184,0
1610634686.765,12.695,42.969,42.969,31.738,-64.453,0
1610634686.769,-27.344,51.270,43.457,-20.996,-80.566,0
1610634686.786,-0.977,48.828,29.785,-0.977,13.184,0
1610634686.790,83.496,61.523,48.340,78.613,62.500,0
1610634686.794,123.047,66.406,62.012,100.586,33.691,0
1610634686.798,20.020,38.086,33.203,26.855,27.344,0
1610634686.802,-29.785,34.668,32.715,-15.625,104.004,0
1610634686.806,7.812,46.875,51.270,7.324,99.121,0
1610634686.810,62.012,39.062,50.781,47.363,50.781,0
1610634686.813,93.750,32.227,33.691,67.871,79.102,0
1610634686.817,41.016,39.062,32.227,44.434,27.832,0
1610634686.821,-27.344,44.922,45.410,0.488,-36.133,0
1610634686.825,-19.531,52.246,48.828,-2.441,-21.484,0
1610634686.829,62.988,57.129,46.387,59.570,-53.223,0
1610634686.830,133.301,63.965,42.480,114.746,-18.066,0
1610634686.834,74.219,56.641,46.387,78.125,20.996,0
1610634686.838,-18.066,29.785,35.156,-6.348,-18.066,0
1610634686.842,-15.137,34.180,25.879,-9.277,3.906,0
1610634686.846,50.781,46.387,35.645,70.312,27.832,0
1610634686.850,112.305,45.898,47.363,98.145,31.250,0
1610634686.854,72.754,41.992,43.945,57.129,-10.254,0
1610634686.857,-18.555,45.898,37.109,10.254,-42.969,0
1610634686.861,-24.414,49.805,43.457,-0.488,14.648,0
1610634686.865,41.504,49.316,45.898,34.668,27.832,0
1610634686.869,105.469,52.734,45.898,77.637,36.621,0
1610634686.873,101.562,64.941,56.641,98.145,81.543,0
1610634686.875,11.719,47.363,40.527,23.926,45.410,0
1610634686.879,-35.645,23.926,18.555,-37.109,-8.301,0
1610634686.883,22.461,31.738,31.250,-0.977,11.230,0
1610634686.887,98.633,42.480,44.922,70.801,-1.953,0
1610634686.891,71.777,36.133,38.086,76.660,-11.719,0
1610634686.895,-6.348,33.203,44.434,14.160,3.418,0
1610634686.899,-33.203,46.875,53.711,-14.160,17.090,0
1610634686.902,13.672,47.363,49.316,20.996,4.883,0
1610634686.906,88.867,37.109,44.922,73.730,-17.578,0
1610634686.910,83.008,44.922,48.340,83.984,16.602,0
1610634686.914,33.691,63.477,55.664,52.246,10.254,0
1610634686.918,-12.207,51.758,43.457,-1.953,20.996,0
1610634686.920,-2.441,40.527,31.250,-0.488,20.020,0
1610634686.924,79.590,42.969,37.598,61.035,48.828,0
1610634686.928,94.238,44.922,47.363,86.426,76.660,0
1610634686.932,17.090,42.480,48.828,35.645,59.570,0
1610634686.936,-31.250,46.387,51.758,-5.371,56.152,0
1610634686.940,-7.812,43.945,49.316,21.973,-23.438,0
1610634686.944,69.824,40.527,43.945,71.289,-66.895,0
1610634686.947,114.746,49.805,49.805,88.867,17.578,0
1610634686.951,26.367,43.945,48.828,43.945,2.930,0
1610634686.955,-45.410,29.785,43.945,-22.949,-52.734,0
1610634686.959,-10.254,32.227,44.922,-8.789,-0.488,0
1610634686.963,56.641,37.598,41.504,54.199,13.672,0
1610634686.965,91.797,34.180,37.598,76.172,9.277,0
1610634686.969,28.320,40.039,43.457,43.945,25.879,0
1610634686.973,-21.484,48.340,48.340,-3.906,7.324,0
1610634686.977,-10.742,50.293,48.340,-0.977,-26.367,0
1610634686.981,41.504,43.457,38.574,49.805,-76.172,0
1610634686.985,104.492,32.715,34.180,90.332,-54.199,0
1610634686.989,63.965,41.504,52.246,65.430,-10.742,0
1610634686.992,-2.930,53.711,60.547,4.395,82.031,0
1610634686.996,-16.602,48.828,32.715,-2.930,57.617,0
1610634687.000,50.781,40.527,26.367,44.434,-59.570,0
1610634687.004,109.863,32.227,34.180,77.637,-5.859,0
1610634687.008,60.547,33.203,26.855,57.129,68.848,0
1610634687.012,-11.230,47.363,35.156,-5.371,46.387,0
1610634687.016,-15.137,59.082,49.805,-8.789,5.371,0
1610634687.020,26.855,45.898,41.016,33.203,10.254,0
1610634687.024,81.543,37.598,20.508,63.477,99.121,0
1610634687.028,80.566,51.270,30.762,70.801,8.789,0
1610634687.032,17.090,57.617,49.316,25.879,-87.402,0
1610634687.036,-27.344,41.992,29.297,-28.809,-47.852,0
1610634687.039,23.438,33.203,19.531,5.859,-14.160,0
1610634687.043,95.703,32.715,28.809,73.242,41.992,0
1610634687.047,77.637,41.016,28.320,75.195,21.973,0
1610634687.051,9.277,51.270,25.879,17.578,-32.227,0
1610634687.055,-17.090,52.734,33.691,-14.160,0.488,0
1610634687.055,16.602,53.223,47.852,38.086,23.926,0
1610634687.059,93.262,50.781,50.293,83.496,63.477,0
1610634687.063,96.680,41.992,34.668,64.453,155.762,0
1610634687.067,12.695,33.203,26.367,2.930,90.332,0
1610634687.071,-23.438,36.133,36.621,-29.785,-36.133,0
1610634687.075,27.344,56.641,42.969,21.484,0.977,0
1610634687.079,95.703,48.828,26.367,70.312,40.039,0
1610634687.082,75.195,29.785,23.926,55.176,32.715,0
1610634687.086,-9.277,37.598,35.156,17.578,2.441,0
1610634687.090,-32.227,48.828,35.645,-21.484,-46.387,0
1610634687.094,12.695,48.828,45.410,11.719,-54.199,0
1610634687.098,83.008,40.039,45.410,59.570,-28.809,0
1610634687.100,88.867,39.062,38.086,63.965,6.836,0
1610634687.104,-7.324,34.668,42.969,26.855,2.930,0
1610634687.108,-39.062,32.227,43.945,-20.508,43.945,0
1610634687.112,18.066,50.293,59.570,14.648,132.324,0
1610634687.116,81.543,51.270,49.316,71.289,130.859,0
1610634687.120,103.516,30.273,28.320,81.543,39.551,0
1610634687.124,22.949,22.949,28.809,36.621,8.789,0
1610634687.127,-24.902,34.668,27.344,-16.602,-22.949,0
1610634687.131,2.930,46.387,40.527,-14.160,-88.867,0
1610634687.135,70.801,51.270,52.734,55.176,12.207,0
1610634687.139,113.770,38.086,41.504,80.078,61.035,0
1610634687.143,61.035,44.922,45.410,46.875,-17.090,0
1610634687.160,-17.578,59.570,58.105,1.953,16.602,0
1610634687.164,-25.879,38.574,35.645,-15.137,36.621,0
1610634687.168,40.527,28.320,28.809,31.250,-18.066,0
1610634687.172,95.215,40.039,38.574,84.473,-42.480,0
1610634687.176,65.918,45.898,38.574,62.500,-1.953,0
1610634687.180,-25.391,41.504,45.898,-8.789,18.066,0
1610634687.184,-25.879,37.598,52.246,-17.578,-13.184,0
1610634687.187,61.523,49.805,57.617,45.410,-28.320,0
1610634687.191,110.352,54.688,50.781,90.820,9.766,0
1610634687.195,62.012,37.109,39.551,59.082,-17.578,0
1610634687.199,-11.719,36.133,51.758,-1.465,-18.555,0
1610634687.203,-13.672,53.711,53.711,-9.277,11.719,0
1610634687.205,47.852,68.359,53.223,51.270,-25.879,0
1610634687.209,99.121,54.688,41.992,84.961,-35.645,0
1610634687.213,58.105,36.133,29.785,63.477,-40.039,0
1610634687.217,-22.461,37.109,31.738,3.906,-36.621,0
1610634687.221,-33.691,34.180,41.504,-19.531,-27.344,0
1610634687.225,26.855,37.109,43.945,28.809,-22.461,0
1610634687.229,97.168,50.781,43.457,80.078,15.625,0
1610634687.232,74.707,48.340,49.805,67.871,-12.695,0
1610634687.236,-2.930,42.969,31.738,15.137,-32.227,0
1610634687.240,-28.809,41.992,29.297,-26.855,31.738,0
1610634687.244,26.367,52.246,54.199,18.555,27.344,0
1610634687.248,113.281,66.895,54.688,97.656,57.617,0
1610634687.250,89.355,49.805,41.992,81.543,35.156,0
1610634687.254,-9.766,31.738,31.250,8.301,5.371,0
1610634687.258,-48.828,33.203,23.926,-37.109,-5.371,0
1610634687.262,-5.371,34.180,35.645,-1.465,-0.488,0
1610634687.266,80.566,39.062,43.457,66.406,65.918,0
1610634687.270,95.703,48.340,37.598,82.031,25.879,0
1610634687.274,16.602,45.898,36.621,30.762,-18.555,0
1610634687.277,-34.180,43.457,45.410,-17.090,-6.348,0
1610634687.281,0.977,44.434,47.363,-6.836,17.090,0
1610634687.285,77.637,44.922,27.832,46.387,19.043,0
1610634687.289,111.328,51.270,28.320,84.473,2.441,0
1610634687.293,51.758,51.758,57.617,53.711,10.742,0
1610634687.295,-33.203,37.109,47.363,-13.184,63.965,0
1610634687.299,-25.391,31.250,33.203,-20.508,90.332,0
1610634687.303,58.594,37.109,41.504,44.434,37.598,0
1610634687.307,106.934,49.805,44.922,85.938,20.508,0
1610634687.311,45.410,54.688,42.969,55.176,32.715,99
1610634687.315,-24.902,41.992,39.062,-8.789,11.230,0
1610634687.319,-31.738,37.109,29.297,-14.160,43.457,0
1610634687.322,28.320,39.062,26.855,42.480,74.219,0
1610634687.326,102.539,37.598,28.809,69.824,-0.488,0
1610634687.330,66.406,49.805,39.551,53.711,-45.898,0
1610634687.334,-12.207,48.340,40.527,-5.859,-62.012,0
1610634687.338,-24.414,37.109,31.738,-26.367,-30.762,0
1610634687.340,46.875,49.316,44.922,42.480,-20.996,0
1610634687.344,101.562,39.551,40.039,77.637,6.348,0
1610634687.348,60.059,33.203,21.484,54.688,65.918,0
1610634687.352,-15.625,42.969,34.668,8.301,49.805,0
1610634687.356,-24.902,39.062,57.129,-11.719,75.684,0
1610634687.360,35.645,44.434,54.688,40.527,52.734,0
1610634687.364,99.609,52.734,50.293,103.516,0.488,0
1610634687.367,80.078,58.594,53.223,96.680,36.621,0
1610634687.371,-9.766,37.109,38.086,2.441,-15.137,0
1610634687.375,-33.203,27.832,30.762,-37.109,-60.059,0
1610634687.379,20.996,46.875,41.992,23.438,-2.930,0
1610634687.383,84.961,47.363,40.527,76.660,18.066,0
1610634687.385,67.383,33.691,38.086,64.453,-8.301,0
1610634687.389,-6.348,38.574,41.992,15.137,-29.297,0
1610634687.393,-32.227,42.480,37.109,-17.578,29.297,0
1610634687.397,17.090,46.875,38.086,24.414,54.199,0
1610634687.401,109.375,57.129,41.016,91.797,45.898,0
1610634687.405,90.332,43.457,21.973,77.637,57.129,0
1610634687.409,2.441,38.574,22.461,24.414,39.062,0
1610634687.412,-28.320,41.504,46.387,-16.113,12.207,0
1610634687.416,14.648,41.504,51.758,15.137,-32.227,0
1610634687.420,81.055,46.875,42.480,83.984,-20.508,0
1610634687.424,85.938,38.086,34.180,79.590,-10.742,0
1610634687.428,20.020,36.133,35.645,16.113,-93.262,0
1610634687.430,-16.113,57.617,47.852,-14.648,-121.094,0
1610634687.434,4.395,51.758,45.410,8.301,-52.734,0
1610634687.438,72.266,37.109,38.574,56.152,43.457,0
1610634687.442,88.867,39.062,36.133,82.031,52.246,0
1610634687.446,20.020,49.805,33.203,49.805,5.859,0
1610634687.450,-10.254,63.965,46.387,13.672,-9.766,0
1610634687.454,-5.371,55.664,46.875,14.648,-37.598,0
1610634687.457,46.387,35.156,33.203,48.340,-4.883,0
1610634687.461,83.984,23.438,21.484,82.031,47.363,0
1610634687.465,30.273,29.785,35.156,53.711,25.391,0
1610634687.469,-27.832,39.551,52.246,-8.789,27.832,0
1610634687.473,-12.207,46.387,50.781,-3.906,54.199,0
1610634687.477,49.316,38.086,41.016,47.363,83.008,0
1610634687.481,81.055,21.973,28.320,67.871,24.414,0
1610634687.485,46.387,41.992,43.945,56.152,-49.316,0
1610634687.489,-17.578,50.781,50.781,5.859,1.465,0
1610634687.493,-17.090,39.551,41.016,-4.395,-1.953,0
1610634687.497,53.223,42.480,39.551,48.340,-30.762,0
1610634687.501,97.656,43.457,39.062,88.867,36.621,0
1610634687.504,43.457,38.086,36.133,66.406,29.785,0
1610634687.508,-27.832,32.715,38.574,16.113,14.648,0
1610634687.512,-22.461,42.969,42.480,8.301,42.969,0
1610634687.516,41.016,49.805,41.504,58.105,63.477,0
1610634687.520,105.469,49.316,39.062,90.332,70.312,0
1610634687.536,68.848,46.387,38.574,70.801,43.457,0
1610634687.540,-3.906,49.805,41.504,28.809,20.508,0
1610634687.544,-18.555,46.875,39.062,5.371,-41.992,0
1610634687.548,18.066,30.762,39.551,27.344,-50.781,0
1610634687.552,86.426,30.273,38.574,75.684,-6.836,0
1610634687.556,65.430,30.762,41.992,83.496,91.797,0
1610634687.560,-9.766,29.297,46.387,27.344,85.449,0
1610634687.563,-20.020,37.598,42.969,-3.906,-6.348,0
1610634687.567,24.902,41.016,43.945,37.598,-64.941,0
1610634687.571,93.262,47.363,44.434,99.609,-62.012,0
1610634687.575,77.637,52.246,40.039,96.680,13.672,0
1610634687.579,-4.883,44.434,35.645,29.297,52.734,0
1610634687.580,-32.715,40.527,38.574,-20.508,53.223,0
1610634687.584,5.859,43.457,36.133,7.324,64.453,0
1610634687.588,80.078,43.945,36.133,71.289,3.906,0
1610634687.592,83.984,36.133,26.855,83.984,-10.254,0
1610634687.596,8.789,44.922,36.133,41.016,15.625,0
1610634687.600,-32.715,48.828,51.270,-9.766,-8.789,0
1610634687.604,1.465,49.316,48.828,10.742,9.277,0
1610634687.607,74.219,46.875,56.641,79.102,39.062,0
1610634687.611,99.609,49.805,52.246,98.145,29.785,0
1610634687.615,22.461,42.969,41.992,42.480,-24.902,0
1610634687.619,-43.457,31.250,38.574,-18.555,-38.574,0
1610634687.623,-9.766,45.898,41.016,2.441,-11.230,0
1610634687.625,71.777,46.875,35.156,67.871,-8.301,0
1610634687.629,88.379,31.738,26.367,80.566,15.625,0
1610634687.633,20.020,34.668,34.668,37.598,16.113,0
1610634687.637,-34.668,41.504,41.016,-15.625,6.836,0
1610634687.641,-9.277,51.270,53.223,-0.977,-15.137,0
1610634687.645,82.031,58.594,52.246,69.824,-32.715,0
1610634687.649,109.375,44.434,41.016,109.863,18.555,0
1610634687.652,29.297,39.062,45.410,72.266,-7.812,0
1610634687.656,-24.902,50.293,59.082,5.371,-62.988,0
1610634687.660,-22.949,42.480,57.129,-19.531,-9.766,0
1610634687.664,41.016,37.598,44.922,36.133,0.977,0
1610634687.668,104.980,41.992,36.133,92.773,60.059,0
1610634687.670,62.012,47.363,38.574,63.965,114.258,0
1610634687.674,-12.695,45.410,43.945,2.930,57.617,0
1610634687.678,-14.648,44.434,37.598,-5.859,-2.930,0
1610634687.682,52.246,48.340,36.133,45.898,-3.906,0
1610634687.686,96.191,39.062,32.227,78.125,2.441,0
1610634687.690,57.129,40.527,42.480,74.219,31.738,0
1610634687.694,-15.625,41.016,46.875,15.137,21.484,0
1610634687.697,-32.227,44.434,26.367,-18.066,47.852,0
1610634687.701,27.344,45.898,27.344,31.250,-1.465,0
1610634687.705,102.051,43.457,43.457,85.449,-38.574,0
1610634687.709,83.984,48.340,44.434,89.355,34.180,0
1610634687.713,0.488,49.316,52.246,37.598,87.402,0
1610634687.715,-11.230,54.199,58.594,-1.953,30.762,0
1610634687.719,41.016,54.688,53.223,31.250,-14.648,0
1610634687.723,96.191,42.969,39.551,85.449,0.000,0
1610634687.727,83.008,40.039,39.062,91.797,-18.555,0
1610634687.731,4.395,47.363,50.781,36.133,5.859,0
1610634687.735,-37.598,36.133,33.691,-18.066,-22.949,0
1610634687.739,9.766,36.133,29.297,24.902,-64.453,0
1610634687.742,94.238,41.992,43.457,78.125,8.789,0
1610634687.746,96.191,40.527,45.410,80.078,-4.883,0
1610634687.750,19.043,48.828,46.875,41.992,18.555,0
1610634687.754,-19.043,44.922,40.527,-11.719,53.711,0
1610634687.758,12.207,46.387,46.875,11.719,33.691,0
1610634687.760,75.195,51.758,49.805,69.824,51.270,0
1610634687.764,94.238,45.410,51.270,86.426,58.105,0
1610634687.768,18.066,35.645,51.758,37.109,-31.738,0
1610634687.772,-40.527,35.645,38.086,-28.809,-5.859,0
1610634687.776,-15.625,42.969,45.410,-11.230,48.828,0
1610634687.780,58.105,36.621,49.805,58.105,19.531,0
1610634687.784,91.797,35.645,44.434,89.355,25.391,0
1610634687.787,31.250,43.945,40.039,46.387,-6.348,0
1610634687.791,-25.879,44.434,46.875,-5.371,-35.645,0
1610634687.795,-14.648,40.527,45.898,0.000,0.000,0
1610634687.799,61.035,47.363,44.922,59.082,59.082,0
1610634687.803,101.562,52.734,53.223,92.285,40.527,0
1610634687.805,34.180,46.387,54.688,41.504,-52.734,0
1610634687.809,-35.645,39.062,43.945,-18.555,-62.012,0
1610634687.813,-26.855,41.016,37.598,-12.695,0.000,0
1610634687.817,51.270,46.387,48.340,50.293,1.953,0
1610634687.821,99.121,37.598,44.922,81.055,28.809,0
1610634687.825,45.410,34.180,36.621,55.176,10.742,0
1610634687.829,-18.066,47.363,45.410,3.418,-2.930,0
1610634687.832,-17.578,53.223,51.758,-10.742,11.719,0
1610634687.836,38.086,42.969,41.016,30.273,7.324,0
1610634687.840,95.703,41.016,37.598,79.102,26.855,0
1610634687.844,56.152,52.246,48.828,69.336,16.113,0
1610634687.848,-21.484,42.480,45.898,2.441,-20.996,0
1610634687.850,-21.973,41.016,46.387,-10.742,13.672,0
1610634687.854,41.504,45.410,47.852,39.551,56.641,0
1610634687.858,96.680,36.621,38.574,81.055,50.293,0
1610634687.862,63.477,40.527,23.926,67.871,38.086,0
1610634687.866,-16.602,41.504,20.020,3.418,49.316,0
1610634687.870,-20.508,46.875,43.457,-17.578,12.695,0
1610634687.874,41.016,48.828,45.898,29.785,-27.832,0
1610634687.877,101.562,40.039,43.457,78.613,32.715,0
1610634687.881,89.355,51.758,52.246,83.008,73.242,0
1610634687.885,3.418,46.875,49.805,15.625,45.898,0
1610634687.889,-28.320,33.691,47.852,-16.602,-1.465,0
1610634687.893,27.344,47.852,61.035,40.039,-18.555,0
1610634687.910,85.938,44.434,53.223,80.566,-68.848,0
1610634687.914,75.684,34.668,39.062,77.637,-67.871,0
1610634687.918,5.371,42.969,43.945,36.133,-12.207,0
1610634687.922,-21.484,48.340,47.363,-7.812,-10.742,0
1610634687.926,20.508,47.852,38.574,20.020,6.348,0
1610634687.930,88.379,45.410,35.645,76.172,20.020,0
1610634687.934,100.586,47.852,41.992,82.520,-26.855,0
1610634687.937,14.648,40.039,36.133,31.250,-57.617,0
1610634687.941,-42.480,37.109,36.133,-20.996,-31.738,0
1610634687.945,8.301,44.434,55.176,8.301,7.324,0
1610634687.949,86.426,40.039,57.129,67.383,65.430,0
1610634687.953,93.262,35.156,46.875,77.148,27.832,0
1610634687.955,31.738,44.434,49.805,47.363,-23.438,0
1610634687.959,-12.695,46.387,50.781,0.488,-10.742,0
1610634687.963,14.160,49.316,47.363,17.578,1.953,0
1610634687.967,81.055,46.875,36.133,72.266,53.711,0
1610634687.971,97.168,41.016,34.668,90.820,47.852,0
1610634687.975,51.270,52.734,44.922,71.777,31.250,0
1610634687.979,-14.160,47.852,36.133,3.906,0.488,0
1610634687.982,-18.066,32.227,26.855,-10.742,-29.785,2
1610634687.986,57.617,31.738,26.367,52.734,32.715,0
1610634687.990,102.539,29.785,24.414,82.520,25.879,0
1610634687.994,51.270,36.133,30.273,51.270,-5.371,0
1610634687.998,-12.207,47.852,44.434,-4.395,27.832,0
1610634688.000,-20.996,41.504,43.945,-13.672,43.457,0
1610634688.004,57.129,50.293,41.992,59.570,67.871,0
1610634688.008,119.629,51.758,41.504,103.027,83.496,0
1610634688.012,56.641,36.621,22.461,66.406,12.695,0
1610634688.016,-20.508,37.598,23.438,3.906,-58.594,0
1610634688.020,-20.508,37.598,35.645,-16.113,-40.039,0
1610634688.024,45.898,34.180,37.109,42.480,36.133,0
1610634688.027,105.957,36.621,34.668,93.750,68.359,0
1610634688.031,68.359,43.457,29.785,81.055,25.391,0
1610634688.035,-0.977,50.293,38.086,24.902,5.371,0
1610634688.039,-10.742,49.316,53.711,-3.418,-31.738,0
1610634688.043,30.762,41.504,41.992,20.508,-20.020,0
1610634688.045,88.379,39.551,35.645,64.453,56.152,0
1610634688.049,74.707,47.363,43.457,73.242,47.363,0
1610634688.053,-4.883,39.551,29.297,13.184,-22.461,0
1610634688.057,-21.484,31.250,30.273,-19.531,41.504,0
1610634688.061,34.668,37.109,39.551,18.066,39.551,0
1610634688.065,93.750,37.598,40.527,71.777,-14.160,0
1610634688.069,75.195,35.156,36.133,71.289,25.391,0
1610634688.072,5.371,45.410,41.504,26.855,-33.203,0
1610634688.076,-19.043,52.734,47.363,-9.766,-29.297,0
1610634688.080,21.484,54.199,47.852,20.020,29.785,0
1610634688.084,95.215,54.688,52.246,74.707,16.602,0
1610634688.088,86.426,44.922,41.992,55.176,20.996,0
1610634688.090,1.465,37.598,37.109,-8.789,26.367,0
1610634688.094,-28.809,41.504,30.762,-35.645,-21.484,0
1610634688.098,17.090,44.922,25.391,4.395,-28.809,0
1610634688.102,91.309,45.898,48.828,67.871,16.602,0
1610634688.106,104.980,42.480,55.176,82.520,40.039,0
1610634688.110,29.785,41.504,41.504,33.691,20.996,0
1610634688.114,-17.090,46.875,40.039,-2.930,25.391,0
1610634688.117,27.344,62.012,51.758,26.855,46.387,0
1610634688.121,114.258,69.336,64.453,87.891,-25.391,0
1610634688.125,112.305,42.969,52.734,95.703,-14.160,0
1610634688.129,17.578,30.273,39.551,38.086,36.133,0
1610634688.133,-37.598,41.504,36.621,-18.066,-21.484,0
1610634688.135,-8.301,46.387,41.016,-2.441,7.324,0
1610634688.139,72.266,48.828,48.340,64.453,44.922,0
1610634688.143,110.352,42.969,43.457,89.844,50.781,0
1610634688.147,48.340,41.504,36.621,58.105,41.992,0
1610634688.151,-17.578,46.387,38.086,0.488,1.953,0
1610634688.155,-14.160,39.062,28.320,-10.742,-23.926,0
1610634688.159,73.730,55.176,48.828,70.312,19.531,0
1610634688.162,127.930,59.082,55.664,114.746,54.199,0
1610634688.166,54.199,40.039,44.922,56.152,37.598,0
1610634688.170,-21.973,40.527,48.828,-11.719,-19.043,0
1610634688.174,-23.926,32.715,32.715,-17.578,-49.805,0
1610634688.178,45.898,35.156,35.156,39.551,24.902,0
1610634688.180,98.145,38.086,40.527,81.055,44.434,0
1610634688.184,49.316,34.180,41.992,57.617,-1.465,0
1610634688.188,-9.277,38.574,41.504,1.465,-23.926,0
1610634688.192,-6.836,40.039,41.992,-16.113,-31.250,0
1610634688.196,51.270,50.781,55.664,41.992,22.949,0
1610634688.200,103.027,50.293,47.363,95.215,45.898,0
1610634688.204,60.059,41.016,33.691,68.848,20.508,0
1610634688.207,-17.578,41.016,32.227,2.441,16.113,0
1610634688.211,-41.992,35.645,34.668,-33.203,10.742,0
1610634688.215,10.254,33.203,42.969,17.090,21.484,0
1610634688.219,87.402,38.574,40.039,82.520,67.383,0
1610634688.223,85.938,47.363,44.434,77.148,33.691,0
1610634688.226,6.348,48.828,31.250,15.625,-3.418,0
1610634688.230,-28.809,46.387,12.695,-30.273,-24.414,0
1610634688.234,24.414,52.734,30.762,18.066,-36.621,0
1610634688.238,96.191,48.340,46.875,85.449,18.555,0
1610634688.242,91.797,49.316,58.594,85.938,51.758,0
1610634688.246,2.930,45.410,52.734,20.508,48.340,0
1610634688.250,-49.805,30.762,35.156,-47.852,-15.137,0
1610634688.253,-6.348,35.156,38.086,-21.484,-62.988,0
1610634688.257,82.031,39.551,42.480,54.199,-14.648,0
1610634688.261,98.145,38.086,42.480,70.312,41.992,0
1610634688.265,20.508,46.387,47.852,33.691,41.992,0
1610634688.269,-20.996,54.688,49.316,-13.184,40.527,0
1610634688.285,1.953,43.945,45.898,-2.441,35.156,0
1610634688.289,74.219,40.527,47.363,65.918,-2.441,0
1610634688.293,99.609,47.852,47.363,86.914,41.504,0
1610634688.297,21.973,41.992,41.504,39.062,70.312,0
1610634688.301,-34.668,33.691,39.062,-16.113,-25.391,0
1610634688.305,-14.648,34.668,35.645,0.488,-12.207,0
1610634688.309,61.035,41.016,27.344,59.570,91.309,0
1610634688.312,96.680,41.016,32.715,71.289,50.293,0
1610634688.316,40.039,45.898,49.316,36.133,12.207,0
1610634688.320,-19.531,47.852,48.340,-6.348,37.598,0
1610634688.324,-11.230,50.293,40.527,2.930,45.410,0
1610634688.328,65.918,55.176,49.805,63.477,19.043,0
1610634688.331,116.211,56.641,59.570,89.355,48.828,0
1610634688.335,44.922,51.270,52.246,42.969,49.316,0
1610634688.339,-43.945,28.809,35.156,-30.762,-16.113,0
1610634688.343,-20.996,33.203,37.598,-26.367,-97.656,0
1610634688.347,63.477,41.992,43.945,35.645,-52.734,0
1610634688.351,104.004,41.992,44.434,79.590,36.621,0
1610634688.355,48.340,44.922,41.992,59.570,-16.602,0
1610634688.358,-14.160,49.316,44.922,7.324,-53.223,0
1610634688.362,-18.555,49.805,51.270,-4.395,-62.500,0
1610634688.366,32.227,43.457,39.551,32.227,-34.668,0
1610634688.370,111.816,55.176,42.480,94.238,-3.906,0
1610634688.374,85.449,59.570,53.711,89.844,-22.949,0
1610634688.375,-8.301,39.062,44.922,11.230,-26.855,0
1610634688.379,-17.090,36.621,42.969,-19.531,1.465,0
1610634688.383,34.668,39.062,41.504,27.832,31.250,0
1610634688.387,96.680,37.598,39.062,79.590,9.766,0
1610634688.391,78.125,41.992,38.086,75.684,-5.859,0
1610634688.395,-8.301,39.551,41.992,16.602,25.879,0
1610634688.399,-28.809,41.504,47.363,-21.484,44.434,0
1610634688.402,17.090,42.969,45.410,22.461,19.531,0
1610634688.406,86.426,44.434,42.969,83.008,47.852,0
1610634688.410,87.891,56.152,51.270,90.820,74.219,0
1610634688.414,0.488,48.828,40.527,33.691,28.809,0
1610634688.418,-33.691,34.668,31.738,-11.719,42.480,0
1610634688.421,17.090,40.527,36.621,16.602,16.113,0
1610634688.425,72.754,39.551,25.879,55.664,-17.090,0
1610634688.429,74.219,34.180,30.762,64.941,65.918,0
1610634688.433,13.672,36.133,38.086,31.250,74.219,0
1610634688.437,-31.738,43.945,31.250,-13.672,19.531,0
1610634688.441,-0.977,46.875,40.527,9.277,-5.371,0
1610634688.445,79.590,41.992,46.387,74.707,-28.320,0
1610634688.448,95.703,39.062,45.410,102.051,20.508,0
1610634688.452,25.391,46.875,44.922,55.664,71.777,0
1610634688.456,-11.719,66.406,54.688,10.254,33.691,0
1610634688.460,5.371,50.293,51.270,15.625,-4.395,0
1610634688.464,62.500,37.109,35.645,53.711,12.695,0
1610634688.466,96.680,41.992,38.574,83.496,64.453,0
1610634688.470,28.320,31.250,26.855,42.969,4.395,0
1610634688.474,-26.855,35.645,21.484,-18.066,-5.371,0
1610634688.478,-5.371,42.480,22.949,-5.859,1.465,0
1610634688.482,64.453,45.410,30.273,65.918,-67.871,0
1610634688.486,101.562,42.969,40.527,98.145,20.508,0
1610634688.490,42.480,36.133,34.668,55.176,39.062,0
1610634688.493,-17.090,44.922,40.039,-0.488,2.930,0
1610634688.497,-7.812,61.523,56.641,4.883,2.441,0
1610634688.501,46.387,52.246,45.410,58.594,-5.859,0
1610634688.505,94.727,34.180,31.250,86.914,50.293,0
1610634688.509,49.805,36.133,33.203,55.664,66.406,0
1610634688.510,-19.531,45.410,33.691,-0.488,10.742,0
1610634688.514,-24.902,41.016,32.227,-11.719,-4.395,0
1610634688.518,41.992,50.293,43.945,50.781,-17.090,0
1610634688.522,108.887,63.477,45.898,91.797,40.039,0
1610634688.526,53.223,42.480,32.715,54.688,32.715,0
1610634688.530,-19.043,41.992,39.551,9.277,-25.391,0
1610634688.534,-20.020,47.852,43.945,-4.395,18.555,0
1610634688.537,23.438,34.668,35.645,28.809,-22.461,0
1610634688.541,88.379,29.297,47.363,76.172,30.762,0
1610634688.545,64.453,31.738,44.434,79.102,58.105,0
1610634688.549,-9.277,44.922,38.086,28.320,-36.621,0
1610634688.553,-26.367,48.828,46.387,-17.090,-7.812,0
1610634688.555,25.391,51.270,58.105,26.855,-22.949,0
1610634688.559,94.238,46.387,56.152,76.172,-13.672,0
1610634688.563,76.660,38.086,35.156,68.359,-29.785,0
1610634688.567,-7.812,36.621,38.086,19.531,-7.324,0
1610634688.571,-36.621,43.457,45.410,-16.113,17.578,0
1610634688.575,20.996,54.688,52.734,36.133,-14.648,0
1610634688.579,98.145,51.270,55.664,97.168,-29.785,0
1610634688.582,84.473,35.645,41.016,78.613,-23.438,0
1610634688.586,8.789,35.156,26.855,27.832,10.742,0
1610634688.590,-24.902,37.598,31.738,-14.160,38.086,0
1610634688.594,-1.465,37.598,37.109,0.000,45.410,0
1610634688.598,70.312,43.945,35.645,63.965,35.156,0
1610634688.600,90.820,39.062,37.598,83.496,38.086,0
1610634688.604,23.438,40.527,44.922,41.992,68.848,0
1610634688.608,-22.949,46.875,35.645,-5.859,5.859,0
1610634688.612,15.137,52.246,30.273,26.367,-33.691,0
1610634688.616,91.309,50.781,43.457,86.426,2.930,0
1610634688.620,97.656,34.668,37.598,80.566,55.176,0
1610634688.624,34.180,37.109,40.039,44.434,62.012,0
1610634688.627,-11.719,40.039,47.852,-7.324,-22.461,0
1610634688.631,-0.488,43.945,47.363,0.977,-17.090,0
1610634688.635,61.035,43.457,51.270,67.383,65.430,0
1610634688.639,96.191,40.527,52.246,92.285,13.184,0
1610634688.643,34.180,45.410,46.387,51.270,-23.438,0
1610634688.646,-32.715,45.898,47.852,-4.395,33.691,0
1610634688.650,-16.113,46.875,54.199,0.000,-17.090,0
1610634688.654,70.312,58.594,60.547,69.336,-30.273,0
1610634688.658,125.488,62.988,58.594,105.957,72.266,0
1610634688.662,51.758,43.945,39.551,61.035,70.312,0
1610634688.666,-29.785,31.738,32.227,-16.602,-0.488,0
1610634688.670,-19.531,41.016,47.852,-24.414,1.953,0
1610634688.673,45.898,42.480,45.410,47.363,50.781,0
1610634688.677,96.680,36.621,32.715,83.008,48.340,0
1610634688.681,59.082,47.363,42.969,53.711,-0.488,0
1610634688.685,-11.230,52.246,50.293,3.906,-25.879,0
1610634688.689,-25.879,45.410,44.922,-19.531,-62.988,0
1610634688.706,38.574,57.129,53.711,34.668,-55.664,0
1610634688.710,103.027,55.176,52.734,84.961,-3.906,0
1610634688.714,63.477,37.109,38.086,49.805,21.484,0
1610634688.718,-6.348,44.922,44.922,-1.953,-55.176,0
1610634688.722,-28.320,47.363,50.781,-21.484,-4.395,0
1610634688.726,14.648,31.250,39.062,14.648,43.457,0
1610634688.730,84.961,28.809,35.156,66.895,2.441,0
1610634688.733,73.730,38.086,44.434,61.523,63.965,0
1610634688.737,2.441,51.758,54.688,16.602,36.621,0
1610634688.741,-13.672,57.129,53.711,-11.230,6.836,0
1610634688.745,28.320,45.898,49.316,22.461,47.363,0
1610634688.749,83.984,34.668,35.156,67.383,74.219,0
1610634688.750,69.824,34.180,20.508,67.383,56.152,0
1610634688.754,1.953,40.527,37.109,21.973,41.504,0
1610634688.758,-22.461,50.293,51.758,-13.184,55.176,0
1610634688.762,12.695,46.387,47.852,19.531,-19.531,0
1610634688.766,77.637,34.668,42.480,65.918,-10.254,0
1610634688.770,79.590,28.320,36.133,75.684,35.645,0
1610634688.774,7.812,30.273,35.645,29.785,-9.766,0
1610634688.777,-17.578,42.969,42.480,-13.672,-10.254,0
1610634688.781,20.508,54.688,50.781,14.160,42.480,0
1610634688.785,81.543,54.199,53.711,69.336,36.133,0
1610634688.789,91.797,35.645,35.156,74.219,36.133,0
1610634688.793,16.602,23.438,28.809,28.320,42.480,0
1610634688.796,-30.273,32.715,44.922,-17.090,30.762,0
1610634688.800,0.977,45.898,51.758,0.977,0.977,0
1610634688.804,66.895,44.922,40.527,60.059,-3.906,0
1610634688.808,98.633,47.363,44.434,91.309,24.902,0
1610634688.812,41.016,45.410,44.922,59.082,-17.090,0
1610634688.816,-30.273,25.879,27.344,-12.695,-51.758,0
1610634688.820,-13.184,32.715,32.227,-7.324,-99.609,0
1610634688.823,76.660,50.781,45.410,62.500,-32.227,0
1610634688.827,121.094,45.410,46.387,95.215,-0.488,0
1610634688.831,43.945,31.250,25.391,52.734,-33.691,0
1610634688.835,-23.926,42.969,25.391,0.488,-10.742,0
1610634688.839,-16.602,43.945,45.410,-7.324,-36.621,0
1610634688.840,50.781,41.016,56.641,48.340,-2.930,0
1610634688.844,112.305,46.387,55.176,94.238,40.527,0
1610634688.848,62.988,41.504,46.875,63.477,44.434,0
1610634688.852,-17.090,41.504,41.504,1.953,30.762,0
1610634688.856,-6.348,58.105,45.410,-2.441,-39.551,0
1610634688.860,51.758,59.082,47.363,52.734,-48.828,0
1610634688.864,83.008,35.156,26.367,79.590,18.555,0
1610634688.867,45.410,29.785,23.926,52.734,57.617,0
1610634688.871,-23.926,33.203,32.227,-5.859,1.953,0
1610634688.875,-31.250,37.109,34.668,-22.949,-52.734,0
1610634688.879,30.762,43.945,47.852,34.180,-24.414,0
1610634688.883,101.074,43.457,53.711,94.727,-3.906,0
1610634688.885,77.148,43.945,48.828,78.613,-4.395,0
1610634688.889,-2.441,41.992,48.828,16.113,-8.301,0
1610634688.893,-20.020,43.945,52.734,-12.207,2.441,0
1610634688.897,25.879,54.199,60.547,28.809,13.184,0
1610634688.901,83.984,50.781,56.152,74.219,59.082,0
1610634688.905,66.895,35.645,36.133,62.012,46.875,0
1610634688.909,-6.836,32.227,31.250,6.348,-9.766,0
1610634688.912,-35.645,31.250,32.227,-35.645,-19.531,0
1610634688.916,5.859,33.203,34.668,0.977,-6.348,0
1610634688.920,74.219,36.621,35.156,58.105,62.012,0
1610634688.924,70.312,37.109,31.738,57.129,84.473,0
1610634688.928,-1.953,36.133,33.203,3.418,29.297,0
1610634688.931,-41.504,34.668,43.457,-43.945,-5.859,0
1610634688.935,0.977,39.062,52.246,-9.277,4.395,0
1610634688.939,78.613,42.969,43.457,56.641,17.090,0
1610634688.943,81.543,36.621,33.203,65.430,31.738,0
1610634688.947,-0.488,26.367,26.367,10.254,65.430,0
1610634688.951,-48.828,27.344,29.297,-41.016,20.020,0
1610634688.955,-13.672,42.480,40.527,-20.996,-52.734,0
1610634688.958,58.105,43.457,37.598,33.691,7.812,0
1610634688.962,78.125,35.645,35.645,56.641,37.109,0
1610634688.966,11.230,38.574,38.574,27.832,13.184,0
1610634688.970,-45.410,44.434,36.621,-32.715,-19.043,0
1610634688.974,-26.855,46.875,37.109,-34.668,17.578,0
1610634688.975,43.457,43.457,34.668,30.273,61.035,0
1610634688.979,83.496,49.805,41.504,72.266,50.781,0
1610634688.983,13.672,48.828,46.875,26.367,72.754,0
1610634688.987,-73.730,36.621,32.715,-59.570,55.176,0
1610634688.991,-77.148,36.621,28.320,-67.383,33.203,0
1610634688.995,-9.277,40.039,28.809,-17.090,-3.418,0
1610634688.999,38.086,37.109,20.020,10.742,14.160,0
1610634689.002,-20.508,35.645,22.949,-18.555,1.465,0
1610634689.006,-103.027,36.133,28.320,-83.496,-12.695,0
1610634689.010,-103.516,41.504,27.832,-97.168,40.039,0
1610634689.014,-33.203,48.340,31.738,-40.527,-9.277,0
1610634689.018,28.809,43.945,27.344,-1.953,-3.418,0
1610634689.035,-33.691,40.039,19.043,-38.086,38.086,0
1610634689.039,-109.863,50.293,30.762,-95.215,7.324,0
1610634689.043,-105.469,59.570,35.645,-113.281,-37.109,0
1610634689.047,-69.824,46.387,21.973,-78.125,-22.949,0
1610634689.051,-6.348,39.062,21.484,-24.902,-22.461,0
1610634689.055,-20.508,45.898,26.367,-30.273,-33.203,0
1610634689.059,-95.703,49.316,28.320,-84.473,26.855,0
1610634689.062,-110.840,50.781,31.250,-105.469,38.574,0
1610634689.066,-55.664,51.758,35.156,-54.199,17.090,0
1610634689.070,13.184,49.316,41.504,2.441,-47.852,0
1610634689.074,-3.418,39.551,45.410,3.906,6.348,0
1610634689.078,-84.961,34.180,31.738,-47.852,48.340,0
1610634689.081,-101.074,52.734,30.762,-79.590,-31.250,0
1610634689.085,-53.223,43.945,36.621,-47.363,-61.035,0
1610634689.089,35.156,33.203,35.645,18.066,13.672,0
1610634689.093,48.828,42.969,41.992,39.551,18.066,0
1610634689.097,-36.133,40.039,40.527,-11.719,-31.738,0
1610634689.101,-69.824,34.180,41.016,-38.086,-33.203,0
1610634689.105,-20.508,35.156,52.246,0.488,-44.922,0
1610634689.108,73.730,52.734,59.570,62.988,0.000,0
1610634689.112,79.590,50.781,47.363,66.406,1.953,0
1610634689.116,-3.906,22.461,30.273,10.742,-9.766,0
1610634689.120,-33.203,30.762,35.645,-20.020,32.715,0
1610634689.124,10.742,45.410,42.969,16.113,65.430,0
1610634689.126,88.867,45.898,47.363,81.543,23.438,0
1610634689.130,114.258,42.969,36.133,96.191,42.969,0
1610634689.134,47.852,39.551,36.621,56.641,34.668,0
1610634689.138,3.418,42.969,38.574,11.230,-51.758,0
1610634689.142,39.062,54.688,41.504,38.086,-30.273,0
1610634689.146,116.211,60.059,45.898,113.281,0.977,0
1610634689.150,136.230,44.434,29.297,131.348,43.457,0
1610634689.153,72.754,36.133,20.996,92.773,44.922,0
1610634689.157,26.855,41.504,39.551,33.203,30.273,0
1610634689.161,38.574,49.805,51.758,23.438,28.809,0
1610634689.165,98.633,48.340,41.016,92.773,-8.789,0
1610634689.169,145.508,43.945,30.273,131.836,8.789,0
1610634689.171,86.426,38.086,29.297,90.820,60.059,0
1610634689.175,20.508,47.363,42.969,34.180,6.836,0
1610634689.179,16.113,44.434,43.457,23.438,-18.066,0
1610634689.183,70.801,38.574,37.598,75.195,37.598,0
1610634689.187,132.324,45.898,35.156,117.676,58.594,0
1610634689.191,92.285,41.992,36.133,93.750,3.906,0
1610634689.195,19.043,38.574,41.016,40.527,-34.180,0
1610634689.198,13.184,38.574,39.551,23.438,-31.738,0
1610634689.202,83.984,45.410,52.734,77.637,-10.254,0
1610634689.206,152.832,44.922,56.152,127.930,-12.207,0
1610634689.210,116.699,43.457,47.852,114.746,5.371,0
1610634689.214,47.852,55.176,57.129,63.477,-0.977,0
1610634689.215,19.531,40.527,41.016,22.949,-22.461,0
1610634689.219,60.059,24.414,26.855,55.664,38.086,0
1610634689.223,142.578,29.785,38.574,104.004,50.781,0
1610634689.227,120.117,38.574,43.457,98.145,27.832,0
1610634689.231,25.391,41.504,41.504,42.480,84.961,0
1610634689.235,0.977,35.156,41.016,5.859,31.250,0
1610634689.239,46.875,37.598,40.039,54.688,-33.203,0
1610634689.242,125.977,45.898,41.016,117.676,-4.883,0
1610634689.246,118.164,43.945,41.992,109.375,12.207,0
1610634689.250,32.715,40.039,36.133,55.176,-26.855,0
1610634689.254,11.230,57.617,46.387,24.414,-33.691,0
1610634689.258,52.734,61.523,57.617,56.641,3.906,0
1610634689.260,97.168,29.297,29.785,85.938,34.180,0
1610634689.264,95.215,23.438,20.020,87.402,49.316,0
1610634689.268,31.738,36.133,32.715,50.781,-4.395,0
1610634689.272,-2.930,45.410,41.504,5.371,-11.719,0
1610634689.276,26.367,49.316,32.715,30.273,-52.734,0
1610634689.280,101.074,48.828,31.250,97.656,-36.621,0
1610634689.284,124.023,43.457,38.086,119.629,20.020,0
1610634689.287,62.012,42.969,46.387,57.617,41.016,0
1610634689.291,15.625,48.828,46.387,-1.953,57.129,0
1610634689.295,11.719,41.016,33.691,10.742,37.598,0
1610634689.299,76.172,42.480,42.480,70.312,61.035,0
1610634689.303,112.305,44.434,39.062,104.980,51.758,0
1610634689.305,31.250,36.133,24.902,56.152,39.551,0
1610634689.309,-22.949,41.016,38.574,7.324,20.996,0
1610634689.313,4.883,41.504,47.852,21.484,-7.324,0
1610634689.317,67.871,37.598,44.434,67.383,56.641,0
1610634689.321,116.211,47.852,45.898,104.492,81.055,0
1610634689.325,52.734,42.480,44.922,66.895,20.508,0
1610634689.329,-28.809,25.879,30.762,-10.742,-32.227,0
1610634689.332,-22.949,30.273,23.438,-12.695,6.348,0
1610634689.336,49.805,41.504,31.250,49.805,89.355,0
1610634689.340,110.352,46.387,39.551,92.773,23.438,0
1610634689.344,57.129,38.086,26.855,63.477,0.000,0
1610634689.348,-14.160,34.668,17.090,-0.488,26.855,0
1610634689.350,-14.648,38.574,29.785,-13.184,-6.836,0
1610634689.354,60.059,57.617,56.641,61.523,-54.199,0
1610634689.358,120.605,53.223,62.012,109.375,-28.320,0
1610634689.362,67.871,32.227,44.434,70.312,14.648,0
1610634689.366,0.488,35.156,32.715,7.812,19.043,0
1610634689.370,-15.625,34.180,27.832,-20.020,37.109,0
1610634689.374,34.180,39.551,37.598,23.438,-24.902,0
1610634689.377,93.750,39.062,37.109,74.219,8.789,0
1610634689.381,72.754,40.039,39.062,78.613,71.289,0
1610634689.385,-0.488,42.480,49.316,22.949,31.738,0
1610634689.389,-30.273,32.715,42.969,-22.461,31.738,0
1610634689.393,13.184,28.809,33.691,18.066,-12.695,0
1610634689.396,102.051,49.316,53.711,97.656,32.715,0
1610634689.400,97.168,54.688,56.152,106.934,92.285,0
1610634689.404,-12.207,26.855,31.250,16.602,36.133,0
1610634689.408,-50.781,18.555,36.621,-36.621,9.766,0
1610634689.412,2.930,27.832,31.738,11.719,29.297,0
1610634689.416,86.426,31.250,24.902,70.801,64.941,0
1610634689.420,90.332,38.086,41.016,67.871,67.383,0
1610634689.423,23.438,52.734,48.340,24.902,-19.043,0
1610634689.427,-20.020,56.641,53.711,-4.883,-45.410,0
1610634689.431,17.090,51.758,52.246,17.090,21.973,0
1610634689.435,107.910,52.246,43.945,69.336,55.664,0
1610634689.439,108.398,41.504,40.527,84.961,25.879,0
1610634689.455,23.438,32.227,30.762,34.180,-21.973,0
1610634689.459,-14.648,31.738,25.391,-21.484,-6.836,0
1610634689.463,-1.953,27.344,35.645,-1.465,-101.562,0
1610634689.467,66.406,32.715,37.598,65.918,-71.777,0
1610634689.471,110.352,36.133,30.762,84.961,64.453,0
1610634689.475,36.133,39.551,36.133,45.410,-10.254,0
1610634689.479,-9.277,55.176,49.805,11.230,-56.152,0
1610634689.482,17.090,57.617,52.246,9.766,-74.707,0
1610634689.486,58.105,31.250,30.762,40.039,-55.176,0
1610634689.490,80.078,16.602,23.926,63.477,-1.465,0
1610634689.494,28.320,22.461,32.227,45.898,-26.367,0
1610634689.498,-23.438,33.203,50.293,5.859,-32.227,0
1610634689.500,-11.719,40.527,49.805,3.418,-35.156,0
1610634689.504,57.617,43.457,35.645,62.500,-8.789,0
1610634689.508,101.562,31.250,31.738,88.379,20.508,0
1610634689.512,58.105,36.621,36.133,62.500,8.789,0
1610634689.516,-2.930,49.805,49.805,12.695,36.621,0
1610634689.520,-8.789,46.875,56.152,-10.742,-21.973,0
1610634689.524,47.852,43.945,47.363,36.133,-51.270,0
1610634689.527,93.262,33.203,30.762,69.824,0.488,0
1610634689.531,61.035,33.691,28.809,48.340,54.688,0
1610634689.535,-4.883,37.598,38.574,-1.953,39.551,0
1610634689.539,-13.184,40.527,41.016,-5.371,14.160,0
1610634689.543,39.062,41.016,41.504,49.316,-1.953,0
1610634689.545,98.633,33.691,41.504,90.820,14.160,0
1610634689.549,84.961,39.062,36.133,71.289,74.219,0
1610634689.553,15.625,51.758,41.992,36.621,52.246,0
1610634689.557,-13.672,46.387,42.969,17.578,-27.344,0
1610634689.561,30.273,41.992,50.781,43.457,-26.367,0
1610634689.565,91.309,40.039,49.805,83.496,58.594,0
1610634689.569,58.594,24.414,37.598,64.453,81.543,0
1610634689.572,-16.602,22.949,35.156,6.348,75.195,0
1610634689.576,-46.387,25.391,30.762,-25.879,20.508,0
1610634689.580,-0.977,27.832,31.250,14.160,-13.184,0
1610634689.584,76.172,31.738,41.504,79.102,0.000,0
1610634689.588,76.172,31.738,43.457,88.379,26.855,0
1610634689.591,-10.254,40.039,37.598,28.809,53.711,0
1610634689.595,-33.203,48.828,38.086,-8.789,5.371,0
1610634689.599,20.508,36.621,21.484,20.020,-33.691,0
1610634689.603,81.543,29.785,23.926,71.289,-28.320,0
1610634689.607,97.168,40.039,43.457,85.938,-16.602,0
1610634689.611,11.230,37.598,40.039,32.715,-14.648,0
1610634689.615,-47.852,31.738,31.738,-23.926,-8.301,0
1610634689.618,-3.906,41.016,38.086,9.277,-13.672,0
1610634689.622,86.914,51.758,47.363,72.754,-14.648,0
1610634689.626,102.539,46.387,43.457,67.871,-33.203,0
1610634689.630,39.062,48.828,44.922,29.297,-32.227,0
1610634689.634,-11.719,47.363,41.504,-26.855,-46.387,0
1610634689.636,-7.812,34.668,34.180,-31.738,-4.883,0
1610634689.640,62.500,32.227,33.691,39.062,51.270,0
1610634689.644,96.680,34.668,30.273,72.754,9.277,0
1610634689.648,41.016,43.457,41.016,50.781,12.207,0
1610634689.652,-17.090,43.945,42.969,-2.441,17.578,0
1610634689.656,-17.578,36.621,30.762,-12.207,40.527,0
1610634689.660,48.828,34.668,34.668,43.945,22.949,0
1610634689.663,116.699,46.875,59.082,92.285,43.945,0
1610634689.667,71.289,51.758,50.293,59.082,103.516,0
1610634689.671,-13.672,41.504,34.668,-3.906,56.641,0
1610634689.675,-17.578,41.992,38.086,-12.695,45.410,0
1610634689.679,49.805,39.062,41.016,26.367,27.832,0
1610634689.681,115.234,41.504,37.598,70.312,18.066,0
1610634689.685,65.430,46.387,35.156,53.223,12.695,0
1610634689.689,-12.207,47.852,37.109,-9.766,48.828,0
1610634689.693,-13.672,51.758,42.969,-20.508,26.367,0
1610634689.697,54.199,60.059,59.082,47.852,-30.273,0
1610634689.701,109.863,54.688,48.340,89.355,28.809,0
1610634689.705,55.664,35.645,30.273,47.363,38.574,0
1610634689.708,-27.344,30.762,23.926,-23.438,35.645,0
1610634689.712,-33.203,37.598,28.809,-38.574,-13.672,0
1610634689.716,27.832,37.598,33.203,26.367,-102.539,0
1610634689.720,95.703,35.645,22.461,75.684,-39.551,0
1610634689.724,74.707,38.574,32.227,58.105,47.363,0
1610634689.725,2.441,42.480,49.316,11.230,53.223,0
1610634689.729,-12.207,47.363,59.570,-14.160,9.277,0
1610634689.733,34.180,50.781,55.176,27.832,39.551,0
1610634689.737,91.797,43.457,37.109,67.871,86.914,0
1610634689.741,79.590,41.992,38.574,66.406,42.480,0
1610634689.745,-4.395,38.086,41.016,19.531,13.184,0
1610634689.749,-32.227,30.762,35.156,-33.691,38.574,0
1610634689.752,12.695,32.227,36.133,-5.371,73.242,0
1610634689.756,78.613,41.016,36.621,65.918,57.129,0
1610634689.760,89.844,45.898,42.969,82.520,77.148,0
1610634689.764,18.555,40.039,45.898,29.785,106.934,0
1610634689.768,-27.344,38.086,38.574,-19.043,18.555,0
1610634689.785,7.812,42.480,45.898,14.648,-25.391,0
1610634689.789,82.031,37.109,48.340,65.918,-21.484,0
1610634689.793,105.957,44.922,51.758,97.168,8.789,0
1610634689.797,45.410,52.246,46.875,67.383,18.555,0
1610634689.801,-15.137,43.945,31.738,-12.695,-51.758,0
1610634689.805,-5.859,34.180,35.156,-14.160,-15.625,0
1610634689.809,58.105,28.809,41.504,41.504,22.949,0
1610634689.812,86.426,37.109,41.504,63.965,34.668,0
1610634689.816,30.273,39.062,45.410,37.109,28.809,0
1610634689.820,-22.461,38.574,51.270,-16.113,2.930,0
1610634689.824,-10.254,43.945,44.922,-14.648,23.438,0
1610634689.828,70.312,51.270,44.922,65.430,0.488,0
1610634689.830,128.906,55.176,50.293,101.562,19.043,0
1610634689.834,61.035,45.898,37.109,58.594,15.625,0
1610634689.838,-24.414,41.504,23.438,-6.348,-33.203,0
1610634689.842,-8.789,55.664,32.227,-9.277,-34.668,0
1610634689.846,43.457,48.340,29.785,40.527,27.344,0
1610634689.850,81.055,29.785,20.020,63.477,81.543,0
1610634689.854,48.828,33.203,31.738,48.828,126.953,0
1610634689.857,-20.996,40.039,34.180,-6.836,74.707,0
1610634689.861,-21.484,47.363,43.457,-22.949,-11.719,0
1610634689.865,32.715,45.410,46.875,28.809,-50.293,0
1610634689.869,95.215,44.434,35.156,84.961,-2.930,0
1610634689.873,75.684,53.711,46.875,87.402,33.203,0
1610634689.875,-0.488,49.805,51.270,23.926,17.090,0
1610634689.879,-21.973,41.992,37.598,-9.277,45.898,0
1610634689.883,17.578,35.645,25.391,29.785,60.059,0
1610634689.887,79.590,31.738,30.273,64.453,56.152,0
1610634689.891,57.617,33.691,35.156,52.734,23.926,0
1610634689.895,-15.625,38.574,32.227,11.719,2.930,0
1610634689.899,-25.391,41.992,37.598,-16.113,-32.227,0
1610634689.902,17.578,46.875,41.016,25.391,-27.344,0
1610634689.906,84.473,46.875,41.016,83.984,35.645,0
1610634689.910,89.355,49.805,41.992,85.938,21.973,0
1610634689.914,7.812,46.875,29.785,27.832,11.719,0
1610634689.918,-38.086,28.809,31.738,-27.344,24.414,0
1610634689.936,9.277,30.762,47.852,12.695,-6.348,0
1610634689.940,93.750,37.109,46.875,86.426,16.602,0
1610634689.944,89.844,36.133,41.504,95.215,6.348,0
1610634689.948,14.648,43.457,42.480,37.598,-15.137,0
1610634689.952,-20.020,45.410,38.574,-10.254,-59.570,0
1610634689.956,3.418,35.645,36.133,8.301,-33.203,0
1610634689.960,80.078,41.016,44.434,63.965,38.574,0
1610634689.963,92.773,44.434,40.039,82.520,-17.578,0
1610634689.967,34.180,52.246,50.293,55.176,-56.641,0
1610634689.971,-8.301,55.664,55.176,12.695,-42.969,0
1610634689.975,-7.324,34.180,36.133,5.371,48.340,0
1610634689.979,61.523,24.902,36.133,55.176,87.402,0
1610634689.966,104.980,37.598,42.969,102.539,47.363,0
1610634689.970,32.715,47.363,30.273,69.336,5.859,0
1610634689.974,-44.922,30.273,26.855,-9.277,12.207,0
1610634689.978,-17.090,29.297,48.828,0.488,-7.812,0
1610634689.982,69.824,43.945,58.594,73.242,-22.461,0
1610634689.986,97.656,37.598,42.969,95.215,6.348,0
1610634689.990,25.391,34.668,38.574,54.199,19.531,0
1610634689.993,-34.180,40.039,46.387,-0.977,72.754,0
1610634689.997,-17.090,45.898,47.363,-0.488,8.301,0
1610634690.001,48.340,45.410,38.574,48.828,-74.219,0
1610634690.005,99.121,39.062,41.016,90.332,-67.383,0
1610634690.009,47.852,40.039,43.945,64.941,-14.160,0
1610634690.011,-6.836,57.617,47.852,15.625,0.000,0
1610634690.015,-9.766,53.711,51.270,8.301,6.836,0
1610634690.019,31.738,30.273,37.598,36.621,4.395,0
1610634690.023,100.098,39.551,32.227,77.148,-14.648,0
1610634690.027,62.012,44.434,27.832,62.988,4.883,0
1610634690.031,-18.555,43.945,34.180,8.301,-1.465,0
1610634690.035,-22.949,48.340,53.223,-8.789,36.133,0
1610634690.038,29.297,41.992,51.270,29.785,56.152,0
1610634690.042,87.402,37.598,35.645,72.754,20.020,0
1610634690.046,60.547,41.992,33.203,64.941,2.930,0
1610634690.050,-16.113,45.898,35.156,9.277,22.461,0
1610634690.054,-25.391,45.898,36.621,-17.578,30.273,0
1610634690.055,27.344,45.898,36.133,23.926,40.527,0
1610634690.059,99.121,54.688,43.457,84.473,27.344,0
1610634690.063,86.914,55.176,44.922,89.844,40.039,0
1610634690.067,-8.789,32.715,26.367,20.996,46.387,0
1610634690.071,-38.574,22.949,21.973,-28.320,-45.410,0
1610634690.075,14.160,34.180,28.320,14.648,-44.434,0
1610634690.079,94.238,40.039,40.527,86.914,89.355,0
1610634690.082,81.543,36.621,41.016,79.102,122.559,0
1610634690.086,-2.930,37.598,39.551,21.973,-33.691,0
1610634690.090,-26.367,37.598,37.109,-19.043,-22.461,0
1610634690.094,23.926,48.828,44.922,11.230,62.988,0
1610634690.098,91.309,45.898,45.410,74.707,-3.906,0
1610634690.100,95.215,37.109,25.879,82.520,27.832,0
1610634690.104,23.438,41.504,29.297,41.504,7.812,0
1610634690.108,-25.391,47.363,41.504,-16.602,-34.180,0
1610634690.112,-8.789,39.551,29.297,-15.625,-28.320,0
1610634690.116,60.059,26.367,17.090,46.387,43.945,0
1610634690.120,97.168,43.457,34.180,90.332,81.543,0
1610634690.124,24.902,47.852,50.293,45.410,36.621,0
1610634690.127,-41.992,35.645,43.457,-24.414,-14.160,0
1610634690.131,-7.324,46.875,51.758,2.930,-17.090,0
1610634690.135,65.918,49.316,55.176,64.453,4.883,0
1610634690.139,88.379,34.180,35.645,80.566,-0.488,0
1610634690.143,26.855,32.715,35.645,49.805,32.715,0
1610634690.147,-29.297,38.086,46.875,-6.348,4.395,0
1610634690.151,-13.184,38.574,45.410,-6.836,-50.293,0
1610634690.155,61.523,42.480,40.039,52.246,-54.688,0
1610634690.159,121.094,52.246,46.387,89.844,45.410,0
1610634690.163,58.105,47.852,46.387,60.059,80.078,0
1610634690.167,-23.926,38.086,41.992,-2.930,-7.812,0
1610634690.171,-9.277,47.852,48.828,5.371,-7.812,0
1610634690.174,59.570,55.664,53.223,69.336,35.156,0
1610634690.178,95.703,36.133,38.574,88.867,28.320,0
1610634690.182,36.621,25.879,33.203,58.105,30.273,0
1610634690.186,-31.250,31.250,41.016,1.465,45.410,0
1610634690.190,-25.879,36.133,40.527,-13.672,-2.930,0
1610634690.206,34.180,36.133,37.109,37.598,6.348,0
1610634690.210,92.285,38.574,42.480,85.938,67.383,0
1610634690.214,68.359,43.945,55.664,81.543,-4.395,0
1610634690.218,-0.977,43.457,48.828,22.461,-61.523,0
1610634690.222,-13.672,40.527,44.922,-8.301,-18.555,0
1610634690.226,45.898,41.992,48.340,36.621,-6.348,0
1610634690.230,99.609,32.227,34.180,78.125,-10.742,0
1610634690.233,72.266,28.809,35.156,74.219,-1.465,0
1610634690.237,3.418,31.250,38.574,28.320,27.832,0
1610634690.241,-25.391,33.691,39.551,-9.277,-25.879,0
1610634690.245,13.184,39.551,38.086,20.508,-60.059,0
1610634690.249,89.355,41.016,41.992,88.379,-42.969,0
1610634690.251,81.543,44.922,40.527,94.238,2.930,0
1610634690.255,3.906,44.922,38.574,30.762,89.844,0
1610634690.259,-14.648,48.828,45.410,-1.465,33.203,0
1610634690.263,28.809,50.293,36.133,32.227,-26.855,0
1610634690.267,85.449,37.598,23.438,78.125,20.508,0
1610634690.271,81.543,21.973,22.461,85.938,8.301,0
1610634690.275,7.324,17.578,20.996,26.367,3.906,0
1610634690.278,-35.156,28.320,36.133,-24.902,-24.902,0
1610634690.282,0.488,36.133,54.688,15.137,-38.574,0
1610634690.286,82.520,40.527,56.152,81.055,17.090,0
1610634690.290,99.121,41.992,50.781,92.773,16.113,0
1610634690.294,32.715,45.898,53.711,50.293,6.348,0
1610634690.295,-17.090,52.734,58.105,5.859,48.340,0
1610634690.299,0.000,53.223,54.199,24.902,0.488,0
1610634690.303,69.824,48.340,46.387,71.777,14.648,0
1610634690.307,79.102,27.344,28.809,65.918,119.629,0
1610634690.311,9.766,20.020,31.738,24.902,112.793,0
1610634690.315,-31.250,31.738,45.410,-10.254,27.832,0
1610634690.319,-5.859,39.551,46.387,-2.441,-0.488,0
1610634690.322,62.988,36.621,42.480,53.223,42.480,0
1610634690.326,109.375,45.898,40.527,89.844,41.992,0
1610634690.330,45.898,50.293,48.340,50.293,53.223,0
1610634690.334,-31.250,43.457,48.828,-7.324,36.133,0
1610634690.338,-7.324,52.246,47.852,8.789,12.207,0
1610634690.340,57.617,47.852,50.781,54.199,12.695,0
1610634690.344,94.727,37.598,34.668,84.473,47.852,0
1610634690.348,54.199,37.598,24.414,62.988,39.551,0
1610634690.352,-8.789,33.691,41.504,0.488,39.062,0
1610634690.356,-18.066,32.227,42.969,-19.531,-39.551,0
1610634690.360,39.062,41.504,36.621,33.691,-59.082,0
1610634690.364,99.609,33.691,30.762,80.566,-31.250,0
1610634690.367,67.871,42.969,45.410,72.266,-11.230,0
1610634690.371,1.953,57.617,52.246,21.484,70.312,0
1610634690.375,-15.137,45.898,37.109,-13.672,6.836,0
1610634690.379,41.992,48.828,51.270,40.039,-19.043,0
1610634690.383,108.398,48.340,53.223,93.750,22.461,0
1610634690.387,65.918,32.715,24.902,73.242,10.254,0
1610634690.391,-14.648,35.156,26.367,9.766,64.453,0
1610634690.395,-10.742,55.176,41.504,-8.789,80.078,0
1610634690.399,30.273,54.199,33.691,31.738,49.805,0
1610634690.403,79.590,40.527,29.785,74.707,120.605,0
1610634690.407,74.707,37.598,35.645,85.938,75.195,0
1610634690.411,1.465,34.180,33.203,32.715,-37.109,0
1610634690.414,-6.348,57.129,35.156,-3.906,-13.672,0
1610634690.418,40.527,66.406,47.852,40.527,16.113,0
1610634690.422,78.613,39.062,40.527,79.590,55.664,0
1610634690.426,71.289,32.715,32.227,71.289,6.348,0
1610634690.430,4.883,36.133,35.645,24.414,-28.809,0
1610634690.430,-30.273,38.574,37.109,-20.020,60.059,0
1610634690.434,-0.488,40.527,40.039,4.395,20.508,0
1610634690.438,76.172,42.969,43.457,68.359,-34.180,0
1610634690.442,97.656,52.734,46.387,91.797,-4.883,0
1610634690.446,14.648,41.504,39.551,36.133,35.156,0
1610634690.450,-31.738,42.480,41.504,-9.277,85.449,0
1610634690.454,6.836,59.082,40.527,14.160,37.598,0
1610634690.457,62.012,43.945,23.438,48.828,27.344,0
1610634690.461,76.660,31.738,31.738,69.336,74.707,0
1610634690.465,20.020,40.527,44.434,44.434,10.742,0
1610634690.469,-34.180,44.434,40.039,-12.207,-19.531,0
1610634690.473,-12.207,40.527,41.016,-10.742,45.898,0
1610634690.475,60.059,41.016,40.039,52.246,-13.184,0
1610634690.479,94.238,40.039,45.410,95.703,-18.555,0
1610634690.483,35.645,37.109,45.410,57.129,5.859,0
1610634690.487,-27.832,37.598,31.250,-2.930,-58.105,0
1610634690.491,0.488,50.781,41.992,20.508,-83.984,0
1610634690.495,74.707,59.082,57.617,79.102,-48.828,0
1610634690.499,103.516,45.898,49.805,79.590,22.949,0
1610634690.502,35.645,31.738,37.109,34.668,-2.930,0
1610634690.506,-32.227,35.156,33.691,-10.742,-66.895,0
1610634690.510,-25.391,40.527,41.504,-13.184,-10.742,0
1610634690.514,32.715,37.109,43.457,37.109,53.711,0
1610634690.518,88.867,33.203,41.992,86.426,64.453,0
1610634690.535,54.688,35.156,36.621,72.266,8.789,0
1610634690.539,-6.348,43.945,41.504,15.137,0.000,0
1610634690.543,-9.766,46.387,48.340,-0.488,-6.836,0
1610634690.547,44.922,46.875,53.223,51.270,-0.977,0
1610634690.551,105.469,57.129,59.570,100.098,62.500,0
1610634690.555,63.477,43.457,35.645,70.801,0.000,0
1610634690.559,-25.391,27.832,20.996,-4.883,-8.301,0
1610634690.562,-44.434,30.273,29.785,-42.480,32.227,0
1610634690.566,13.184,35.156,42.480,8.789,-36.133,0
1610634690.570,91.309,40.527,33.203,67.383,16.602,0
1610634690.574,81.055,41.992,35.156,67.383,62.012,0
1610634690.578,2.441,43.457,46.875,20.508,34.180,0
1610634690.580,-24.414,46.875,43.457,-7.324,-10.742,0
1610634690.584,16.602,37.598,48.340,21.484,-48.828,0
1610634690.588,104.004,44.922,57.129,89.844,-11.230,0
1610634690.592,107.422,59.570,61.523,108.887,15.625,0
1610634690.596,-1.953,41.016,39.551,28.320,-11.230,0
1610634690.600,-35.645,38.086,29.297,-16.113,-61.523,0
1610634690.604,26.367,48.828,41.016,28.809,-31.738,0
1610634690.607,89.355,40.527,43.945,70.312,-33.691,0
1610634690.611,80.566,32.715,40.039,63.477,-21.973,0
1610634690.615,14.648,39.551,45.410,20.996,-16.602,0
1610634690.619,-26.367,44.922,49.316,-18.066,-19.531,0
1610634690.623,-2.930,39.551,41.992,1.465,-19.531,0
1610634690.625,74.219,41.992,42.480,63.965,-16.602,0
1610634690.629,108.887,51.758,55.664,92.773,17.578,0
1610634690.633,30.273,48.340,45.410,35.645,22.461,0
1610634690.637,-35.645,41.504,28.809,-24.414,-7.324,0
1610634690.641,-8.789,39.062,21.973,0.977,-17.090,0
1610634690.645,77.637,41.016,34.180,66.895,-15.137,0
1610634690.649,113.770,50.781,53.711,90.820,22.949,0
1610634690.652,42.480,50.293,55.664,56.152,5.371,0
1610634690.656,-15.137,51.758,46.875,4.395,-17.578,0
1610634690.660,-5.859,51.270,35.645,-6.836,-15.137,0
1610634690.664,64.941,56.641,40.527,51.758,-4.395,0
1610634690.668,119.629,51.270,43.457,89.844,9.277,0
1610634690.670,53.223,30.762,32.715,48.340,-24.902,0
1610634690.674,-11.230,45.410,37.598,-5.859,20.508,0
1610634690.678,0.977,58.105,48.340,-12.207,44.434,0
1610634690.682,43.945,44.434,43.457,37.109,4.883,0
1610634690.686,91.797,38.574,35.156,71.777,19.531,0
1610634690.690,53.223,43.457,34.180,58.594,-6.348,0
1610634690.694,-13.184,48.828,39.551,7.812,-2.441,0
1610634690.697,-15.625,47.852,33.691,-15.625,51.758,0
1610634690.701,54.199,55.176,40.527,38.574,23.438,0
1610634690.705,114.258,56.641,44.922,92.773,36.133,0
1610634690.709,57.129,38.086,24.902,58.594,72.266,0
1610634690.713,-10.742,41.504,31.738,-2.441,19.531,0
1610634690.715,-18.066,45.898,33.691,-11.719,-9.766,0
1610634690.719,24.414,39.062,28.320,29.297,35.156,0
1610634690.723,99.121,45.410,41.504,85.449,54.199,0
1610634690.727,84.961,44.434,39.551,81.543,17.090,0
1610634690.731,0.488,42.480,37.109,19.531,6.836,0
1610634690.735,-25.879,45.410,41.504,-17.090,41.016,0
1610634690.739,20.996,43.945,27.344,20.508,-1.465,0
1610634690.742,96.191,46.875,34.180,84.473,0.488,0
1610634690.746,91.797,51.270,49.316,87.402,55.176,0
1610634690.750,16.113,54.199,44.434,37.598,33.203,0
1610634690.754,-18.555,53.711,55.664,-2.930,19.043,0
1610634690.758,3.418,34.668,47.363,11.230,49.805,0
1610634690.760,66.895,26.855,31.738,61.035,14.160,0
1610634690.764,74.219,36.621,31.250,82.031,-9.277,0
1610634690.768,5.859,42.480,34.668,38.086,-10.254,0
1610634690.772,-25.879,45.898,43.945,-4.395,-0.488,0
1610634690.776,11.719,46.387,50.781,24.414,11.719,0
1610634690.780,85.938,50.781,53.223,97.168,-25.879,0
1610634690.784,101.562,48.828,49.805,106.445,-5.859,0
1610634690.787,23.438,39.062,35.645,39.551,22.949,0
1610634690.791,-26.855,45.898,37.598,-11.719,47.852,0
1610634690.795,7.324,51.758,43.457,11.230,28.809,0
1610634690.799,90.332,51.758,41.992,81.543,-7.324,0
1610634690.803,112.305,48.340,41.504,105.957,7.324,0
1610634690.805,34.668,40.527,26.367,51.270,-9.766,0
1610634690.809,-19.043,41.992,20.020,-10.742,-17.090,0
1610634690.813,2.441,48.828,40.527,4.883,-4.883,0
1610634690.817,70.801,45.898,52.734,69.336,46.387,0
1610634690.821,109.375,41.992,47.363,108.887,52.734,0
1610634690.825,55.176,52.734,49.805,76.660,14.648,0
1610634690.829,-20.020,45.898,46.875,10.742,27.344,0
1610634690.832,-31.738,32.227,33.691,-10.742,-34.668,0
1610634690.836,46.387,43.457,45.898,58.105,-25.879,0
1610634690.840,105.957,49.805,42.969,104.004,54.199,0
1610634690.844,41.016,45.410,26.855,56.641,52.246,0
1610634690.848,-16.113,46.875,40.039,9.766,5.859,0
1610634690.851,-7.812,47.363,40.527,7.812,17.090,0
1610634690.855,39.551,47.852,31.250,51.758,40.039,0
1610634690.859,104.980,55.664,41.504,96.680,24.902,0
1610634690.863,69.824,52.734,42.480,71.289,7.812,0
1610634690.867,-10.742,40.527,30.762,-0.488,60.547,0
1610634690.871,-22.461,37.598,36.133,-18.555,73.730,0
1610634690.875,31.250,41.504,39.551,32.227,19.531,0
1610634690.878,100.098,49.805,37.109,83.008,20.996,0
1610634690.882,70.801,48.340,30.273,72.266,48.340,0
1610634690.886,-4.883,46.875,31.738,11.230,-10.742,0
1610634690.890,-16.113,58.105,48.828,-11.719,-16.602,0
1610634690.894,29.297,51.758,45.898,17.578,3.418,0
1610634690.911,83.984,35.645,29.785,61.035,9.277,0
1610634690.915,73.242,44.434,24.414,68.848,68.848,0
1610634690.919,6.348,51.758,30.273,21.484,6.836,0
1610634690.923,-33.203,46.875,38.086,-25.879,-44.922,0
1610634690.927,5.371,42.969,43.457,15.625,-36.133,0
1610634690.931,78.613,40.039,44.922,76.172,-3.906,0
1610634690.935,79.102,41.992,41.016,64.453,3.906,0
1610634690.938,3.906,42.480,40.527,16.113,-44.434,0
1610634690.942,-24.902,46.387,41.992,-17.578,-41.016,0
1610634690.946,29.297,63.965,57.617,32.227,10.742,0
1610634690.950,87.402,52.246,53.711,81.543,57.617,0
1610634690.954,88.379,29.297,30.762,67.383,31.250,0
1610634690.956,22.461,36.621,31.738,25.391,-16.602,0
1610634690.960,-30.762,39.551,31.738,-20.020,-28.320,0
1610634690.964,-1.465,39.551,35.156,6.348,-47.363,0
1610634690.968,84.473,46.875,45.410,79.102,-36.621,0
1610634690.972,104.004,44.434,39.551,89.355,-45.898,0
1610634690.976,30.273,36.621,31.738,41.504,-72.754,0
1610634690.980,-16.602,33.203,29.297,-4.395,-11.719,0
1610634690.983,8.789,39.062,35.156,9.766,22.949,0
1610634690.987,77.637,46.875,48.828,69.824,68.359,0
1610634690.991,102.539,37.598,43.457,86.914,85.449,0
1610634690.995,45.410,48.828,41.992,55.664,50.293,0
1610634690.999,-8.789,59.082,48.340,6.836,15.137,0
1610634691.000,-5.371,44.434,40.039,-6.348,-22.949,0
1610634691.004,50.781,37.109,24.414,45.410,21.973,0
1610634691.008,93.262,33.203,29.785,74.707,67.871,0
1610634691.012,46.875,40.527,42.480,53.711,99.121,0
1610634691.016,-7.812,42.969,46.387,-0.488,-0.977,0
1610634691.020,-6.348,38.086,47.852,-17.578,-44.922,0
1610634691.024,47.852,43.457,45.410,39.062,58.105,0
1610634691.027,95.215,40.527,37.598,75.195,94.727,0
1610634691.031,46.875,28.320,38.086,52.734,45.898,0
1610634691.035,-19.043,34.180,43.945,-3.418,-4.395,0
1610634691.039,-19.531,49.805,48.828,-19.043,-24.414,0
1610634691.043,51.758,65.430,58.594,48.340,-20.020,0
1610634691.045,108.887,53.223,51.270,93.262,13.184,0
1610634691.049,61.035,30.762,45.410,69.824,9.277,0
1610634691.053,-8.301,36.133,52.246,20.996,21.973,0
1610634691.057,-22.461,41.992,46.875,-3.418,25.879,0
1610634691.061,26.367,39.551,47.852,27.344,-53.223,0
1610634691.065,94.727,40.527,39.062,69.824,11.230,0
1610634691.069,71.777,41.016,36.133,66.895,43.457,0
1610634691.072,-6.348,29.297,43.945,15.625,-15.137,0
1610634691.076,-26.855,34.668,54.199,-12.695,9.277,0
1610634691.080,22.461,45.898,42.969,23.926,5.371,0
1610634691.084,99.609,50.293,30.273,81.543,23.438,0
1610634691.088,85.938,52.246,47.852,83.008,18.555,0
1610634691.090,-10.742,31.250,40.527,12.695,4.395,0
1610634691.094,-49.316,24.902,35.156,-35.156,-19.043,0
1610634691.098,-3.418,35.156,35.645,5.859,19.531,0
1610634691.102,69.824,33.203,34.668,64.941,41.016,0
1610634691.106,77.637,31.738,34.180,70.312,-47.852,0
1610634691.110,12.695,35.645,33.691,29.785,-36.621,0
1610634691.114,-35.645,39.062,34.180,-14.648,-2.441,0
1610634691.117,-8.789,38.574,39.551,7.812,-8.301,0
1610634691.121,85.938,52.734,55.176,75.684,37.598,0
1610634691.125,92.285,43.457,45.410,91.309,67.383,0
1610634691.129,-2.930,22.949,29.297,34.180,55.176,0
1610634691.133,-43.457,28.809,38.574,-24.902,68.848,0
1610634691.136,-9.277,29.785,29.785,-5.859,37.109,0
1610634691.140,58.594,34.668,33.691,60.547,-26.367,0
1610634691.144,84.961,36.621,49.316,80.078,-29.297,0
1610634691.148,23.438,40.039,47.852,36.133,47.363,0
1610634691.152,-19.531,48.340,54.688,-9.277,55.664,0
1610634691.156,-3.906,46.387,54.199,1.953,17.090,0
1610634691.160,51.270,37.109,40.039,48.828,17.578,0
1610634691.163,100.586,37.598,43.945,72.754,80.078,0
1610634691.167,59.082,54.688,47.852,53.711,94.727,0
1610634691.171,-13.672,53.223,41.504,-11.719,37.109,0
1610634691.175,-22.461,39.551,44.434,-23.438,4.395,0
1610634691.179,37.109,32.715,38.574,33.203,-0.977,0
1610634691.180,90.332,34.668,32.715,66.895,45.898,0
1610634691.184,49.805,37.598,40.039,48.340,57.617,0
1610634691.188,-10.254,41.504,48.340,-3.906,-0.488,0
1610634691.192,-14.160,44.922,45.410,-15.137,17.578,0
1610634691.196,43.457,46.875,41.016,38.574,22.949,0
1610634691.200,102.539,40.039,40.039,76.660,7.324,0
1610634691.204,68.848,41.992,37.109,60.547,68.359,0
1610634691.207,3.906,51.270,43.457,11.719,21.973,0
1610634691.211,-17.578,43.457,49.316,-20.996,-14.160,0
1610634691.215,23.926,37.598,34.668,22.949,14.648,0
1610634691.219,87.402,34.180,22.949,73.730,1.465,0
1610634691.223,71.777,36.133,35.645,63.965,37.109,0
1610634691.225,6.348,50.293,44.922,20.996,-28.809,0
1610634691.229,-19.531,43.457,38.574,-15.137,-121.582,0
1610634691.233,22.461,41.504,43.457,16.602,-61.035,0
1610634691.237,89.355,47.852,38.086,70.312,0.977,0
1610634691.241,88.379,58.105,38.086,83.984,-2.441,0
1610634691.245,19.531,58.594,45.898,41.016,-37.109,0
1610634691.249,-26.367,39.062,36.621,-24.414,-8.789,0
1610634691.252,5.371,35.645,35.645,-0.488,34.668,0
1610634691.256,79.590,40.527,35.645,50.781,58.594,0
1610634691.260,84.961,43.945,34.668,50.781,11.230,0
1610634691.264,6.348,39.062,27.832,8.301,-24.902,0
1610634691.268,-22.461,48.828,39.551,-24.414,-2.441,0
1610634691.285,25.391,58.105,55.176,10.254,-7.324,0
1610634691.289,83.008,44.434,48.340,61.035,-28.320,0
1610634691.293,84.473,42.480,36.133,76.660,-21.973,0
1610634691.297,30.273,51.758,43.945,47.852,14.160,0
1610634691.301,-11.719,50.293,48.828,-4.395,7.324,0
1610634691.305,7.812,50.293,37.109,5.371,40.527,0
1610634691.309,77.637,52.246,41.016,67.871,34.180,0
1610634691.312,98.633,51.758,43.457,79.102,-8.789,0
1610634691.316,32.715,50.293,46.387,37.598,14.648,0
1610634691.320,-24.902,46.387,51.270,-18.066,-24.902,0
1610634691.324,-10.742,41.504,51.758,-25.879,-51.270,0
1610634691.328,59.570,43.945,42.480,37.598,11.719,0
1610634691.330,113.281,57.129,50.781,86.426,55.664,0
1610634691.334,50.293,49.805,53.223,54.688,44.434,0
1610634691.338,-36.621,34.180,39.062,-20.996,9.766,0
1610634691.342,-19.043,39.551,44.434,-17.578,11.230,0
1610634691.346,61.523,47.363,49.316,63.477,-1.953,0
1610634691.350,108.398,46.387,40.527,91.797,62.988,0
1610634691.354,50.293,43.457,43.457,51.270,65.918,0
1610634691.357,-23.926,41.016,45.410,-4.395,-12.695,0
1610634691.361,-16.602,44.434,41.992,-14.160,22.461,0
1610634691.365,41.016,45.410,40.527,32.715,71.777,0
1610634691.369,94.238,45.410,37.109,78.613,46.387,0
1610634691.373,68.359,55.176,45.410,80.566,44.922,0
1610634691.376,-12.207,45.410,40.039,14.648,43.945,0
1610634691.380,-22.461,41.992,33.203,-16.113,44.922,0
1610634691.384,30.273,42.969,39.551,29.297,-0.977,0
1610634691.388,83.496,35.156,37.598,67.383,-25.391,0
1610634691.392,58.105,40.039,33.203,53.223,55.664,0
1610634691.396,-16.113,39.062,36.621,-3.418,45.898,0
1610634691.400,-29.785,39.062,45.898,-26.855,-2.930,0
1610634691.403,30.762,49.316,54.199,30.762,8.789,0
1610634691.407,110.352,54.199,49.805,91.797,24.902,0
1610634691.411,74.707,37.598,29.297,64.941,38.574,0
1610634691.415,-9.766,30.273,29.297,6.836,78.613,0
1610634691.419,-15.625,39.062,38.574,-20.508,92.773,0
1610634691.420,29.785,50.781,39.062,8.789,-4.883,0
1610634691.424,99.121,56.152,38.574,61.035,-12.207,0
1610634691.428,106.445,54.688,44.434,68.359,36.133,0
1610634691.432,26.367,54.688,43.945,21.973,-5.859,0
1610634691.436,-23.438,46.875,35.156,-23.926,-26.855,0
1610634691.440,20.508,53.711,39.062,16.113,-75.195,0
1610634691.444,93.750,55.664,44.434,77.637,-76.172,0
1610634691.447,83.496,39.551,32.715,81.055,-7.324,0
1610634691.451,1.953,34.180,30.762,34.180,-8.789,0
1610634691.455,-33.691,42.969,42.969,-19.531,-46.387,0
1610634691.459,-5.859,49.316,51.270,3.418,-20.996,0
1610634691.463,80.078,49.805,40.039,70.312,0.000,0
1610634691.465,108.887,51.758,35.156,84.473,20.020,0
1610634691.469,31.738,47.363,43.457,43.945,45.410,0
1610634691.473,-21.484,47.852,41.504,-8.789,22.949,0
1610634691.477,-6.836,38.574,34.668,-15.137,-14.648,0
1610634691.481,91.797,51.758,49.316,68.359,6.836,0
1610634691.485,116.211,59.570,53.223,114.746,-14.648,0
1610634691.489,14.648,34.668,38.086,39.551,-5.859,0
1610634691.492,-39.062,34.668,39.062,-30.762,90.820,0
1610634691.496,-13.672,46.387,45.410,-10.254,73.730,0
1610634691.500,59.082,50.781,52.734,59.570,43.457,0
1610634691.504,104.980,46.875,51.270,94.238,68.848,0
1610634691.508,49.805,46.387,46.875,67.871,76.660,0
1610634691.510,-15.137,51.270,40.527,10.254,36.621,0
1610634691.514,-5.371,48.828,31.738,1.465,41.504,0
1610634691.518,69.336,55.664,52.246,67.871,50.781,0
1610634691.522,111.816,47.363,58.594,97.168,28.809,0
1610634691.526,44.922,34.180,33.691,55.176,20.020,0
1610634691.530,-30.273,33.203,34.668,-4.883,-24.414,0
1610634691.534,-20.996,38.086,52.246,-16.113,-53.223,0
1610634691.537,40.039,43.457,47.363,34.668,8.789,0
1610634691.541,98.145,44.922,45.410,85.938,54.688,0
1610634691.545,67.871,44.922,45.410,75.684,25.879,0
1610634691.549,3.906,46.387,45.410,19.531,-3.418,0
1610634691.553,-4.395,46.875,48.340,-5.859,27.832,0
1610634691.555,45.410,54.199,37.109,43.457,0.977,0
1610634691.559,118.164,59.082,37.598,99.609,-14.648,0
1610634691.563,91.797,47.852,45.898,88.867,11.719,0
1610634691.567,0.977,37.598,38.574,23.926,-24.414,0
1610634691.571,-33.203,35.156,31.738,-32.227,-12.695,0
1610634691.575,18.555,41.016,32.715,5.859,-37.109,0
1610634691.579,89.844,41.504,29.785,67.871,-42.480,0
1610634691.582,82.520,41.504,26.855,66.406,5.371,0
1610634691.586,10.254,44.434,35.645,19.531,-8.301,0
1610634691.590,-13.672,52.246,46.387,-14.160,-57.129,0
1610634691.594,11.719,43.457,35.645,12.695,15.625,0
1610634691.598,77.637,39.062,29.297,62.988,70.312,1
1610634691.601,91.797,44.922,40.527,81.055,17.090,0
1610634691.605,11.230,32.715,32.227,32.227,-9.277,0
1610634691.609,-26.855,39.062,26.367,-26.367,8.789,0
1610634691.613,7.812,51.758,47.363,0.488,-12.207,0
1610634691.617,71.289,43.457,43.945,61.035,-44.434,0
1610634691.621,85.449,35.645,32.227,71.777,22.949,0
1610634691.625,19.531,34.180,36.621,28.320,9.277,0
1610634691.628,-18.555,38.574,40.039,-17.090,-18.555,0
1610634691.632,9.277,46.387,38.086,9.766,-2.441,0
1610634691.636,75.684,49.805,41.992,78.125,43.945,0
1610634691.640,99.121,47.363,42.480,86.914,61.035,0
1610634691.644,25.391,34.668,31.250,39.062,2.441,0
1610634691.660,-27.344,31.738,31.738,-6.836,-33.203,0
1610634691.664,-4.883,39.062,38.086,-2.441,-34.180,0
1610634691.668,65.918,46.875,39.551,53.711,10.742,0
1610634691.672,104.004,45.410,36.133,82.520,31.250,0
1610634691.676,56.152,53.223,40.039,73.242,45.898,0
1610634691.680,-0.488,57.129,46.875,25.879,56.641,0
1610634691.684,-16.113,36.133,40.527,-13.184,31.738,0
1610634691.687,48.828,33.203,41.504,36.621,23.438,0
1610634691.691,117.676,51.758,54.199,90.820,-42.480,0
1610634691.695,61.523,48.828,45.410,62.988,20.996,0
1610634691.699,-27.832,35.645,21.973,-7.324,91.309,0
1610634691.703,-21.484,45.898,29.785,-13.672,28.320,0
1610634691.706,49.316,53.223,42.969,47.852,56.641,0
1610634691.710,100.586,44.922,38.086,81.543,111.328,0
1610634691.714,54.688,42.969,32.715,61.523,53.711,0
1610634691.718,-7.812,53.223,41.016,20.020,-27.832,0
1610634691.722,-13.672,56.152,50.293,-0.977,-5.371,0
1610634691.726,28.320,43.457,41.016,29.785,30.762,0
1610634691.730,106.934,50.293,43.945,95.215,30.273,0
1610634691.733,80.566,50.293,39.551,89.844,15.625,0
1610634691.737,-9.277,36.621,28.809,15.137,-3.906,0
1610634691.741,-23.438,35.645,29.297,-20.996,4.883,0
1610634691.745,30.762,42.969,36.133,30.273,-78.613,0
1610634691.749,104.004,52.246,39.062,92.285,-75.684,0
1610634691.751,78.125,44.434,31.250,84.473,35.156,0
1610634691.755,-1.465,38.574,38.574,41.504,31.738,0
1610634691.759,-20.020,43.945,40.039,2.930,-1.465,0
1610634691.763,29.297,62.012,43.945,44.922,41.504,0
1610634691.767,107.910,70.312,50.293,105.957,30.273,0
1610634691.771,98.145,51.758,41.016,91.309,-45.410,0
1610634691.775,20.020,40.039,41.016,39.551,-75.684,0
1610634691.778,-14.160,38.574,37.598,-2.930,-31.738,0
1610634691.782,10.742,41.992,37.109,17.578,-13.184,0
1610634691.786,74.219,44.922,39.062,68.848,-9.766,0
1610634691.790,89.355,48.828,42.480,83.008,69.824,0
1610634691.794,21.973,48.340,47.852,40.527,32.715,0
1610634691.795,-23.926,49.805,42.480,-9.277,-69.336,0
1610634691.799,-1.465,54.688,44.922,7.812,-36.621,0
1610634691.803,73.242,58.594,57.129,69.824,31.738,0
1610634691.807,102.539,56.152,52.246,86.914,-0.488,0
1610634691.811,19.531,41.016,34.180,31.250,-14.648,0
1610634691.815,-26.855,41.504,37.598,-17.578,20.508,0
1610634691.819,5.859,53.223,36.133,2.930,-11.719,0
1610634691.822,59.082,40.039,15.137,45.898,15.625,0
1610634691.826,92.285,37.598,24.414,74.707,81.543,0
1610634691.830,39.062,48.340,38.086,52.246,74.707,0
1610634691.834,-21.484,48.340,39.062,-1.465,53.711,0
1610634691.838,-5.371,47.363,30.273,-6.348,35.645,0
1610634691.855,63.477,57.129,38.086,57.129,1.953,0
1610634691.859,96.680,56.152,50.293,88.379,-1.465,0
1610634691.863,34.180,35.645,42.480,45.410,22.461,0
1610634691.867,-13.184,42.480,48.340,2.441,25.879,0
1610634691.871,-7.812,55.664,44.434,3.906,47.852,0
1610634691.875,33.691,51.758,30.273,41.016,61.523,0
1610634691.879,89.355,46.875,24.414,72.266,24.902,0
1610634691.882,57.129,43.945,23.926,53.711,-15.137,0
1610634691.886,-8.301,48.340,31.250,0.977,7.324,0
1610634691.890,-18.066,52.246,43.457,-8.789,32.227,0
1610634691.894,45.410,59.570,56.641,50.293,8.301,0
1610634691.898,114.746,61.523,46.875,100.586,-5.859,0
1610634691.885,69.336,48.828,25.879,63.965,-49.805,0
1610634691.889,-12.695,44.434,37.598,1.465,-42.480,0
1610634691.893,-22.949,45.898,44.434,-9.277,-2.930,0
1610634691.897,37.109,54.688,40.527,48.340,20.020,0
1610634691.901,101.562,56.641,42.480,86.914,23.438,0
1610634691.905,67.383,33.203,32.227,48.340,33.203,0
1610634691.909,-5.371,30.762,31.738,-1.953,23.438,0
1610634691.912,-38.574,41.992,36.133,-29.297,54.688,0
1610634691.916,2.441,46.875,39.551,7.812,57.129,0
1610634691.920,91.797,52.734,46.387,76.172,1.465,0
1610634691.924,79.590,44.434,34.180,74.219,-19.531,0
1610634691.928,-1.953,37.109,30.762,16.602,14.160,0
1610634691.930,-32.227,44.922,41.992,-22.949,33.203,0
1610634691.934,2.930,52.246,49.805,7.812,14.648,0
1610634691.938,78.613,48.340,50.293,77.637,4.883,0
1610634691.942,98.633,45.410,55.176,102.051,0.488,0
1610634691.946,13.184,49.316,53.223,40.527,-23.926,0
1610634691.950,-32.715,56.152,49.805,-22.461,-12.207,0
1610634691.954,-1.953,51.758,48.340,0.488,5.371,0
1610634691.957,54.688,36.133,34.180,44.922,-22.461,0
1610634691.961,88.379,37.598,39.062,71.777,11.230,0
1610634691.965,15.137,41.016,48.828,45.410,8.789,0
1610634691.969,-28.809,42.969,42.480,-17.090,-67.383,0
1610634691.973,18.066,52.734,41.504,-7.812,-31.738,0
1610634691.975,73.730,49.316,47.852,53.711,6.348,0
1610634691.979,101.562,43.945,54.688,82.031,9.277,0
1610634691.983,34.668,41.992,51.270,45.410,47.852,0
1610634691.987,-33.691,40.039,43.945,-7.324,37.109,0
1610634691.991,-0.977,64.941,58.105,9.766,-18.066,0
1610634691.995,63.477,61.035,45.410,54.199,12.695,0
1610634691.999,88.867,30.762,29.297,65.430,84.961,0
1610634692.002,41.504,30.273,38.086,36.133,-35.645,0
1610634692.006,-13.672,40.527,39.551,-12.695,-41.992,0
1610634692.010,-2.930,46.387,46.875,-9.277,36.133,0
1610634692.014,58.594,46.387,48.828,48.340,-12.207,0
1610634692.018,108.887,43.945,43.457,88.379,27.344,0
1610634692.035,62.012,47.363,42.480,69.824,81.055,0
1610634692.039,-3.418,59.570,52.734,27.344,65.430,0
1610634692.043,-13.672,49.805,48.340,7.324,25.879,0
1610634692.047,33.691,37.109,36.621,40.039,8.789,0
1610634692.051,84.473,47.852,48.828,95.703,17.090,0
1610634692.055,41.504,37.598,35.156,69.336,-10.254,0
1610634692.059,-20.508,36.133,25.391,-4.395,12.695,0
1610634692.062,-29.297,51.270,37.598,-30.762,-29.785,0
1610634692.066,27.344,51.758,39.551,25.391,-72.266,0
1610634692.070,98.633,52.246,39.062,83.008,2.930,0
1610634692.074,81.055,57.129,41.016,79.102,10.254,0
1610634692.078,-9.766,44.922,36.621,12.695,25.879,0
1610634692.080,-37.598,36.621,34.180,-33.203,13.184,0
1610634692.084,17.090,47.363,41.992,21.973,3.906,0
1610634692.088,83.008,48.340,30.762,78.125,12.207,0
1610634692.092,75.195,40.039,32.227,81.543,-4.883,0
1610634692.096,7.812,44.434,49.316,34.668,28.320,0
1610634692.100,-28.809,50.293,50.781,-16.113,26.855,0
1610634692.104,4.883,43.945,48.340,13.184,0.488,0
1610634692.107,94.238,53.223,54.199,80.078,23.438,0
1610634692.111,98.145,59.082,56.152,83.008,33.691,0
1610634692.115,1.953,41.504,37.109,11.719,-7.324,0
1610634692.119,-31.738,45.898,41.504,-27.832,-49.316,0
1610634692.123,8.301,51.270,38.574,4.883,11.719,0
1610634692.125,68.359,46.875,25.879,60.059,28.809,0
1610634692.129,91.309,43.945,30.273,79.102,30.762,0
1610634692.133,39.551,48.340,45.898,52.246,24.414,0
1610634692.137,-3.418,53.223,50.293,3.906,16.602,0
1610634692.141,11.230,48.828,43.457,15.625,41.016,0
1610634692.145,78.125,49.805,43.457,73.730,0.488,0
1610634692.149,100.098,44.922,42.969,83.496,13.184,0
1610634692.152,36.133,42.969,44.922,39.551,30.273,0
1610634692.156,-13.672,40.039,31.738,-19.531,-15.137,0
1610634692.160,-6.348,31.738,20.996,-19.043,-9.766,0
1610634692.164,54.199,41.992,36.133,47.363,49.316,0
1610634692.168,98.145,48.828,46.875,83.496,47.363,0
1610634692.170,49.805,48.828,43.457,51.270,17.090,0
1610634692.174,-16.602,52.246,45.898,-10.742,9.766,0
1610634692.178,-20.508,44.922,44.434,-22.461,-0.977,0
1610634692.182,55.664,45.898,44.434,49.316,27.832,0
1610634692.186,111.816,53.223,54.688,102.051,32.715,0
1610634692.190,43.457,39.062,46.875,54.199,30.762,0
1610634692.194,-29.297,26.855,42.969,-12.207,2.930,0
1610634692.197,-24.902,39.062,47.363,-17.578,-82.520,0
1610634692.201,39.062,49.805,43.945,41.504,-68.359,0
1610634692.205,100.098,49.805,45.898,89.844,-17.090,0
1610634692.209,58.594,49.805,38.574,59.570,-39.062,0
1610634692.213,-6.836,45.898,33.691,-7.324,-15.137,0
1610634692.215,-8.789,43.457,40.527,-22.461,69.336,0
1610634692.219,32.715,40.039,36.621,24.902,22.949,0
1610634692.223,81.055,25.879,29.297,70.312,-18.555,0
1610634692.227,65.918,34.180,34.180,75.195,68.359,0
1610634692.231,-1.953,48.828,32.715,26.855,74.707,0
1610634692.235,-27.832,40.039,29.785,-18.555,43.457,0
1610634692.239,15.137,34.668,31.738,18.555,-21.973,0
1610634692.242,86.914,37.109,32.227,73.242,-37.598,0
1610634692.246,75.195,41.016,42.480,71.777,49.805,0
1610634692.250,6.348,48.340,49.316,26.855,41.016,0
1610634692.254,-20.020,42.969,42.480,-8.301,-13.672,0
1610634692.258,13.184,36.621,40.527,14.160,21.484,0
1610634692.260,75.684,36.133,33.203,58.594,44.922,0
1610634692.264,83.984,37.598,40.039,78.125,-10.742,0
1610634692.268,15.625,37.109,41.992,40.527,-11.230,0
1610634692.272,-24.414,44.922,42.969,-0.488,-38.086,0
1610634692.276,10.742,48.828,53.223,23.438,-87.402,0
1610634692.280,96.680,40.527,51.270,85.449,-21.973,0
1610634692.284,105.957,52.246,50.781,109.375,12.207,0
1610634692.287,8.789,45.898,41.504,37.598,-35.156,0
1610634692.291,-43.457,29.297,38.086,-29.785,-46.387,0
1610634692.295,-5.859,37.598,45.410,6.836,-19.043,0
1610634692.299,67.383,42.480,44.922,75.195,0.977,0
1610634692.303,85.938,31.738,35.156,84.961,47.363,0
1610634692.306,13.672,33.203,31.738,31.250,40.039,0
1610634692.310,-33.691,40.527,45.898,-8.789,-44.434,0
1610634692.314,-9.277,44.434,46.875,9.766,-6.836,0
1610634692.318,72.266,49.316,54.199,78.613,77.148,0
1610634692.322,116.699,52.734,63.477,110.352,-16.113,0
1610634692.326,39.062,41.016,38.086,57.617,-54.199,0
1610634692.330,-37.598,33.691,24.902,-7.324,22.461,0
1610634692.333,-19.043,43.945,34.180,0.977,48.828,0
1610634692.337,55.664,41.992,28.320,63.965,41.992,0
1610634692.341,89.844,40.527,37.598,96.191,-6.348,0
1610634692.345,46.875,44.434,43.457,61.035,-95.703,0
1610634692.349,-10.254,40.527,38.086,-0.977,-66.406,0
1610634692.350,-11.230,47.852,33.203,-0.488,-37.598,0
1610634692.354,55.176,53.711,37.598,54.199,21.973,0
1610634692.358,116.211,55.176,54.199,108.398,52.246,0
1610634692.362,64.941,45.410,43.945,86.914,2.441,0
1610634692.366,-14.160,38.574,44.922,24.902,44.922,0
1610634692.370,-15.137,48.828,40.039,6.836,-20.996,0
1610634692.374,27.832,41.504,25.391,36.621,-28.809,0
1610634692.377,79.102,30.273,33.691,73.242,84.961,0
1610634692.381,60.547,38.574,41.016,64.941,133.789,0
1610634692.385,8.301,58.105,56.152,25.391,81.055,0
1610634692.389,2.441,61.035,63.477,14.160,18.555,0
1610634692.393,35.156,36.621,42.969,34.668,51.270,0
1610634692.410,95.703,30.762,26.855,89.355,67.871,0
1610634692.414,80.566,34.180,20.996,84.961,25.391,0
1610634692.418,-3.418,37.598,42.480,18.066,1.953,0
1610634692.422,-18.555,46.387,54.199,-13.184,-7.324,0
1610634692.426,24.902,45.410,49.805,13.184,32.715,0
1610634692.430,85.938,41.992,44.922,67.871,72.266,0
1610634692.434,94.727,50.781,47.852,84.961,64.453,0
1610634692.437,17.090,48.828,44.434,25.879,-20.996,0
1610634692.441,-27.344,38.574,28.809,-14.648,-14.648,0
1610634692.445,14.160,45.898,25.879,21.484,6.348,0
1610634692.449,88.379,53.711,43.945,76.172,13.184,0
1610634692.453,83.008,40.527,44.922,80.078,3.418,0
1610634692.455,4.883,31.738,35.156,33.691,-4.883,0
1610634692.459,-23.438,40.527,41.504,-5.371,-41.992,0
1610634692.463,17.090,43.945,47.852,17.090,-48.828,0
1610634692.467,92.285,45.410,58.105,74.707,-10.254,0
1610634692.471,107.422,53.223,53.223,98.145,17.578,0
1610634692.475,28.809,47.363,29.785,52.734,23.926,0
1610634692.479,-31.738,33.203,25.391,-12.207,-1.953,0
1610634692.482,-6.836,38.574,42.969,5.859,-27.344,0
1610634692.486,68.848,43.457,44.922,69.336,-58.105,0
1610634692.490,89.844,32.227,32.227,82.031,17.578,0
1610634692.494,28.809,34.668,38.086,50.293,27.832,0
1610634692.498,-20.020,41.504,38.086,18.555,-20.020,0
1610634692.500,0.488,46.875,35.156,19.531,20.508,0
1610634692.504,79.590,52.734,51.270,69.336,61.523,0
1610634692.508,117.188,53.223,52.246,107.910,86.914,0
1610634692.512,39.062,40.039,43.457,71.289,77.148,0
1610634692.516,-27.832,35.156,47.852,7.324,6.348,0
1610634692.520,-15.625,37.598,45.410,-7.812,-28.320,0
1610634692.524,45.898,42.969,47.852,50.781,-21.484,0
1610634692.527,82.031,41.504,41.992,103.516,24.414,0
1610634692.531,42.480,35.645,37.598,81.543,16.113,0
1610634692.535,-0.488,53.711,50.781,19.043,-45.898,0
1610634692.539,-8.789,52.734,53.711,3.906,-28.809,0
1610634692.543,38.574,38.574,46.387,50.781,36.621,0
1610634692.545,99.121,42.969,40.039,90.332,65.918,0
1610634692.549,69.824,49.805,38.086,74.219,50.781,0
1610634692.553,1.953,57.129,42.969,25.391,31.738,0
1610634692.557,-9.766,53.223,49.316,11.230,56.641,0
1610634692.561,36.133,41.992,47.852,48.340,18.555,0
1610634692.565,91.797,38.086,40.527,85.449,8.301,0
1610634692.569,82.031,47.363,46.387,85.449,58.105,0
1610634692.572,11.719,45.410,51.758,37.109,40.527,0
1610634692.576,-29.785,32.227,34.180,-15.625,-42.480,0
1610634692.580,18.066,40.527,28.809,19.531,-17.578,0
1610634692.584,85.938,45.898,34.180,79.590,19.043,0
1610634692.588,82.520,46.387,36.621,86.914,-3.418,0
1610634692.591,20.020,47.852,39.062,41.504,50.781,0
1610634692.595,-29.785,43.945,44.434,-6.836,75.684,0
1610634692.599,17.578,47.363,50.293,22.949,21.484,0
1610634692.603,109.375,43.457,48.828,84.473,-13.672,0
1610634692.607,83.984,26.855,38.574,74.219,17.090,0
1610634692.611,0.977,27.832,33.691,30.762,27.344,0
1610634692.615,-30.762,32.227,38.086,-7.812,13.184,0
1610634692.618,-0.977,33.203,31.250,9.766,51.758,0
1610634692.622,67.383,41.016,35.156,74.219,62.500,0
1610634692.626,80.566,42.480,41.992,86.914,-23.438,0
1610634692.630,9.766,37.109,35.156,34.668,-75.684,0
1610634692.634,-15.137,44.922,47.852,-5.371,-50.293,0
1610634692.635,22.461,59.082,65.430,23.926,-66.895,0
1610634692.639,69.824,44.434,57.129,61.035,-16.602,0
1610634692.643,85.449,33.203,45.898,67.871,7.812,0
1610634692.647,19.043,41.016,47.852,31.738,-44.434,0
1610634692.651,-34.180,33.203,46.387,-20.508,-17.578,0
1610634692.655,-12.695,40.039,52.734,-7.812,-7.324,0
1610634692.659,57.617,53.223,51.270,52.734,31.250,0
1610634692.662,97.168,42.480,41.504,79.590,3.906,0
1610634692.666,30.762,38.574,46.875,42.480,-24.414,0
1610634692.670,-25.391,41.016,46.875,-12.695,-37.109,0
1610634692.674,2.441,43.457,46.387,-2.930,-6.348,0
1610634692.678,70.312,50.293,56.641,66.406,25.391,0
1610634692.680,114.746,45.898,55.664,105.957,9.277,0
1610634692.684,51.270,35.156,45.410,70.801,36.133,0
1610634692.688,-17.090,36.133,44.922,2.930,50.293,0
1610634692.692,-4.395,43.457,49.316,-16.113,-0.977,0
1610634692.696,36.621,34.180,39.062,24.902,-17.578,0
1610634692.700,82.031,32.715,38.574,77.637,-20.020,0
1610634692.704,59.570,42.480,48.340,76.660,-65.430,0
1610634692.707,-19.043,36.621,40.039,-1.465,-50.293,0
1610634692.711,-16.602,44.922,42.969,-23.438,-20.020,0
1610634692.715,50.781,50.293,51.270,42.969,-11.719,0
1610634692.719,99.121,37.598,39.551,83.496,26.855,0
1610634692.723,66.406,32.715,38.574,64.941,95.215,0
1610634692.725,0.977,35.156,46.387,18.066,47.852,0
1610634692.729,-3.418,42.480,54.199,0.488,10.254,0
1610634692.733,27.832,49.316,64.453,40.039,38.574,0
1610634692.737,83.008,42.480,54.199,83.496,61.035,0
1610634692.741,86.426,42.480,44.922,80.566,46.875,0
1610634692.745,20.020,52.734,54.199,22.461,24.902,0
1610634692.749,-5.859,49.805,49.805,-15.625,-15.137,0
1610634692.752,36.133,48.828,49.805,24.414,10.742,0
1610634692.756,95.215,39.551,47.363,70.801,79.590,0
1610634692.760,82.031,37.109,33.691,68.359,62.988,0
1610634692.764,13.184,48.828,30.273,24.902,41.016,0
1610634692.768,-16.602,45.898,38.574,-10.254,-6.348,0
1610634692.772,10.254,34.668,39.062,8.301,-2.930,0
1610634692.776,73.242,39.551,36.621,69.824,73.242,0
1610634692.780,95.703,51.270,39.551,98.633,86.426,0
1610634692.784,34.668,60.059,49.316,55.664,29.785,0
1610634692.788,-11.230,58.105,50.293,2.441,8.789,0
1610634692.792,6.836,42.969,39.062,6.348,33.691,0
1610634692.796,68.848,34.180,24.902,51.270,70.801,0
1610634692.799,89.844,31.738,17.578,82.031,31.738,0
1610634692.803,27.344,35.156,24.414,42.969,-6.348,0
1610634692.807,-21.484,39.062,35.156,-16.113,29.785,0
1610634692.811,0.000,44.922,45.410,9.766,53.711,0
1610634692.815,65.918,46.387,43.457,69.336,40.527,0
1610634692.830,104.980,48.828,37.598,94.238,41.992,0
1610634692.834,47.363,48.828,40.039,59.082,28.320,0
1610634692.838,-16.602,47.852,50.293,-3.418,22.461,0
1610634692.842,-2.930,47.852,53.711,-11.230,-41.992,0
1610634692.846,52.246,35.645,38.086,33.203,-67.871,0
1610634692.850,100.586,40.039,37.109,73.730,39.062,0
1610634692.854,48.340,43.945,39.062,47.363,46.387,0
1610634692.857,-27.344,40.527,37.598,-11.230,-50.781,0
1610634692.861,-15.625,49.805,42.969,-14.648,-92.773,0
1610634692.865,58.594,50.781,32.227,53.711,-64.453,0
1610634692.869,107.422,52.734,43.945,101.074,-58.594,0
1610634692.873,46.875,44.434,52.734,50.781,-37.598,0
1610634692.876,-27.832,31.250,32.715,-25.879,23.926,0
1610634692.880,-25.879,43.457,37.598,-33.691,46.875,0
1610634692.884,37.598,51.758,48.340,28.320,50.293,0
1610634692.888,91.797,39.551,42.480,73.730,53.223,0
1610634692.892,58.594,33.203,35.645,48.828,30.762,0
1610634692.896,-5.859,46.387,42.480,5.859,-7.812,0
1610634692.900,-15.137,51.758,47.363,-6.348,-24.414,0
1610634692.903,19.531,39.062,35.156,26.855,-4.395,0
1610634692.907,77.637,31.250,21.484,60.059,47.363,0
1610634692.911,60.059,37.598,27.344,54.688,50.781,0
1610634692.915,-16.113,33.203,40.527,11.719,34.180,0
1610634692.919,-48.340,31.250,39.551,-24.414,64.453,0
1610634692.920,4.883,41.992,39.551,14.648,65.918,0
1610634692.924,104.004,46.387,46.875,72.266,76.172,0
1610634692.928,95.703,50.781,52.246,74.707,44.434,0
1610634692.932,1.465,46.387,38.574,23.438,10.254,0
1610634692.936,-26.855,41.992,31.738,-16.113,-21.484,0
1610634692.940,26.855,57.129,54.199,29.297,26.367,0
1610634692.944,80.078,49.805,44.434,71.777,59.082,0
1610634692.947,69.336,33.691,31.250,67.871,27.344,0
1610634692.951,6.836,34.668,42.969,28.809,12.695,0
1610634692.955,-27.832,41.016,33.691,-17.578,-8.789,0
1610634692.959,-11.719,42.480,25.879,10.254,-2.441,0
1610634692.963,71.289,41.504,40.527,65.430,27.832,0
1610634692.965,97.656,36.133,51.270,75.684,15.137,0
1610634692.969,32.227,42.480,54.199,50.293,-18.555,0
1610634692.973,-11.719,51.758,52.734,9.277,-48.828,0
1610634692.977,-7.812,41.016,43.457,4.395,-7.324,0
1610634692.981,60.547,30.762,34.668,61.035,21.973,0
1610634692.985,104.004,32.227,39.551,89.844,-12.207,0
1610634692.989,29.297,34.668,44.922,46.387,-21.973,0
1610634692.992,-28.809,32.715,45.410,-2.441,-36.133,0
1610634692.996,-15.137,39.062,34.668,1.465,-12.207,0
1610634693.000,44.434,40.527,32.715,44.922,41.504,0
1610634693.004,109.375,45.410,52.734,97.168,56.152,0
1610634693.008,46.875,46.387,51.270,63.477,30.273,0
1610634693.010,-35.645,37.109,38.086,-22.461,-29.297,0
1610634693.014,-22.461,43.457,45.410,-17.578,-35.156,0
1610634693.018,48.828,46.875,47.363,48.340,73.242,0
1610634693.022,94.238,36.133,37.598,79.102,50.781,0
1610634693.026,44.922,31.738,35.645,60.547,26.855,0
1610634693.030,-13.184,41.016,43.457,11.719,42.480,0
1610634693.034,-13.184,42.969,45.410,-5.859,-19.531,0
1610634693.037,38.574,38.086,38.574,32.227,-30.273,0
1610634693.041,77.148,34.668,27.344,61.523,0.000,0
1610634693.045,54.688,45.410,37.109,61.035,70.312,0
1610634693.049,2.441,48.340,43.945,12.207,89.355,0
1610634693.053,-23.926,36.133,34.180,-20.020,23.926,0
1610634693.056,16.113,35.156,31.738,18.555,15.137,0
1610634693.060,89.355,41.992,35.645,71.289,69.824,0
1610634693.064,68.359,41.016,35.645,72.754,46.387,0
1610634693.068,-14.648,38.086,32.227,15.625,30.762,0
1610634693.072,-31.250,41.992,34.180,-20.508,27.832,0
1610634693.076,8.301,40.527,33.691,16.602,-34.180,0
1610634693.080,76.172,32.715,33.203,66.895,-9.766,0
1610634693.083,63.477,33.203,34.180,61.523,45.410,0
1610634693.087,1.465,49.316,49.316,25.391,-1.953,0
1610634693.091,-18.555,46.875,47.363,-17.578,-21.484,0
1610634693.095,6.348,37.109,38.086,8.301,77.637,0
1610634693.099,72.266,30.273,35.156,63.965,59.570,0
1610634693.100,78.613,23.926,20.508,62.012,-26.855,0
1610634693.104,13.184,38.574,32.715,20.020,7.324,0
1610634693.108,-29.297,45.898,48.340,-25.391,30.762,0
1610634693.112,2.930,42.480,36.133,-3.906,-49.805,0
1610634693.116,67.383,38.086,32.227,55.664,-5.371,0
1610634693.120,83.008,48.828,41.016,86.914,82.031,0
1610634693.124,16.113,45.410,34.668,31.738,11.719,0
1610634693.127,-44.434,35.645,24.902,-41.016,-0.488,0
1610634693.131,-10.254,47.363,30.762,-3.906,4.883,0
1610634693.135,72.266,43.945,30.273,64.453,-14.160,0
1610634693.139,84.473,29.785,25.879,77.637,10.742,0
1610634693.143,18.555,23.926,31.250,40.527,23.438,0
1610634693.160,-17.578,37.598,38.574,1.465,45.898,0
1610634693.164,0.488,49.316,39.062,0.000,-3.906,0
1610634693.168,53.711,37.109,29.297,42.969,-1.465,0
1610634693.172,108.887,39.062,39.062,86.426,20.020,0
1610634693.176,49.805,39.551,32.715,51.758,-21.484,0
1610634693.180,-27.344,38.086,21.973,-16.113,-36.621,0
1610634693.184,-20.996,49.805,36.621,-13.184,-81.055,0
1610634693.187,39.551,44.434,44.922,44.434,-29.297,0
1610634693.191,104.004,43.945,47.852,81.055,68.848,0
1610634693.195,64.453,58.594,54.688,65.430,70.312,0
1610634693.199,-11.230,52.734,45.410,0.488,58.105,0
1610634693.203,-17.090,39.062,27.832,-22.949,13.672,0
1610634693.206,48.828,48.340,35.645,30.273,-16.602,0
1610634693.210,94.727,47.363,32.227,64.453,25.391,0
1610634693.214,52.246,34.668,24.414,47.363,46.875,0
1610634693.218,-13.184,39.062,32.227,1.953,-1.953,0
1610634693.222,-22.949,43.945,41.016,-8.789,15.625,0
1610634693.226,27.832,43.457,42.480,35.645,48.340,0
1610634693.230,88.379,41.992,41.016,72.754,11.230,0
1610634693.233,67.871,41.992,38.574,58.594,45.898,0
1610634693.237,-1.465,52.734,46.387,15.137,0.488,0
1610634693.241,-8.301,63.477,57.129,1.465,39.551,0
1610634693.245,33.691,45.898,35.645,20.996,49.805,0
1610634693.249,72.266,29.297,19.531,53.223,-29.297,0
1610634693.250,58.594,34.668,22.949,51.758,20.996,0
1610634693.254,-14.160,39.551,31.738,-4.883,79.102,0
1610634693.258,-33.203,42.480,44.434,-39.062,6.836,0
1610634693.262,20.508,44.922,39.551,1.465,-52.734,0
1610634693.266,84.961,44.922,29.785,62.988,-0.488,0
1610634693.270,80.566,39.062,35.156,71.777,4.883,0
1610634693.274,16.113,36.133,43.457,19.043,-56.152,0
1610634693.277,-20.508,46.875,46.875,-14.160,-81.055,0
1610634693.281,8.301,47.852,43.945,8.789,-53.223,0
1610634693.285,85.449,44.434,46.387,57.129,9.766,0
1610634693.289,98.633,42.969,44.434,75.195,3.906,0
1610634693.293,17.090,34.668,27.344,10.742,5.859,0
1610634693.295,-29.785,37.598,23.926,-43.945,37.598,0
1610634693.299,0.488,43.457,34.180,-19.531,17.578,0
1610634693.303,71.777,49.316,33.203,51.270,-3.418,0
1610634693.307,97.168,45.898,26.855,77.637,0.488,0
1610634693.311,28.320,40.039,40.039,33.691,-12.207,0
1610634693.315,-19.043,49.805,47.852,-5.371,10.254,0
1610634693.319,3.418,50.781,38.086,8.301,-14.648,0
1610634693.322,55.176,38.574,37.598,55.176,8.301,0
1610634693.326,81.055,30.762,42.480,67.383,67.383,0
1610634693.330,50.781,36.621,43.945,36.621,34.180,0
1610634693.334,-0.977,45.410,46.875,-6.348,52.734,0
1610634693.338,-10.742,38.574,35.156,-12.207,17.578,0
1610634693.340,62.012,41.992,36.621,44.434,21.484,0
1610634693.344,116.211,51.270,50.781,80.566,21.484,0
1610634693.348,41.504,41.504,41.992,38.086,45.898,0
1610634693.352,-24.902,39.062,33.203,-25.391,45.898,0
1610634693.356,-13.672,45.410,39.062,-30.273,-20.508,0
1610634693.360,47.363,40.527,38.574,31.250,-0.977,0
1610634693.364,109.375,41.016,42.480,78.613,-5.859,0
1610634693.367,62.988,43.457,42.480,53.711,22.461,0
1610634693.371,-18.555,35.156,41.504,-12.207,41.016,0
1610634693.375,-8.789,42.969,49.805,-29.297,20.508,0
1610634693.379,42.480,47.852,42.480,26.367,27.832,0
1610634693.383,95.703,41.992,40.527,76.172,42.969,0
1610634693.385,83.496,54.688,54.199,80.078,31.738,0
1610634693.389,9.277,57.129,49.316,21.484,17.578,0
1610634693.393,-27.344,41.992,31.250,-27.832,20.508,0
1610634693.397,19.531,37.598,27.344,8.301,-21.973,0
1610634693.401,96.680,39.551,32.227,73.242,-50.781,0
1610634693.405,72.266,38.086,30.762,73.242,21.973,0
1610634693.409,-7.324,36.621,32.715,9.766,-29.297,0
1610634693.412,-34.668,41.016,50.293,-21.484,-94.238,0
1610634693.416,11.230,47.363,54.199,20.508,-55.664,0
1610634693.420,97.656,49.805,53.711,89.355,20.020,0
1610634693.424,92.773,51.270,60.547,97.656,101.074,0
1610634693.428,4.883,41.016,45.898,24.414,71.777,0
1610634693.430,-27.832,43.457,36.621,-14.160,3.418,0
1610634693.434,10.254,47.852,31.250,22.949,9.277,0
1610634693.438,74.219,41.992,31.738,68.848,28.809,0
1610634693.442,76.172,42.969,36.621,82.520,35.156,0
1610634693.446,10.742,41.992,32.227,44.434,26.367,0
1610634693.450,-35.156,40.039,36.133,-12.695,35.156,0
1610634693.454,0.977,42.480,42.969,6.836,30.273,0
1610634693.457,88.867,50.293,51.758,75.195,16.602,0
1610634693.461,80.078,36.621,45.410,83.496,-1.465,0
1610634693.465,0.000,25.879,34.668,30.762,-3.906,0
1610634693.469,-36.621,41.504,40.527,-15.137,-6.348,0
1610634693.473,-13.672,41.992,34.668,-3.906,-38.574,0
1610634693.475,54.199,41.016,34.668,48.340,-14.160,0
1610634693.479,89.844,46.875,43.457,75.195,-0.488,0
1610634693.483,20.508,39.062,41.992,27.832,17.578,0
1610634693.487,-41.504,38.574,42.480,-29.785,36.133,0
1610634693.491,-25.391,44.922,42.480,-23.438,2.441,0
1610634693.495,47.852,50.293,37.109,27.832,43.457,0
1610634693.499,74.707,48.340,30.762,45.410,87.891,0
1610634693.502,1.465,45.898,30.762,5.859,3.418,0
1610634693.506,-62.012,46.387,28.809,-51.270,-3.906,0
1610634693.510,-60.059,52.734,36.621,-51.758,-4.395,0
1610634693.514,-6.348,53.223,39.062,-4.883,-55.664,0
1610634693.518,32.227,47.363,26.367,15.625,-32.715,0
1610634693.521,-27.832,41.016,20.996,-20.508,11.230,0
1610634693.525,-106.934,39.551,18.555,-84.961,37.598,0
1610634693.529,-95.215,54.199,27.344,-80.566,38.574,0
1610634693.533,-32.715,57.617,31.250,-30.273,23.438,0
1610634693.537,5.371,41.504,16.602,-9.277,71.777,0
1610634693.541,-32.715,35.645,18.066,-26.855,62.500,0
1610634693.545,-101.074,51.758,27.344,-72.266,31.250,0
1610634693.548,-94.238,65.430,38.574,-80.078,30.273,0
1610634693.552,-40.039,48.828,28.809,-46.387,11.230,0
1610634693.556,19.531,30.762,20.020,-4.395,12.207,0
1610634693.560,10.742,35.645,27.344,6.348,43.457,0
1610634693.564,-54.199,45.898,35.156,-34.180,14.160,0
1610634693.580,-71.289,45.898,38.574,-60.059,-20.508,0
1610634693.584,-23.438,46.387,37.598,-15.137,17.578,0
1610634693.588,53.223,48.828,42.480,44.434,40.527,0
1610634693.592,49.316,40.527,44.434,47.852,19.043,0
1610634693.596,-19.531,34.668,41.016,2.930,16.602,0
1610634693.600,-29.785,41.992,45.410,-22.949,33.691,0
1610634693.604,17.090,52.734,51.270,25.879,18.555,0
1610634693.607,74.707,39.551,37.598,73.730,-11.230,0
1610634693.611,92.773,30.762,33.691,80.078,24.414,0
1610634693.615,27.832,37.109,41.016,47.852,31.250,0
1610634693.619,-19.043,39.551,37.109,-8.789,-9.277,0
1610634693.623,15.137,36.133,41.016,15.625,-2.930,0
1610634693.625,94.238,39.551,47.852,82.520,-0.488,0
1610634693.629,108.887,41.992,42.480,94.727,59.570,0
1610634693.633,46.387,41.992,52.246,70.312,76.660,0
1610634693.637,10.254,49.316,61.523,34.668,38.086,0
1610634693.641,31.250,46.875,45.410,39.062,55.176,0
1610634693.645,93.262,39.062,35.645,99.121,21.484,0
1610634693.649,114.258,36.133,38.086,117.676,12.695,0
1610634693.652,49.316,34.180,39.551,73.242,35.156,0
1610634693.656,-10.742,38.574,39.551,25.391,23.438,0
1610634693.660,21.484,47.363,44.434,41.016,65.918,0
1610634693.664,115.234,57.617,55.664,111.816,31.738,0
1610634693.668,137.207,48.828,51.270,126.465,-24.414,0
1610634693.670,71.289,30.273,43.457,90.332,2.441,0
1610634693.674,16.602,38.086,46.875,35.156,-30.273,0
1610634693.678,11.719,41.016,40.039,19.043,11.230,0
1610634693.682,72.266,33.203,34.180,78.125,63.965,0
1610634693.686,119.629,28.320,34.180,108.887,17.578,0
1610634693.690,72.754,32.715,37.598,80.078,25.391,0
1610634693.694,18.066,43.945,44.922,38.086,-21.973,0
1610634693.697,14.160,41.992,37.598,20.996,-30.273,0
1610634693.701,62.500,36.621,33.203,62.500,50.293,0
1610634693.705,130.371,45.410,41.016,116.211,14.160,0
1610634693.709,89.355,38.086,37.598,92.773,-36.621,0
1610634693.713,11.230,35.156,41.992,32.227,-33.203,0
1610634693.715,12.207,37.598,44.922,16.113,17.090,0
1610634693.719,63.477,38.086,35.645,62.988,-11.230,0
1610634693.723,119.141,40.527,34.668,109.375,-45.898,0
1610634693.727,92.285,35.156,36.621,91.309,-35.156,0
1610634693.731,17.578,31.738,36.133,35.156,-60.547,0
1610634693.735,8.301,45.410,42.969,19.043,-36.133,0
1610634693.739,76.660,63.965,54.199,69.336,-7.812,0
1610634693.742,120.605,43.945,42.969,95.703,-28.809,0
1610634693.746,72.754,29.785,37.109,83.984,-44.922,0
1610634693.750,16.113,48.340,49.316,40.527,7.324,0
1610634693.754,0.977,43.457,41.992,-6.348,62.012,0
1610634693.758,39.551,33.203,31.738,30.762,14.160,0
1610634693.760,111.816,52.246,45.410,99.121,44.922,0
1610634693.764,102.051,51.758,50.781,99.609,70.312,0
1610634693.768,14.648,26.367,35.156,31.738,-47.852,0
1610634693.772,-23.926,32.227,29.297,-11.230,5.371,0
1610634693.776,23.926,43.945,37.598,20.508,66.406,0
1610634693.780,89.355,35.645,39.062,73.730,38.574,0
1610634693.784,102.051,31.250,42.969,85.938,92.285,0
1610634693.787,33.691,40.527,51.758,47.363,97.168,0
1610634693.791,-26.367,39.551,42.969,-7.324,37.109,0
1610634693.795,6.348,34.668,44.434,10.742,42.969,0
1610634693.799,89.355,38.574,46.387,76.172,91.797,0
1610634693.803,106.934,30.273,39.551,86.426,57.129,0
1610634693.806,24.902,25.879,39.062,41.992,32.227,0
1610634693.810,-24.414,35.156,34.668,-13.184,-29.297,0
1610634693.814,6.836,48.340,40.039,3.906,-0.977,0
1610634693.818,83.008,53.223,50.781,72.754,44.434,0
1610634693.822,125.000,52.246,46.387,109.863,37.109,0
1610634693.826,43.945,37.598,32.715,64.941,21.973,0
1610634693.830,-23.438,29.297,34.180,-6.348,24.902,0
1610634693.833,-12.695,45.410,48.828,18.066,37.598,0
1610634693.837,57.617,51.758,59.570,94.727,32.715,0
1610634693.841,113.281,35.645,41.992,106.445,52.246,0
1610634693.845,41.504,28.809,22.949,56.641,11.719,0
1610634693.849,-24.414,31.250,40.039,0.977,20.020,0
1610634693.850,-5.859,41.016,59.570,-0.488,24.902,0
1610634693.854,51.270,44.922,57.617,49.805,2.930,0
1610634693.858,104.492,43.457,56.152,90.332,-2.930,0
1610634693.862,54.688,31.250,43.457,62.500,0.000,0
1610634693.866,-22.949,27.344,34.668,-4.883,51.758,0
1610634693.870,-22.949,34.180,39.062,-12.695,-11.719,0
1610634693.874,33.691,35.645,44.922,48.828,-29.785,0
1610634693.877,97.656,32.227,46.875,86.426,48.340,0
1610634693.881,70.801,36.621,49.316,74.219,79.102,0
1610634693.885,3.418,41.504,46.875,35.156,41.992,0
1610634693.889,-16.602,39.062,37.598,-2.930,41.504,0
1610634693.893,26.855,40.039,36.133,17.090,-0.488,0
1610634693.911,93.750,42.480,25.391,69.824,-40.039,0
1610634693.915,75.195,41.992,28.809,70.312,-0.488,0
1610634693.919,-2.930,29.297,42.480,1.465,-5.859,0
1610634693.923,-29.297,28.320,32.227,-35.645,-26.367,0
1610634693.927,9.277,33.203,33.691,13.184,-43.945,0
1610634693.931,83.008,29.785,47.852,70.801,-44.434,0
1610634693.935,77.637,28.809,45.898,63.965,-20.996,0
1610634693.938,8.301,47.852,44.434,20.508,27.832,0
1610634693.942,-15.625,56.152,36.621,-18.555,23.926,0
1610634693.946,20.996,51.270,37.598,21.973,3.906,0
1610634693.950,100.098,54.199,44.434,89.844,15.625,0
1610634693.954,89.355,36.133,30.273,85.938,-0.488,0
1610634693.956,4.395,27.344,42.480,17.578,-1.953,0
1610634693.960,-30.762,38.086,45.898,-43.945,-1.953,0
1610634693.964,8.301,43.945,27.832,-9.277,-40.527,0
1610634693.968,83.984,40.527,36.133,63.477,-19.043,0
1610634693.972,96.191,41.504,44.922,83.496,43.457,0
1610634693.976,29.297,48.828,41.016,46.875,55.176,0
1610634693.980,-7.324,52.734,42.969,0.977,37.109,0
1610634693.983,3.418,53.711,52.734,10.254,3.418,0
1610634693.987,71.289,53.223,52.246,73.730,40.039,0
1610634693.991,111.328,44.922,41.016,86.914,52.246,0
1610634693.995,27.832,26.855,24.902,29.297,10.254,0
1610634693.999,-20.996,28.320,24.902,-18.066,-54.199,0
1610634694.000,-0.488,44.434,44.434,8.301,-11.230,0
1610634694.004,54.199,45.898,50.781,55.176,35.156,0
1610634694.008,102.539,37.598,45.410,76.660,25.391,0
1610634694.012,47.852,33.203,34.668,51.270,30.762,0
1610634694.016,-10.254,42.969,40.527,-2.441,-5.859,0
1610634694.020,2.441,46.875,51.270,5.859,-29.785,0
1610634694.024,68.848,44.922,45.898,67.871,-4.395,0
1610634694.027,102.051,47.363,39.062,99.609,2.441,0
1610634694.031,46.875,42.480,42.480,69.824,-2.441,0
1610634694.035,-9.277,32.227,38.086,4.395,-72.266,0
1610634694.039,-21.973,29.785,29.297,-18.555,-81.055,0
1610634694.043,33.691,37.109,36.133,33.691,-19.531,0
1610634694.047,99.121,35.156,51.270,90.820,32.227,0
1610634694.051,63.965,40.039,55.664,69.336,40.527,0
1610634694.055,-25.391,37.109,33.203,-5.859,30.273,0
1610634694.059,-19.531,40.039,39.062,-13.672,19.043,0
1610634694.063,43.457,38.086,49.805,33.203,-20.996,0
1610634694.067,87.891,28.320,33.691,65.918,37.598,0
1610634694.071,62.500,31.738,25.391,56.152,37.109,0
1610634694.074,-4.395,35.645,29.785,7.324,10.254,0
1610634694.078,-31.738,39.062,38.086,-19.043,-5.371,0
1610634694.082,22.461,43.945,37.109,24.902,-73.242,0
1610634694.086,107.910,52.734,40.039,89.844,6.836,0
1610634694.090,93.750,46.387,40.527,85.449,26.367,0
1610634694.090,10.742,34.180,40.527,26.855,-59.570,0
1610634694.094,-27.832,37.598,44.922,-10.742,-56.152,0
1610634694.098,20.508,47.852,44.922,23.438,19.043,0
1610634694.102,86.426,45.898,39.062,75.195,67.871,0
1610634694.106,72.754,33.691,17.578,63.965,73.730,0
1610634694.110,8.789,33.691,20.020,29.297,17.578,0
1610634694.114,-24.414,38.086,38.574,-7.812,-4.883,0
1610634694.117,15.137,43.945,40.039,4.395,24.414,0
1610634694.121,76.172,41.992,30.762,55.176,53.711,0
1610634694.125,82.031,41.992,40.527,70.801,69.824,0
1610634694.129,37.598,59.570,60.547,41.016,20.020,0
1610634694.133,-19.531,49.316,52.734,-10.742,2.930,0
1610634694.135,4.883,39.062,50.293,1.465,-23.926,0
1610634694.139,77.637,43.457,45.898,63.477,0.000,0
1610634694.143,88.379,35.156,34.180,80.566,55.176,0
1610634694.147,29.297,41.504,34.668,43.457,8.301,0
1610634694.151,-17.578,39.551,33.691,-10.254,-45.898,0
1610634694.155,2.930,36.133,42.969,3.418,-83.496,0
1610634694.159,79.590,43.457,51.270,73.242,-79.102,0
1610634694.162,110.840,48.340,52.734,88.867,8.789,0
1610634694.166,38.086,44.434,43.457,34.668,41.992,0
1610634694.170,-22.461,49.805,48.828,-10.742,-22.461,0
1610634694.174,0.488,56.641,47.363,6.348,21.484,0
1610634694.178,76.660,56.152,34.180,67.871,65.918,0
1610634694.180,104.980,49.805,41.504,81.055,64.453,0
1610634694.184,36.621,30.273,33.691,31.738,52.246,0
1610634694.188,-26.367,25.879,29.297,-14.160,24.902,0
1610634694.192,-10.742,36.133,28.320,-13.184,17.090,0
1610634694.196,50.781,43.945,28.320,40.039,15.137,0
1610634694.200,99.609,37.598,37.109,86.426,62.012,0
1610634694.204,60.059,32.227,43.945,71.289,76.172,0
1610634694.207,-4.883,40.039,41.992,6.348,-21.484,0
1610634694.211,-7.812,49.316,36.133,-13.672,-76.660,0
1610634694.215,38.086,46.387,40.527,39.551,22.461,0
1610634694.219,104.492,46.875,53.223,91.797,64.941,0
1610634694.223,83.984,49.316,52.734,81.055,31.738,0
1610634694.225,-19.043,35.156,27.832,8.789,39.551,0
1610634694.229,-38.086,28.320,25.391,-25.391,-15.625,0
1610634694.233,24.902,34.180,31.738,27.832,-23.438,0
1610634694.237,83.008,37.598,23.926,79.590,19.043,0
1610634694.241,66.895,32.227,26.855,75.684,9.277,0
1610634694.245,-4.883,34.668,39.551,24.902,-5.859,0
1610634694.249,-16.602,45.898,45.410,-6.836,-46.387,0
1610634694.252,33.203,45.898,49.805,27.344,-69.336,0
1610634694.256,88.379,38.574,40.039,74.219,-30.762,0
1610634694.260,87.402,47.852,38.086,82.520,-11.719,0
1610634694.264,13.184,48.828,40.039,44.922,-32.227,0
1610634694.268,-31.738,36.621,28.809,-10.254,-73.730,0
1610634694.271,10.254,40.039,34.180,5.859,-16.602,0
1610634694.275,78.613,44.434,37.109,76.172,3.906,0
1610634694.279,75.684,38.574,31.738,87.402,34.180,0
1610634694.283,17.090,38.086,32.715,46.387,76.172,0
1610634694.287,-13.672,49.316,39.551,15.625,5.859,0
1610634694.291,8.789,40.039,36.621,26.855,13.672,0
1610634694.295,85.449,31.738,35.645,84.961,8.301,0
1610634694.298,99.609,36.133,39.551,93.262,16.602,0
1610634694.302,12.695,30.762,38.574,22.949,88.379,0
1610634694.306,-25.391,42.969,47.363,-13.184,40.527,0
1610634694.310,1.953,50.781,50.293,8.301,3.906,0
1610634694.314,58.594,41.992,31.738,56.152,47.852,0
1610634694.330,86.426,41.016,26.855,83.008,44.434,0
1610634694.334,31.250,41.992,39.062,46.387,-19.531,0
1610634694.338,-21.484,40.527,39.551,-9.766,-24.902,0
1610634694.342,-1.465,40.039,31.250,-8.789,-24.902,0
1610634694.346,56.152,49.316,32.227,64.453,-3.906,0
1610634694.350,87.891,46.387,35.645,94.238,64.941,0
1610634694.354,53.223,41.992,37.598,51.270,29.785,0
1610634694.357,3.418,59.570,58.105,17.090,17.090,0
1610634694.361,-9.766,48.828,46.875,2.441,37.598,0
1610634694.365,40.527,33.203,23.926,43.945,69.336,0
1610634694.369,102.051,35.645,31.738,85.938,97.656,0
1610634694.373,66.406,41.016,45.410,67.871,21.484,0
1610634694.375,3.418,46.387,44.434,26.855,16.602,0
1610634694.379,-15.625,40.039,35.645,7.324,45.410,0
1610634694.383,36.621,39.062,46.387,44.922,-17.578,0
1610634694.387,99.609,40.527,46.387,94.238,6.348,0
1610634694.391,65.430,44.434,43.457,88.379,58.594,0
1610634694.395,-3.906,44.922,49.805,33.203,61.035,0
1610634694.399,-14.160,47.363,46.875,13.184,41.016,0
1610634694.402,38.574,58.105,50.293,60.547,4.883,0
1610634694.406,99.121,51.758,42.969,92.285,14.160,0
1610634694.410,61.523,30.762,27.344,57.129,4.883,0
1610634694.414,-14.648,27.832,34.180,5.371,-30.762,0
1610634694.418,-24.414,40.527,45.410,-10.742,-10.254,0
1610634694.421,25.879,44.434,41.504,27.344,14.160,0
1610634694.425,89.844,44.922,39.062,80.566,-10.254,0
1610634694.429,72.266,43.945,33.203,74.219,-6.836,0
1610634694.433,20.508,53.711,41.016,42.969,15.137,0
1610634694.437,1.465,62.988,54.688,13.672,2.441,0
1610634694.441,15.625,41.504,35.156,17.090,-21.484,0
1610634694.445,82.031,32.227,30.762,74.219,0.977,0
1610634694.448,92.773,43.945,42.969,85.449,-2.930,0
1610634694.452,26.855,41.992,38.574,25.879,-14.160,0
1610634694.456,-9.277,33.691,32.227,-25.879,-38.574,0
1610634694.460,15.625,36.133,34.668,10.742,-36.133,0
1610634694.464,83.984,41.992,38.574,67.871,61.523,0
1610634694.465,101.074,46.387,39.062,72.266,44.434,0
1610634694.469,19.531,51.270,40.039,37.598,9.766,0
1610634694.473,-29.785,51.758,40.039,-2.441,30.762,0
1610634694.477,7.324,52.246,36.621,15.625,55.176,0
1610634694.481,74.219,47.363,38.086,68.359,60.059,0
1610634694.485,88.379,33.691,33.203,79.590,62.988,0
1610634694.489,22.949,33.691,33.203,43.457,58.105,0
1610634694.492,-29.785,34.180,35.645,-21.973,15.137,0
1610634694.496,-11.719,38.574,38.574,-13.672,34.668,0
1610634694.500,69.336,51.270,49.316,66.406,22.461,0
1610634694.504,95.703,46.387,42.969,91.797,11.719,0
1610634694.508,23.438,29.785,33.691,40.039,75.684,0
1610634694.512,-27.832,35.156,38.574,-15.137,30.762,0
1610634694.516,-23.438,40.039,37.109,-11.230,-43.945,0
1610634694.520,47.363,43.945,41.992,51.270,2.441,0
1610634694.524,114.746,53.711,38.086,85.449,83.008,0
1610634694.528,53.711,41.992,24.902,52.246,72.754,0
1610634694.532,-20.020,34.668,32.715,2.441,47.852,0
1610634694.536,-13.672,38.086,33.691,-13.672,-50.781,0
1610634694.539,41.504,39.062,32.715,31.250,-26.855,0
1610634694.543,95.215,42.480,38.086,75.684,78.613,0
1610634694.547,56.641,44.922,37.109,55.176,-9.277,0
1610634694.551,-20.996,41.992,41.992,-2.930,2.441,0
1610634694.555,-15.625,53.223,52.734,-11.230,33.203,0
1610634694.555,52.246,58.105,55.176,45.898,8.789,0
1610634694.559,102.051,39.551,33.691,81.543,34.668,0
1610634694.563,38.574,28.809,15.137,49.805,22.949,0
1610634694.567,-31.250,27.832,36.621,-7.812,-11.230,0
1610634694.571,-30.273,37.109,47.852,-33.203,-6.836,0
1610634694.575,13.672,45.410,41.504,15.625,21.484,0
1610634694.579,82.031,44.434,44.434,70.312,16.602,0
1610634694.582,67.871,41.992,43.945,69.824,37.109,0
1610634694.586,-2.930,46.387,41.016,24.902,42.480,0
1610634694.590,-25.879,48.828,42.969,-20.508,-6.348,0
1610634694.594,20.508,49.805,47.852,22.461,-33.691,0
1610634694.598,103.027,67.871,59.570,95.215,2.930,0
1610634694.600,86.426,57.129,49.805,77.148,58.594,0
1610634694.604,-7.324,24.414,25.879,0.977,79.590,0
1610634694.608,-36.621,27.344,33.691,-33.691,27.832,0
1610634694.612,0.977,36.621,39.551,-0.977,1.953,0
1610634694.616,71.289,40.039,37.109,50.293,17.090,0
1610634694.620,86.426,44.922,37.598,69.824,28.809,0
1610634694.624,20.996,45.410,36.133,27.344,55.176,0
1610634694.627,-6.836,52.246,47.363,-12.695,12.207,0
1610634694.631,15.625,53.223,46.387,7.324,-58.105,0
1610634694.635,66.895,45.898,33.203,51.758,-18.555,0
1610634694.639,90.332,47.363,34.180,74.707,44.922,0
1610634694.643,18.066,46.875,26.855,32.715,20.996,0
1610634694.646,-24.414,51.758,28.809,-10.254,-22.949,0
1610634694.650,2.441,46.387,37.598,4.883,14.648,0
1610634694.654,58.105,34.668,43.945,54.688,15.625,0
1610634694.658,92.285,41.504,44.434,75.684,-2.930,0
1610634694.662,46.875,50.781,42.969,43.945,-15.625,0
1610634694.666,-0.977,56.641,48.340,3.418,-20.020,0
1610634694.670,-14.160,46.875,36.133,-11.719,11.719,0
1610634694.673,42.480,41.992,36.621,36.133,25.879,0
1610634694.677,91.797,46.387,40.039,79.102,55.176,0
1610634694.681,34.668,38.086,29.297,35.645,19.043,0
1610634694.685,-25.879,45.410,42.969,-12.207,2.930,0
1610634694.689,-18.555,52.246,49.316,-7.324,31.738,0
1610634694.705,54.199,45.898,45.410,47.852,20.020,0
1610634694.709,111.328,45.410,52.734,94.238,45.410,0
1610634694.713,54.199,40.527,43.457,60.547,29.785,0
1610634694.717,-19.043,33.203,34.668,-5.859,-2.441,0
1610634694.721,-24.414,38.086,40.527,-13.672,-10.742,0
1610634694.725,26.367,46.387,45.898,38.086,28.320,0
1610634694.729,94.238,49.805,40.527,91.797,83.496,0
1610634694.732,64.453,50.293,36.133,74.707,35.645,0
1610634694.736,-14.160,46.875,38.574,-4.395,3.418,0
1610634694.740,-21.973,44.434,47.363,-31.250,-29.785,0
1610634694.744,38.086,50.781,59.570,31.738,-35.156,0
1610634694.748,118.164,57.617,58.105,96.680,6.348,0
1610634694.750,83.008,47.852,47.852,77.637,41.992,0
1610634694.754,-20.508,25.879,27.344,-0.977,55.176,0
1610634694.758,-39.551,24.414,20.508,-30.273,-5.371,0
1610634694.762,10.254,35.156,36.621,16.113,-44.922,0
1610634694.766,79.590,42.969,43.945,75.684,28.320,0
1610634694.770,77.148,41.504,36.133,84.961,46.875,0
1610634694.774,6.836,38.086,32.715,32.227,-10.742,0
1610634694.777,-18.555,42.480,39.062,-8.789,-0.488,0
1610634694.781,21.484,49.805,48.340,19.043,60.547,0
1610634694.785,82.520,41.016,47.852,72.754,48.828,0
1610634694.789,85.449,29.297,40.039,74.219,16.113,0
1610634694.793,10.742,39.551,40.039,33.203,50.781,0
1610634694.795,-34.180,40.039,43.945,-7.324,17.090,0
1610634694.799,6.836,36.621,42.969,14.648,-24.414,0
1610634694.803,74.219,35.156,31.738,76.172,10.254,0
1610634694.807,97.168,41.992,34.668,102.539,17.578,0
1610634694.811,40.039,49.316,37.109,49.805,13.184,0
1610634694.815,-13.672,46.387,41.992,-9.277,14.648,0
1610634694.819,3.418,53.223,60.059,19.043,50.293,0
1610634694.822,60.547,48.828,58.594,55.664,56.641,0
1610634694.826,79.102,32.227,42.969,58.105,34.180,0
1610634694.830,11.230,24.414,42.969,22.949,36.621,0
1610634694.834,-36.133,28.809,46.387,-24.902,-21.973,0
1610634694.838,1.953,45.410,51.270,-6.836,-106.445,0
1610634694.840,60.059,40.039,41.504,45.410,-48.340,0
1610634694.844,91.797,40.527,42.480,75.195,25.879,0
1610634694.848,43.457,48.828,45.898,49.316,34.668,0
1610634694.852,-17.578,44.922,40.527,-15.137,28.809,0
1610634694.856,-11.719,46.387,43.945,-18.555,-9.766,0
1610634694.860,57.617,54.688,47.852,50.293,22.461,0
1610634694.864,109.863,56.641,50.293,97.656,93.262,0
1610634694.867,44.434,38.086,40.039,61.035,94.727,0
1610634694.871,-30.273,28.320,38.574,-10.742,18.066,0
1610634694.875,-18.066,34.180,50.293,-20.508,-5.371,0
1610634694.879,51.270,46.387,54.199,40.527,11.719,0
1610634694.883,103.516,51.758,54.688,86.914,-38.574,0
1610634694.886,70.801,49.805,45.898,77.148,-42.480,0
