timestamps,TP9,AF7,AF8,TP10,Right AUX,Marker0
1610554658.895,-210.938,37.109,52.246,-30.273,-164.062,0
1610554658.899,169.922,40.527,46.875,38.574,-81.055,0
1610554658.903,368.652,40.039,36.133,66.895,29.785,0
1610554658.907,196.777,32.227,37.109,33.203,36.621,0
1610554658.911,-70.312,35.645,45.410,20.996,-75.195,0
1610554658.915,-170.898,45.410,51.270,20.996,-166.992,0
1610554658.919,104.980,45.410,44.434,33.203,-113.281,0
1610554658.922,369.141,44.922,36.133,46.875,49.316,0
1610554658.926,257.812,42.480,16.113,46.387,79.102,0
1610554658.930,-41.992,38.574,17.090,11.230,-35.645,0
1610554658.934,-182.129,43.457,41.016,6.348,-142.090,0
1610554658.938,-0.488,42.969,37.598,47.363,-100.098,0
1610554658.940,226.074,27.344,34.180,64.941,49.805,0
1610554658.944,247.070,35.645,38.086,61.523,109.375,0
1610554658.948,-15.625,48.340,41.504,28.809,9.277,0
1610554658.952,-257.812,36.133,32.227,-11.719,-131.348,0
1610554658.956,20.508,28.320,27.344,28.320,-114.258,0
1610554658.960,371.582,20.020,28.809,57.617,-0.977,0
1610554658.964,327.637,26.367,28.320,41.504,69.824,0
1610554658.967,38.574,38.086,33.203,12.207,23.438,0
1610554658.971,-208.984,41.992,20.020,-19.531,-96.680,0
1610554658.975,-62.500,38.086,14.160,18.066,-127.930,0
1610554658.979,237.793,30.273,27.832,57.617,31.250,0
1610554658.983,288.086,37.598,32.227,53.223,109.375,0
1610554658.985,31.250,35.645,30.762,18.066,15.137,0
1610554658.989,-292.480,27.344,37.109,-17.578,-112.305,0
1610554658.993,-175.781,27.344,24.414,-5.859,-130.371,0
1610554658.997,193.359,26.367,13.184,28.320,-0.488,0
1610554659.001,317.871,29.297,20.996,44.434,118.164,0
1610554659.005,80.078,37.598,24.902,19.531,83.496,0
1610554659.009,-253.906,41.504,39.062,-23.438,-45.898,0
1610554659.012,-153.809,37.598,34.180,-2.930,-91.309,0
1610554659.016,211.914,35.156,22.949,47.363,-37.109,0
1610554659.020,352.051,33.203,20.996,60.059,77.637,0
1610554659.024,78.613,34.180,16.602,42.480,96.191,0
1610554659.028,-210.938,48.340,40.527,22.949,-31.738,0
1610554659.031,-126.953,48.340,39.551,12.695,-69.824,0
1610554659.035,178.223,22.949,2.441,2.930,38.086,0
1610554659.039,244.141,15.625,-13.184,19.043,166.992,0
1610554659.043,25.391,25.879,-4.395,16.602,133.789,0
1610554659.047,-219.238,37.109,20.508,-8.789,-28.320,0
1610554659.051,-277.344,40.527,28.320,8.301,-66.406,0
1610554659.055,15.625,27.344,6.836,43.457,35.156,0
1610554659.058,234.863,26.367,-3.418,57.617,156.738,0
1610554659.062,97.168,34.180,17.090,52.734,173.828,0
1610554659.066,-317.383,23.438,20.508,-8.789,82.520,0
1610554659.070,-416.504,17.578,19.531,-20.020,-17.578,0
1610554659.074,-10.254,32.715,25.879,43.945,-4.395,0
1610554659.077,223.145,29.297,9.766,52.246,91.797,0
1610554659.081,113.770,18.066,-10.742,2.930,116.211,0
1610554659.085,-173.340,22.461,-3.418,-45.410,25.391,0
1610554659.089,-306.641,17.578,14.648,-52.734,-79.590,0
1610554659.093,-48.828,13.672,-4.395,-8.301,-37.109,0
1610554659.097,177.246,21.484,-12.695,29.297,68.359,0
1610554659.101,164.551,37.598,19.531,34.668,86.426,0
1610554659.104,-153.809,41.992,31.250,6.348,-2.930,0
1610554659.108,-414.551,21.484,29.297,-36.621,-116.699,0
1610554659.112,-137.207,9.766,19.043,-41.992,-109.863,0
1610554659.116,201.660,24.902,0.977,-1.953,12.695,0
1610554659.120,139.648,48.828,21.973,0.000,25.391,0
1610554659.120,-242.676,45.410,30.762,-54.199,-59.082,0
1610554659.124,-380.371,30.762,7.324,-81.055,-140.625,0
1610554659.128,-181.641,23.926,6.348,-60.547,-158.691,0
1610554659.132,120.117,18.066,11.230,-18.066,-52.734,0
1610554659.136,202.637,21.973,5.371,-0.488,19.531,0
1610554659.140,-99.121,36.621,21.484,-15.625,-48.828,0
1610554659.144,-373.047,42.480,43.945,-21.973,-148.926,0
1610554659.147,-222.656,35.156,31.250,-24.414,-161.133,0
1610554659.151,197.266,30.762,20.508,6.836,-101.074,0
1610554659.155,257.812,41.016,29.785,21.973,-19.043,0
1610554659.159,-15.137,38.086,17.578,-6.348,-83.008,0
1610554659.163,-274.902,30.273,7.324,-20.508,-176.758,0
1610554659.166,-201.660,34.668,26.855,-3.418,-164.551,0
1610554659.170,182.617,30.273,26.855,28.809,-107.422,0
1610554659.174,315.430,25.391,10.742,31.738,-56.152,0
1610554659.178,41.992,33.203,13.184,19.531,-67.871,0
1610554659.182,-252.930,40.527,34.668,-5.859,-119.141,0
1610554659.186,-207.031,31.250,27.832,-32.715,-142.090,0
1610554659.190,145.996,21.484,-5.859,17.578,-82.520,0
1610554659.193,360.840,25.879,11.230,55.176,-44.434,0
1610554659.197,164.551,26.855,25.391,23.926,-32.715,0
1610554659.201,-184.570,26.367,25.879,-26.367,-75.684,0
1610554659.205,-221.680,24.414,27.832,-6.348,-143.555,0
1610554659.209,125.488,22.949,20.508,41.504,-112.305,0
1610554659.226,340.332,21.484,16.113,16.113,-21.484,0
1610554659.230,153.320,30.762,20.996,26.367,-14.160,0
1610554659.234,-129.883,42.969,41.016,14.648,-65.430,0
1610554659.238,-181.641,30.273,30.762,-13.184,-130.371,0
1610554659.242,58.105,11.719,6.836,28.809,-111.328,0
1610554659.246,327.148,10.254,5.371,43.457,-31.250,0
1610554659.250,253.418,21.973,13.184,29.785,-9.766,0
1610554659.253,-171.875,38.574,12.207,15.137,-24.902,0
1610554659.257,-378.418,38.574,23.438,4.883,-81.055,0
1610554659.261,-100.586,22.461,43.457,19.531,-69.336,0
1610554659.265,217.773,16.113,25.879,21.484,-5.371,0
1610554659.269,194.824,29.297,21.484,42.969,33.691,0
1610554659.271,-167.969,30.762,35.645,16.602,10.254,0
1610554659.275,-382.324,20.508,32.715,-37.598,-61.523,0
1610554659.279,-144.531,30.762,24.414,34.180,-58.105,0
1610554659.283,227.051,32.715,23.926,98.145,84.961,0
1610554659.287,200.684,20.996,17.578,56.152,159.668,0
1610554659.291,-125.488,29.785,7.324,12.207,75.684,0
1610554659.295,-375.000,39.062,26.367,-12.207,-15.625,0
1610554659.298,-183.105,24.902,31.250,-25.391,-24.414,0
1610554659.302,171.387,26.367,28.809,9.277,79.590,0
1610554659.306,199.707,31.738,27.344,8.301,104.004,0
1610554659.310,-70.312,32.227,21.484,-44.434,40.039,0
1610554659.314,-371.582,37.109,25.879,-44.434,-7.812,0
1610554659.317,-198.242,31.250,31.738,-24.902,-56.641,0
1610554659.321,183.594,21.484,16.602,23.926,-2.930,0
1610554659.325,273.926,25.879,15.625,72.754,89.844,0
1610554659.329,2.441,32.715,36.621,33.691,61.035,0
1610554659.333,-338.867,31.250,30.273,-1.465,-61.523,0
1610554659.337,-174.316,39.551,31.250,41.504,-78.613,0
1610554659.341,244.141,37.109,34.180,79.102,52.734,0
1610554659.344,389.160,20.996,9.766,70.312,151.367,0
1610554659.348,42.480,23.926,5.859,50.781,149.902,0
1610554659.352,-308.105,24.414,27.832,20.020,47.852,0
1610554659.356,-156.738,18.066,31.738,21.973,62.988,0
1610554659.360,192.871,13.184,10.254,53.223,213.867,0
1610554659.362,399.902,22.949,9.277,81.055,296.875,0
1610554659.366,169.434,36.133,20.996,78.125,300.293,0
1610554659.370,-332.031,30.273,7.812,10.742,207.031,0
1610554659.374,-327.637,25.391,5.859,-34.668,124.023,0
1610554659.378,144.531,37.109,26.855,28.320,180.176,0
1610554659.382,427.734,39.551,28.809,62.988,286.621,0
1610554659.386,206.543,23.926,11.230,14.648,276.367,0
1610554659.389,-187.012,19.043,17.578,-31.738,143.066,0
1610554659.393,-269.043,21.973,22.949,-38.574,25.879,0
1610554659.397,17.090,29.297,6.836,3.906,76.660,0
1610554659.401,297.852,29.785,-3.418,48.828,214.355,0
1610554659.405,218.750,37.109,15.137,52.734,230.957,0
1610554659.405,-203.125,45.898,34.180,17.578,133.789,0
1610554659.409,-351.562,42.480,36.133,-16.113,28.809,0
1610554659.413,-7.812,39.551,18.555,35.645,23.926,0
1610554659.417,354.004,32.227,12.695,67.871,103.516,0
1610554659.421,288.086,45.410,20.996,25.879,108.398,0
1610554659.425,-105.957,65.918,27.344,0.977,-7.812,0
1610554659.429,-318.359,50.293,24.902,-26.855,-118.164,0
1610554659.432,-30.762,28.809,20.508,-22.461,-133.789,0
1610554659.436,376.465,28.809,17.090,22.461,-11.719,0
1610554659.440,392.578,36.621,20.508,12.207,56.641,0
1610554659.444,-17.090,42.969,34.180,-20.996,-30.762,0
1610554659.448,-389.648,53.711,39.062,-16.602,-149.414,0
1610554659.450,-157.715,49.316,28.320,27.344,-150.879,0
1610554659.454,270.996,29.297,9.277,59.570,-30.273,0
1610554659.458,304.199,28.320,5.371,30.273,18.555,0
1610554659.462,-102.539,37.598,29.785,-11.719,-31.738,0
1610554659.466,-449.707,40.527,35.645,-37.109,-117.188,0
1610554659.470,-144.531,50.293,30.762,-0.977,-108.887,0
1610554659.474,384.277,43.945,21.973,40.039,-20.996,0
1610554659.477,509.277,35.645,19.043,14.648,13.184,0
1610554659.481,95.703,43.945,40.039,-42.969,-71.777,0
1610554659.485,-388.184,44.922,45.410,-58.105,-168.457,0
1610554659.489,-314.941,35.156,22.949,-13.184,-191.406,0
1610554659.493,148.926,29.297,8.789,36.133,-109.375,0
1610554659.495,349.609,30.762,20.020,63.965,-20.996,0
1610554659.499,19.043,25.879,27.832,46.387,-65.918,0
1610554659.503,-405.273,40.527,31.738,-23.438,-155.762,0
1610554659.507,-270.020,52.734,21.484,-69.336,-197.266,0
1610554659.511,286.133,37.109,16.602,-6.836,-128.418,0
1610554659.515,459.473,33.691,23.438,41.504,-70.312,0
1610554659.519,169.922,55.664,40.527,23.926,-102.051,0
1610554659.522,-194.824,67.383,56.152,13.184,-152.344,0
1610554659.526,-246.094,52.734,55.176,4.395,-123.535,0
1610554659.530,167.969,43.457,49.316,51.758,-140.137,0
1610554659.534,481.445,50.781,51.758,59.082,-158.203,0
1610554659.538,342.285,56.641,58.105,17.090,-146.973,0
1610554659.540,-206.543,56.152,51.270,-14.160,-81.543,0
1610554659.544,-358.887,64.453,52.734,-11.719,-97.656,0
1610554659.548,106.445,68.359,50.781,37.109,-111.816,0
1610554659.552,475.586,48.828,41.504,52.734,-30.273,0
1610554659.556,300.781,46.387,46.875,31.738,-53.711,0
1610554659.560,-198.242,70.312,63.965,29.785,-63.477,0
1610554659.564,-441.895,72.266,58.105,54.199,-28.320,0
1610554659.567,16.602,52.246,35.156,71.777,-31.250,0
1610554659.571,406.250,51.758,32.227,90.332,-62.500,0
1610554659.575,224.121,60.059,50.781,131.836,-95.703,0
1610554659.579,-247.070,64.941,76.660,83.496,-73.730,0
1610554659.583,-512.695,73.730,76.660,7.324,-112.793,0
1610554659.587,-138.184,76.172,57.129,19.531,-113.770,0
1610554659.591,363.770,69.824,40.039,81.543,-41.504,0
1610554659.595,294.434,71.777,37.598,88.379,-29.297,0
1610554659.599,-186.523,79.590,52.246,17.090,11.230,0
1610554659.603,-471.680,89.844,74.219,-37.109,-30.273,0
1610554659.607,-148.438,75.684,72.754,-22.949,-92.773,0
1610554659.611,421.875,51.758,52.246,20.508,-8.301,0
1610554659.614,472.168,55.176,38.574,19.531,1.465,0
1610554659.618,-59.082,69.336,38.086,-10.742,-63.477,0
1610554659.622,-442.383,77.637,45.410,-26.367,-53.223,0
1610554659.626,-133.789,73.242,48.340,15.625,-10.742,0
1610554659.630,401.367,53.711,45.410,62.500,-41.016,0
1610554659.646,520.996,43.945,39.551,62.500,-86.426,0
1610554659.650,27.832,54.688,52.734,38.086,-41.016,0
1610554659.654,-433.594,61.035,65.430,-11.230,-62.012,0
1610554659.658,-242.676,57.617,68.359,2.441,-92.773,0
1610554659.662,266.602,51.758,54.688,77.637,0.000,0
1610554659.666,461.914,45.898,27.832,80.078,17.090,0
1610554659.670,47.852,51.758,39.062,-8.301,55.664,0
1610554659.673,-457.520,60.059,61.523,-52.734,58.594,0
1610554659.677,-425.293,58.594,65.430,-34.668,44.922,0
1610554659.681,144.531,50.293,56.641,25.879,21.973,0
1610554659.685,553.223,39.062,34.668,81.543,-46.875,0
1610554659.689,183.105,47.852,35.645,45.898,7.324,0
1610554659.705,-391.113,60.547,51.270,-14.648,28.809,0
1610554659.709,-417.480,53.711,48.340,-10.742,14.160,0
1610554659.713,135.742,48.828,49.316,15.625,7.812,0
1610554659.717,502.441,57.129,54.688,28.809,23.438,0
1610554659.721,248.047,44.434,44.922,4.883,49.805,0
1610554659.725,-384.766,31.738,51.270,-51.270,-32.715,0
1610554659.729,-484.375,38.574,49.316,-60.059,-20.020,0
1610554659.732,111.328,38.574,30.762,-7.812,13.672,0
1610554659.736,518.066,37.598,27.344,25.391,3.906,0
1610554659.740,319.336,39.551,23.926,17.090,-13.184,0
1610554659.744,-231.934,45.410,50.781,-11.230,-52.734,0
1610554659.748,-446.289,39.551,57.617,-41.504,44.434,0
1610554659.735,101.562,25.879,33.203,-32.715,56.152,0
1610554659.739,573.242,33.691,23.438,11.230,-19.043,0
1610554659.743,382.812,41.504,16.602,-7.812,-26.367,0
1610554659.747,-115.234,50.781,38.086,-40.039,-10.254,0
1610554659.751,-363.770,61.523,65.918,-21.484,-32.715,0
1610554659.755,28.809,41.992,53.223,0.000,-33.691,0
1610554659.759,520.996,13.184,15.137,20.508,-42.480,0
1610554659.762,458.984,11.230,8.301,32.715,-93.750,0
1610554659.766,-81.055,28.320,34.180,-5.859,-93.262,0
1610554659.770,-427.734,44.434,46.387,-73.730,-45.898,0
1610554659.774,-56.152,40.039,33.691,-42.969,23.438,0
1610554659.778,487.305,26.855,26.367,17.090,25.879,0
1610554659.780,492.676,28.320,20.508,-3.906,-15.137,0
1610554659.784,-20.996,35.645,41.504,-11.230,21.484,0
1610554659.788,-512.207,38.086,78.125,-30.273,27.832,0
1610554659.792,-293.457,40.527,78.125,-31.250,-25.879,0
1610554659.796,341.309,42.480,62.012,29.785,-44.434,0
1610554659.800,453.125,32.227,50.293,57.129,-44.922,0
1610554659.804,-20.020,37.109,56.641,32.227,22.461,0
1610554659.807,-451.660,49.316,78.125,12.207,50.293,0
1610554659.811,-259.766,44.434,85.938,16.602,36.621,0
1610554659.815,393.066,29.785,71.777,40.039,31.250,0
1610554659.819,659.668,21.973,51.270,49.805,-3.418,0
1610554659.823,187.500,36.621,54.688,1.953,-6.348,0
1610554659.827,-425.293,46.875,69.336,-45.898,15.137,0
1610554659.831,-297.363,43.457,79.102,-24.902,0.977,0
1610554659.835,367.188,34.180,74.707,52.734,-8.301,0
1610554659.839,665.527,25.391,54.688,82.520,-1.465,0
1610554659.843,316.895,32.227,55.176,2.441,20.996,0
1610554659.847,-287.598,44.922,70.801,-50.293,14.648,0
1610554659.851,-310.547,47.852,60.059,-18.066,-50.293,0
1610554659.854,223.633,37.109,43.457,35.645,-59.570,0
1610554659.858,537.598,28.809,56.152,48.340,52.246,0
1610554659.862,226.562,36.621,51.758,-7.324,18.555,0
1610554659.866,-425.293,52.734,52.246,-53.711,-27.344,0
1610554659.870,-586.426,61.523,78.125,-41.992,-11.230,0
1610554659.870,-93.262,49.316,66.895,17.578,-6.836,0
1610554659.874,405.273,34.180,43.457,43.457,28.809,0
1610554659.878,245.605,41.016,46.875,6.348,-51.270,0
1610554659.882,-373.047,48.340,55.176,-62.012,-18.066,0
1610554659.886,-577.148,32.715,53.711,-62.012,-12.207,0
1610554659.890,-69.824,24.414,38.086,-9.766,-49.805,0
1610554659.894,442.383,23.926,31.250,21.484,-4.883,0
1610554659.897,324.219,31.250,43.945,12.695,11.719,0
1610554659.901,-240.723,48.828,58.594,0.488,7.812,0
1610554659.905,-555.176,46.875,59.082,2.930,57.617,0
1610554659.909,-119.629,33.203,39.062,6.836,57.617,0
1610554659.913,453.125,25.391,25.391,35.156,22.949,0
1610554659.930,415.039,33.691,22.461,8.301,13.672,0
1610554659.934,-153.320,58.594,52.246,-41.504,-6.836,0
1610554659.938,-573.242,62.500,76.660,-42.969,-4.395,0
1610554659.942,-203.125,39.551,48.828,0.977,12.207,0
1610554659.946,423.340,24.414,24.414,57.617,18.066,0
1610554659.950,478.516,28.809,27.344,60.059,32.227,0
1610554659.954,-60.059,47.852,45.898,3.418,8.301,0
1610554659.957,-576.172,51.270,59.082,-51.270,-13.672,0
1610554659.961,-270.996,42.480,49.805,-18.555,27.832,0
1610554659.965,384.766,35.156,21.484,52.246,92.285,0
1610554659.969,424.316,34.668,20.508,80.078,4.883,0
1610554659.973,-18.555,41.016,36.621,17.578,-37.109,0
1610554659.975,-487.305,56.152,47.852,-55.664,68.359,0
1610554659.979,-326.172,52.734,47.363,-32.715,117.676,0
1610554659.983,340.820,37.109,17.578,-4.395,83.496,0
1610554659.987,577.148,39.062,-2.441,6.836,67.383,0
1610554659.991,127.441,50.781,15.625,-17.578,56.641,0
1610554659.995,-422.852,60.547,47.852,-31.738,4.883,0
1610554659.999,-331.543,54.688,41.016,21.973,42.480,0
1610554660.002,289.062,41.992,17.090,29.297,43.945,0
1610554660.006,593.750,39.062,17.578,22.949,35.156,0
1610554660.010,208.008,43.945,23.926,30.273,-11.719,0
1610554660.014,-420.410,53.711,41.016,-9.277,-38.574,0
1610554660.018,-422.363,52.734,50.293,-22.461,-23.926,0
1610554660.020,212.891,36.621,19.043,40.527,-19.043,0
1610554660.024,578.613,34.180,5.371,70.312,13.184,0
1610554660.028,316.895,37.598,19.531,17.578,12.695,0
1610554660.032,-312.988,35.156,33.203,-47.363,-12.207,0
1610554660.036,-459.961,41.992,40.527,-46.387,-7.812,0
1610554660.040,100.098,35.645,43.457,36.621,26.367,0
1610554660.044,526.367,23.438,29.785,59.570,65.918,0
1610554660.047,309.570,36.621,26.367,6.836,56.641,0
1610554660.051,-340.820,55.664,56.152,-16.602,22.949,0
1610554660.055,-510.254,50.781,42.480,-33.691,32.715,0
1610554660.059,74.219,38.086,18.555,-3.906,37.109,0
1610554660.063,559.570,39.062,22.461,77.148,23.926,0
1610554660.065,362.305,39.062,25.879,60.547,44.922,0
1610554660.069,-269.531,36.621,31.738,-11.719,32.715,0
1610554660.073,-552.734,41.504,31.738,-43.457,-22.949,0
1610554660.077,-85.938,31.250,31.250,26.367,-22.949,0
1610554660.081,504.395,20.020,17.090,98.633,27.344,0
1610554660.085,418.457,26.367,-4.883,44.922,-0.488,0
1610554660.089,-204.102,34.180,12.207,-47.363,-8.789,0
1610554660.092,-576.660,35.645,24.902,-74.707,-2.441,0
1610554660.096,-175.293,27.344,13.184,-25.879,-26.367,0
1610554660.100,447.754,13.184,-0.488,18.555,19.531,0
1610554660.104,446.777,10.254,-6.836,19.531,29.785,0
1610554660.108,-137.207,23.926,8.789,-30.762,1.465,99
1610554660.110,-568.359,36.621,28.320,-66.406,23.926,0
1610554660.114,-248.047,28.809,20.996,-4.395,56.152,0
1610554660.118,408.203,12.207,-5.859,46.875,21.484,0
1610554660.122,496.094,15.137,-4.395,15.625,31.250,0
1610554660.126,-43.457,25.879,9.766,-36.133,37.109,0
1610554660.130,-499.512,32.715,22.949,-65.918,-14.160,0
1610554660.134,-305.176,23.438,14.648,-14.648,-18.066,0
1610554660.137,316.895,7.812,-11.230,68.848,27.344,0
1610554660.141,491.699,6.836,-19.531,70.312,13.672,0
1610554660.145,22.949,20.020,-7.812,-27.832,-20.996,0
1610554660.149,-543.945,35.645,27.344,-77.637,5.371,0
1610554660.153,-421.387,40.527,44.922,-47.363,40.527,0
1610554660.155,249.023,20.020,11.719,6.348,12.207,0
1610554660.159,539.551,11.719,4.883,53.711,-30.762,0
1610554660.163,136.719,24.414,22.461,6.348,-30.762,0
1610554660.167,-466.797,34.668,37.109,-56.152,34.180,0
1610554660.171,-442.871,30.273,30.762,-45.410,75.684,0
1610554660.175,181.152,18.555,4.883,10.742,58.105,0
1610554660.179,546.875,19.531,4.883,57.617,15.625,0
1610554660.182,235.840,28.809,12.207,43.457,-10.254,0
1610554660.186,-401.855,41.016,32.715,-27.344,-16.602,0
1610554660.190,-493.164,36.621,22.461,-59.570,-2.441,0
1610554660.194,105.469,8.789,-9.277,-4.883,71.289,0
1610554660.198,530.762,5.371,-0.488,46.875,62.012,0
1610554660.201,250.977,21.973,9.277,20.020,31.738,0
1610554660.205,-381.836,27.832,10.742,-58.594,43.945,0
1610554660.209,-523.438,31.250,12.695,-69.824,37.109,0
1610554660.213,20.020,19.531,-1.953,-10.254,9.277,0
1610554660.217,524.902,9.766,-5.371,41.016,9.277,0
1610554660.221,357.910,13.184,6.348,49.316,66.406,0
1610554660.225,-260.742,23.438,20.508,-16.602,-1.953,0
1610554660.228,-557.617,26.855,25.879,-49.316,7.324,0
1610554660.232,-88.379,15.625,14.160,8.789,-20.996,0
1610554660.236,533.203,9.766,2.930,58.105,-74.707,0
1610554660.240,428.711,17.090,4.395,30.762,33.203,0
1610554660.244,-177.734,28.809,16.113,-47.852,42.969,0
1610554660.246,-512.695,40.039,32.227,-103.516,-72.754,0
1610554660.250,-99.121,29.297,29.297,-27.832,-104.980,0
1610554660.254,485.352,14.160,6.836,62.500,-34.668,0
1610554660.258,471.191,12.207,-3.906,43.945,37.598,0
1610554660.262,-96.191,22.949,14.648,-32.715,13.184,0
1610554660.266,-550.781,22.461,22.461,-63.477,29.297,0
1610554660.270,-283.691,10.254,14.648,-14.160,63.965,0
1610554660.273,374.512,10.254,1.465,27.832,8.789,0
1610554660.277,517.090,22.949,5.859,24.414,-12.207,0
1610554660.281,-34.668,32.227,23.438,-18.066,45.410,0
1610554660.285,-549.316,35.156,23.438,-48.828,55.664,0
1610554660.289,-332.031,34.668,21.973,0.977,36.621,0
1610554660.292,315.430,20.996,10.742,81.055,45.410,0
1610554660.296,501.465,14.160,8.301,54.199,12.695,0
1610554660.300,54.199,30.762,29.297,-41.504,-2.441,0
1610554660.304,-500.977,39.551,32.227,-78.125,15.137,0
1610554660.308,-336.426,35.645,21.973,-43.457,57.617,0
1610554660.312,349.121,24.902,4.395,43.457,62.988,0
1610554660.316,597.168,10.742,7.812,79.590,40.527,0
1610554660.319,186.523,17.578,15.137,-8.789,14.160,0
1610554660.323,-421.875,36.133,22.949,-72.266,-23.438,0
1610554660.327,-406.250,37.109,30.762,-11.719,43.457,0
1610554660.331,218.750,21.484,16.602,50.781,80.566,0
1610554660.335,552.734,18.066,7.324,36.621,0.000,0
1610554660.350,197.266,32.227,10.742,14.160,-21.973,0
1610554660.354,-417.969,45.898,27.344,-24.414,31.250,0
1610554660.358,-482.910,42.969,40.527,-32.715,22.949,0
1610554660.362,114.258,30.762,31.738,33.203,30.762,0
1610554660.366,541.016,34.180,32.227,70.312,18.555,0
1610554660.370,221.680,29.785,34.668,26.855,9.766,0
1610554660.374,-439.453,22.461,27.344,-30.762,43.945,0
1610554660.377,-528.809,24.414,16.602,-60.547,61.523,0
1610554660.381,44.434,19.043,22.949,5.371,34.180,0
1610554660.385,523.926,11.230,36.133,71.777,47.363,0
1610554660.389,331.055,18.555,35.645,56.641,41.992,0
1610554660.393,-293.457,31.250,49.316,9.277,-3.906,0
1610554660.395,-519.531,38.086,55.664,-22.461,26.367,0
1610554660.399,-18.066,31.250,30.762,-9.766,27.344,0
1610554660.403,555.176,23.926,25.391,24.414,-22.949,0
1610554660.407,426.270,25.879,30.273,26.855,18.555,0
1610554660.411,-219.238,30.762,35.156,-38.574,39.551,0
1610554660.415,-526.367,44.922,56.152,-44.434,34.180,0
1610554660.419,-103.516,45.410,50.781,47.363,93.750,0
1610554660.422,464.844,20.020,23.926,98.633,35.156,0
1610554660.426,457.031,16.113,22.461,64.453,-40.039,0
1610554660.430,-120.605,35.645,45.898,-12.695,-89.355,0
1610554660.434,-539.062,45.410,65.918,-26.367,-81.543,0
1610554660.438,-183.105,41.504,65.918,47.363,32.715,0
1610554660.440,457.031,30.762,39.062,83.496,71.777,0
1610554660.444,513.672,38.574,22.461,62.500,33.203,0
1610554660.448,-38.574,50.781,31.738,7.324,-0.488,0
1610554660.452,-487.793,41.992,45.898,-44.922,-21.973,0
1610554660.456,-226.562,39.062,56.152,10.254,6.836,0
1610554660.460,406.250,27.832,44.434,94.238,40.527,0
1610554660.464,549.316,13.184,26.367,70.312,50.293,0
1610554660.467,21.484,29.297,34.668,-4.883,49.316,0
1610554660.471,-514.648,50.781,63.965,-41.992,28.320,0
1610554660.475,-325.684,45.898,69.824,-4.395,13.672,0
1610554660.479,321.289,30.273,41.016,74.707,50.781,0
1610554660.483,550.781,34.180,30.273,96.191,64.453,0
1610554660.485,139.160,42.969,40.039,22.949,49.805,0
1610554660.489,-419.922,46.875,40.039,-59.570,87.891,0
1610554660.493,-358.398,48.828,31.738,-21.973,46.875,0
1610554660.497,262.207,29.785,19.043,58.105,1.953,0
1610554660.501,570.801,13.672,14.160,83.496,23.438,0
1610554660.505,224.609,33.203,22.949,34.668,19.531,0
1610554660.509,-383.301,52.246,54.199,-43.945,-14.648,0
1610554660.512,-448.242,43.945,69.336,-38.574,-82.031,0
1610554660.516,169.434,32.715,56.152,60.059,-82.031,0
1610554660.520,604.492,25.391,32.227,90.332,-93.262,0
1610554660.524,300.293,32.715,23.926,6.836,-67.871,0
1610554660.528,-333.496,63.477,54.199,-50.293,-58.594,0
1610554660.530,-483.887,58.594,57.617,-58.594,-7.812,0
1610554660.534,116.699,24.414,23.926,-12.695,71.289,0
1610554660.538,558.594,15.625,25.391,25.879,96.191,0
1610554660.542,301.270,24.902,36.621,16.113,61.035,0
1610554660.546,-251.953,43.945,53.711,-29.297,39.062,0
1610554660.550,-501.953,54.688,68.848,-36.621,56.152,0
1610554660.554,-14.648,39.062,39.062,20.020,19.043,0
1610554660.557,527.344,26.855,23.438,60.059,-19.043,0
1610554660.561,392.578,33.203,37.109,29.785,8.301,0
1610554660.565,-261.230,41.992,42.480,-69.336,57.129,0
1610554660.569,-638.184,42.480,56.152,-127.930,24.902,0
1610554660.573,-146.973,39.062,51.270,-62.988,21.484,0
1610554660.575,436.035,23.438,22.461,13.184,5.859,0
1610554660.579,368.652,16.602,10.254,-21.973,-7.812,0
1610554660.583,-212.891,31.250,21.973,-92.285,1.465,0
1610554660.587,-640.625,21.973,17.090,-178.711,8.789,0
1610554660.591,-270.508,4.395,9.277,-200.195,28.809,0
1610554660.595,349.609,-5.859,11.230,-89.844,-50.293,0
1610554660.599,380.371,-2.930,18.555,-34.180,-84.473,0
1610554660.602,-168.945,13.672,32.227,-107.910,17.578,0
1610554660.606,-616.699,28.809,41.992,-213.867,63.965,0
1610554660.610,-316.406,21.484,31.250,-153.809,31.738,0
1610554660.614,350.098,9.277,5.371,-31.738,53.223,0
1610554660.618,514.160,10.742,-4.395,-22.461,71.777,0
1610554660.620,-22.461,15.137,14.648,-69.824,34.668,0
1610554660.624,-527.344,21.484,46.387,-109.375,-9.277,0
1610554660.628,-302.246,16.113,40.039,-65.918,31.738,0
1610554660.632,322.754,6.836,22.461,48.828,0.000,0
1610554660.636,556.641,21.484,18.555,110.352,-21.484,0
1610554660.640,111.816,31.738,31.250,60.059,13.184,0
1610554660.644,-480.957,33.203,41.016,-38.574,-0.977,0
1610554660.647,-373.047,40.527,28.809,-66.895,87.402,0
1610554660.651,286.621,24.414,7.812,15.137,80.566,0
1610554660.655,583.008,6.836,-1.953,62.012,20.996,0
1610554660.659,215.332,21.484,17.090,11.719,16.113,0
1610554660.663,-387.695,36.621,43.945,-35.156,-13.184,0
1610554660.665,-407.227,34.668,42.480,-5.859,-6.348,0
1610554660.669,220.215,25.391,27.832,82.031,-3.906,0
1610554660.673,601.074,20.996,17.578,124.023,48.340,0
1610554660.677,319.336,37.598,13.672,86.914,63.965,0
1610554660.681,-313.477,49.805,39.551,14.648,14.160,0
1610554660.685,-451.660,39.551,49.316,7.812,19.043,0
1610554660.689,136.719,24.414,36.133,102.539,-9.277,0
1610554660.692,594.238,20.508,24.414,139.648,-34.668,0
1610554660.696,368.652,27.344,10.742,68.848,-14.160,0
1610554660.700,-268.066,39.551,38.086,-27.344,-7.324,0
1610554660.704,-487.305,42.480,51.758,-49.805,-30.273,0
1610554660.708,55.176,28.809,29.785,49.316,15.625,0
1610554660.725,578.125,29.297,32.715,130.371,77.148,2
1610554660.729,442.383,45.898,49.805,98.633,-15.137,0
1610554660.733,-174.805,44.434,49.805,10.742,-99.121,0
1610554660.737,-504.883,35.645,34.180,-22.949,9.766,0
1610554660.741,-47.363,26.855,12.695,27.832,47.852,0
1610554660.745,542.969,23.926,26.855,87.891,51.270,0
1610554660.749,497.559,28.809,35.156,76.660,56.641,0
1610554660.752,-110.352,34.180,26.855,16.113,14.648,0
1610554660.756,-520.508,41.016,31.738,-27.832,34.668,0
1610554660.760,-118.164,35.645,15.137,22.461,36.133,0
1610554660.764,516.113,29.785,2.441,111.328,54.688,0
1610554660.768,531.738,34.180,23.926,104.004,28.809,0
1610554660.770,-24.902,52.246,50.781,41.992,-28.809,0
1610554660.774,-502.930,45.898,39.551,-26.367,-24.902,0
1610554660.778,-235.840,20.020,13.672,14.160,59.082,0
1610554660.782,402.344,17.090,10.742,101.074,41.016,0
1610554660.786,502.930,25.879,15.625,88.379,13.672,0
1610554660.790,-23.438,34.180,10.254,34.668,34.180,0
1610554660.794,-518.555,37.598,7.324,-29.297,-10.742,0
1610554660.797,-299.316,31.250,24.902,-16.113,-10.254,0
1610554660.801,351.562,23.926,24.414,62.988,104.980,0
1610554660.805,558.105,29.297,13.184,94.238,139.160,0
1610554660.809,119.629,32.227,19.043,29.297,28.809,0
1610554660.813,-435.547,33.203,35.156,-61.035,26.855,0
1610554660.817,-332.520,29.297,34.668,-28.809,37.109,0
1610554660.821,299.316,15.625,7.812,61.035,46.875,0
1610554660.825,594.727,13.184,-7.812,76.660,30.273,0
1610554660.829,219.238,32.715,18.066,32.227,-46.875,0
1610554660.833,-350.586,50.781,37.109,-31.250,-2.441,0
1610554660.837,-345.703,33.203,27.832,-29.297,13.184,0
1610554660.841,245.117,22.949,21.484,58.105,-37.109,0
1610554660.844,612.305,31.738,14.648,89.844,-29.785,0
1610554660.848,281.738,33.691,23.926,44.922,8.789,0
1610554660.852,-354.980,35.645,41.504,-21.484,35.156,0
1610554660.856,-438.965,34.668,34.668,-48.340,25.879,0
1610554660.860,145.020,26.367,-1.465,13.184,39.062,0
1610554660.860,564.453,19.531,-1.465,84.961,23.438,0
1610554660.864,319.824,32.227,38.086,65.918,9.766,0
1610554660.868,-297.363,50.293,50.781,-2.441,37.598,0
1610554660.872,-468.750,55.664,63.477,-24.414,14.160,0
1610554660.876,55.664,43.457,46.387,25.879,-25.391,0
1610554660.880,512.695,25.391,15.625,63.965,13.672,0
1610554660.884,347.168,25.879,12.207,34.180,23.926,0
1610554660.887,-236.816,34.668,38.086,-48.340,50.781,0
1610554660.891,-518.555,41.504,54.688,-55.176,86.426,0
1610554660.895,-60.059,36.621,37.109,20.508,53.223,0
1610554660.899,483.887,28.320,16.602,84.473,56.152,0
1610554660.903,404.297,33.203,20.996,80.078,83.984,0
1610554660.905,-161.621,47.852,39.062,-23.926,27.832,0
1610554660.909,-526.367,50.781,47.363,-70.801,1.953,0
1610554660.913,-133.789,39.062,52.246,21.484,69.336,0
1610554660.917,468.262,24.414,28.809,75.195,27.344,0
1610554660.921,445.312,17.090,9.277,38.574,-21.973,0
1610554660.925,-95.703,25.391,16.113,-37.598,9.277,0
1610554660.929,-506.348,34.668,35.645,-77.637,27.344,0
1610554660.932,-233.887,31.250,37.109,-12.695,-32.715,0
1610554660.936,417.969,33.203,25.879,72.754,-15.137,0
1610554660.940,518.066,32.227,32.715,88.867,50.781,0
1610554660.944,-6.348,27.832,37.109,0.977,86.426,0
1610554660.948,-478.027,37.598,49.316,-69.336,40.527,0
1610554660.950,-251.465,46.875,51.758,-19.043,10.254,0
1610554660.954,311.035,24.414,6.836,56.641,-17.578,0
1610554660.958,509.766,20.020,-6.348,77.637,-58.105,0
1610554660.962,92.773,38.086,29.297,18.555,-4.883,0
1610554660.966,-469.727,45.898,47.852,-46.387,11.719,0
1610554660.970,-359.863,44.922,33.691,-12.695,1.953,0
1610554660.974,273.926,32.715,20.020,75.684,40.527,0
1610554660.977,548.340,29.297,33.691,104.980,32.715,0
1610554660.981,143.066,40.527,49.316,32.227,-7.812,0
1610554660.985,-413.574,48.340,57.617,-62.012,2.930,0
1610554660.989,-359.375,45.410,48.340,-57.129,-17.578,0
1610554660.993,214.355,29.785,16.602,17.578,-42.969,0
1610554660.997,511.719,29.785,14.160,83.496,-15.137,0
1610554661.001,244.141,42.480,27.832,44.434,47.852,0
1610554661.005,-332.031,43.945,35.645,-70.801,33.691,0
1610554661.009,-430.664,33.203,47.852,-67.871,-10.254,0
1610554661.013,141.602,22.461,15.137,45.898,13.672,0
1610554661.017,522.461,23.438,0.977,92.285,37.598,0
1610554661.021,249.512,36.133,46.387,61.035,34.180,0
1610554661.024,-326.172,50.293,51.758,-31.250,40.039,0
1610554661.028,-468.750,40.527,32.715,-70.312,25.391,0
1610554661.032,48.340,26.367,31.738,26.367,23.438,0
1610554661.036,492.676,21.484,18.555,85.938,-16.602,0
1610554661.040,320.801,28.809,19.043,27.344,-16.602,0
1610554661.057,-222.168,50.781,49.805,-41.016,39.551,0
1610554661.061,-484.375,44.922,56.641,-50.293,77.148,0
1610554661.065,-31.250,25.391,20.508,21.484,42.969,0
1610554661.069,487.793,22.461,0.000,84.961,50.293,0
1610554661.073,390.137,25.879,15.137,64.941,90.332,0
1610554661.077,-164.062,36.621,33.203,-27.832,26.367,0
1610554661.081,-480.469,43.457,46.387,-74.707,-36.621,0
1610554661.084,-89.355,30.762,42.480,-9.277,17.090,0
1610554661.088,479.492,14.648,19.531,52.246,41.016,0
1610554661.092,467.773,19.043,22.949,51.270,39.551,0
1610554661.096,-113.770,38.574,51.758,6.836,50.293,0
1610554661.100,-497.559,49.316,53.223,-48.828,42.969,0
1610554661.100,-141.113,38.086,26.855,14.160,29.785,0
1610554661.104,430.664,26.855,0.977,98.145,-11.719,0
1610554661.108,496.582,28.809,15.625,73.730,-16.113,0
1610554661.112,10.742,45.410,35.156,-5.371,-40.527,0
1610554661.116,-446.289,48.340,35.156,-90.332,25.879,0
1610554661.120,-232.910,39.062,36.133,-35.645,61.035,0
1610554661.124,365.723,28.320,14.648,57.129,23.926,0
1610554661.127,537.109,25.391,11.719,79.102,41.992,0
1610554661.131,98.145,38.574,29.297,18.555,25.391,0
1610554661.135,-400.879,57.129,45.410,-51.758,34.180,0
1610554661.139,-261.230,46.875,46.387,-6.836,64.453,0
1610554661.143,280.273,25.879,21.484,79.102,95.703,0
1610554661.145,514.160,28.320,10.742,83.008,66.895,0
1610554661.149,160.645,41.992,16.113,26.855,20.020,0
1610554661.153,-367.676,53.223,30.762,-35.156,-16.602,0
1610554661.157,-368.652,52.246,36.133,-17.090,-3.906,0
1610554661.161,201.660,47.363,14.160,80.566,51.758,0
1610554661.165,568.848,36.621,-9.766,89.844,50.293,0
1610554661.169,257.324,35.645,-0.977,14.160,22.949,0
1610554661.172,-304.688,49.316,26.855,-43.457,-10.742,0
1610554661.176,-362.305,50.781,35.645,-39.551,11.230,0
1610554661.180,197.754,51.758,25.879,41.504,105.469,0
1610554661.184,578.613,46.387,19.043,92.285,65.430,0
1610554661.188,303.223,37.598,27.344,42.480,41.992,0
1610554661.190,-269.531,50.781,49.805,-16.113,63.477,0
1610554661.194,-405.273,50.781,52.734,-0.488,26.855,0
1610554661.198,105.469,38.574,23.926,39.062,52.246,0
1610554661.202,532.227,28.809,15.625,62.500,42.969,0
1610554661.206,340.820,25.391,20.996,22.949,29.297,0
1610554661.210,-224.609,52.246,33.203,-56.152,-9.277,0
1610554661.214,-455.566,58.594,34.668,-58.105,2.441,0
1610554661.217,8.789,34.668,28.809,21.973,36.621,0
1610554661.221,499.023,34.180,35.156,83.984,23.438,0
1610554661.225,398.926,34.180,27.832,41.504,20.020,0
1610554661.229,-143.555,41.504,31.738,-33.203,-5.859,0
1610554661.233,-488.770,51.270,45.898,-46.387,48.340,0
1610554661.235,-79.102,40.039,49.805,17.578,10.254,0
1610554661.239,481.445,26.367,35.156,76.172,-21.973,0
1610554661.243,429.199,25.879,19.043,49.316,42.480,0
1610554661.247,-126.953,38.086,26.855,-21.484,12.695,0
1610554661.251,-497.070,50.293,37.598,-55.176,33.691,0
1610554661.255,-149.414,48.828,29.297,-17.578,-28.809,0
1610554661.259,397.949,31.250,19.531,58.105,-39.062,0
1610554661.262,450.684,26.855,33.203,64.453,14.648,0
1610554661.266,-29.785,49.316,57.129,13.184,-51.270,0
1610554661.270,-459.961,56.641,64.941,-67.383,-3.906,0
1610554661.274,-241.211,41.016,44.922,-34.180,32.227,0
1610554661.278,327.148,23.438,18.066,74.707,11.230,0
1610554661.298,482.910,21.973,15.137,64.941,23.926,0
1610554661.302,40.527,34.668,31.738,-18.066,24.902,0
1610554661.306,-434.082,44.434,41.992,-68.848,41.504,0
1610554661.310,-272.949,42.480,35.645,-25.879,19.043,0
1610554661.314,310.547,34.668,26.855,64.453,-19.531,0
1610554661.318,527.832,36.621,4.395,72.266,26.855,0
1610554661.322,131.836,41.992,30.273,-13.184,51.270,0
1610554661.325,-384.766,49.316,71.289,-74.707,33.691,0
1610554661.329,-320.312,41.992,57.617,-24.902,-31.250,0
1610554661.333,225.098,19.043,14.648,61.523,-33.203,0
1610554661.337,480.469,10.254,1.465,76.660,28.809,0
1610554661.341,169.922,19.043,23.438,12.207,-39.551,0
1610554661.326,-391.602,34.180,31.738,-66.406,-54.199,0
1610554661.330,-400.879,41.504,32.227,-48.340,-29.297,0
1610554661.334,192.871,33.203,32.227,47.852,-20.996,0
1610554661.338,548.828,25.879,23.438,101.074,-25.391,0
1610554661.342,279.297,38.574,30.273,57.129,-30.762,0
1610554661.346,-284.668,57.129,41.992,-33.203,19.531,0
1610554661.350,-403.809,55.176,48.828,-53.711,40.039,0
1610554661.353,119.141,44.922,41.016,40.039,34.180,0
1610554661.357,524.414,33.691,14.648,115.234,44.434,0
1610554661.361,315.430,28.809,5.371,83.496,37.598,0
1610554661.365,-248.535,38.086,23.926,-25.391,45.898,0
1610554661.369,-440.918,47.852,40.039,-86.426,68.848,0
1610554661.370,31.738,44.434,26.855,2.441,80.566,0
1610554661.374,489.746,27.832,13.672,87.402,12.695,0
1610554661.378,381.836,26.855,25.879,80.078,-16.602,0
1610554661.382,-142.090,48.340,46.387,-9.277,46.875,0
1610554661.386,-427.246,54.688,53.223,-61.035,49.316,0
1610554661.390,-30.273,31.738,30.762,6.348,62.012,0
1610554661.394,477.539,23.438,13.184,65.430,19.043,0
1610554661.397,408.691,28.320,18.555,47.852,14.648,0
1610554661.401,-105.957,37.109,20.996,-10.254,21.973,0
1610554661.405,-462.891,49.316,29.785,-12.207,-9.277,0
1610554661.409,-141.113,42.480,47.363,50.293,24.414,0
1610554661.413,424.316,27.832,33.691,75.684,1.953,0
1610554661.415,463.379,21.973,21.973,60.547,18.066,0
1610554661.419,-28.320,40.039,37.598,9.766,33.691,0
1610554661.423,-428.711,55.664,51.758,-56.152,3.906,0
1610554661.427,-181.641,44.922,39.551,-18.066,8.789,0
1610554661.431,367.676,25.391,15.625,85.449,20.508,0
1610554661.435,515.625,32.227,29.297,118.164,36.621,0
1610554661.439,78.125,52.734,47.363,50.781,31.738,0
1610554661.442,-403.320,54.688,45.410,-41.016,21.484,0
1610554661.446,-212.891,49.316,24.902,-26.855,16.602,0
1610554661.450,342.773,32.227,10.254,39.551,49.316,0
1610554661.454,506.836,23.438,12.207,62.012,51.270,0
1610554661.458,121.094,42.480,23.438,9.766,-37.598,0
1610554661.462,-399.902,54.199,55.664,-50.781,-14.160,0
1610554661.466,-312.988,44.922,68.848,-8.789,23.438,0
1610554661.470,244.141,32.715,44.922,76.660,-18.066,0
1610554661.474,513.184,38.574,23.438,109.863,-9.277,0
1610554661.478,187.500,58.105,40.527,43.945,58.105,0
1610554661.482,-359.375,66.895,70.312,-42.969,36.133,0
1610554661.486,-367.188,49.316,57.129,-41.016,9.277,0
1610554661.489,175.781,30.273,22.461,42.969,69.824,0
1610554661.493,524.902,25.879,14.648,91.797,89.355,0
1610554661.497,264.648,35.645,20.020,58.105,45.410,0
1610554661.501,-285.645,50.781,38.574,-24.414,22.461,0
1610554661.505,-388.672,51.758,40.527,-17.090,49.316,0
1610554661.520,120.605,40.039,31.250,55.176,33.691,0
1610554661.524,533.203,31.250,24.414,91.309,2.930,0
1610554661.528,340.820,42.480,40.527,77.148,9.766,0
1610554661.532,-232.910,54.199,60.547,-30.273,53.711,0
1610554661.536,-434.570,49.805,52.734,-60.059,27.344,0
1610554661.540,45.410,41.992,39.551,28.320,25.391,0
1610554661.544,497.070,28.320,25.391,89.844,54.688,0
1610554661.547,328.613,23.438,14.648,51.270,72.754,0
1610554661.551,-199.707,42.969,32.227,-25.879,84.473,0
1610554661.555,-473.145,49.805,56.152,-50.781,74.707,0
1610554661.559,-79.590,39.062,38.086,21.973,18.066,0
1610554661.563,479.980,32.715,12.207,91.309,-6.348,0
1610554661.565,422.363,32.227,12.207,74.707,14.648,0
1610554661.569,-105.957,50.781,36.133,5.371,26.855,0
1610554661.573,-435.059,59.570,49.316,-62.012,-17.578,0
1610554661.577,-99.609,41.504,43.945,3.418,-32.715,0
1610554661.581,436.523,25.391,35.156,114.746,29.785,0
1610554661.585,447.266,20.508,25.879,81.055,52.246,0
1610554661.589,-50.781,31.738,34.180,-26.367,24.902,0
1610554661.592,-444.336,46.875,49.316,-65.430,23.438,0
1610554661.596,-190.918,37.109,35.156,-7.812,59.570,0
1610554661.600,373.047,23.926,3.418,56.641,99.609,0
1610554661.604,488.770,24.902,5.371,68.848,78.125,0
1610554661.608,17.578,38.086,35.156,36.621,44.434,0
1610554661.610,-437.988,54.688,56.641,-57.129,44.434,0
1610554661.614,-215.332,48.828,37.598,-50.293,14.648,0
1610554661.618,348.145,32.227,0.977,69.336,18.555,0
1610554661.622,504.395,29.785,6.836,104.004,75.684,0
1610554661.626,96.191,40.527,38.574,26.855,45.410,0
1610554661.630,-422.363,39.062,61.523,-67.383,8.301,0
1610554661.634,-344.727,32.227,55.176,-6.836,25.879,0
1610554661.637,224.121,25.879,35.156,69.824,21.484,0
1610554661.641,496.094,23.926,20.508,45.898,24.414,0
1610554661.645,161.621,31.250,23.926,11.230,56.152,0
1610554661.649,-358.887,50.781,51.270,-30.273,47.852,0
1610554661.653,-339.355,59.570,67.383,1.465,-20.996,0
1610554661.655,195.801,34.668,39.062,87.891,-31.738,0
1610554661.659,507.324,25.879,15.137,134.277,-10.254,0
1610554661.663,256.348,39.551,31.250,52.246,6.348,0
1610554661.667,-285.156,48.828,53.223,-53.711,25.879,0
1610554661.671,-371.094,55.176,55.664,-26.855,21.973,0
1610554661.675,152.832,41.016,41.016,40.039,41.016,0
1610554661.679,530.762,23.438,7.324,60.059,71.289,0
1610554661.682,319.336,30.762,2.441,36.621,46.387,0
1610554661.686,-245.605,56.641,45.410,-39.551,42.969,0
1610554661.690,-449.219,52.734,50.293,-48.828,7.812,0
1610554661.694,61.523,32.227,45.410,63.965,-5.859,0
1610554661.698,522.461,34.668,38.574,98.633,20.996,0
1610554661.700,360.352,40.039,24.902,36.133,24.414,0
1610554661.704,-178.223,44.922,48.828,-39.551,59.570,0
1610554661.708,-424.805,54.199,67.383,-70.801,59.570,0
1610554661.712,0.000,52.734,50.781,14.648,18.555,0
1610554661.716,472.656,32.715,18.066,96.680,-3.906,0
1610554661.720,383.789,38.574,16.602,103.516,50.293,0
1610554661.724,-128.418,58.105,47.852,43.945,68.359,0
1610554661.727,-452.148,58.105,63.477,-50.293,0.000,0
1610554661.731,-90.332,41.016,39.062,-13.184,-59.570,0
1610554661.735,440.918,32.715,23.438,107.422,-63.965,0
1610554661.739,416.504,41.504,37.598,89.355,19.531,0
1610554661.743,-70.312,47.852,46.875,-12.207,109.863,0
1610554661.746,-432.129,49.805,52.734,-28.320,-0.488,0
1610554661.750,-145.508,40.039,47.363,-2.930,-82.031,0
1610554661.754,394.043,37.109,39.551,69.336,17.578,0
1610554661.758,474.609,45.410,43.945,123.047,26.367,0
1610554661.762,28.320,54.199,44.434,31.738,15.625,0
1610554661.766,-406.738,62.500,61.035,-34.180,22.949,0
1610554661.770,-203.125,55.176,64.941,11.230,20.996,0
1610554661.773,342.773,27.344,25.879,74.219,42.480,0
1610554661.777,499.512,26.855,16.602,80.078,42.969,0
1610554661.781,92.773,48.828,46.875,4.395,61.523,0
1610554661.785,-404.785,51.270,59.082,-53.223,70.312,0
1610554661.789,-294.434,42.480,42.969,-11.230,25.879,0
1610554661.790,286.621,32.227,27.344,66.895,3.906,0
1610554661.794,487.305,30.273,38.086,77.637,8.789,0
1610554661.798,136.230,43.457,60.547,42.480,-19.531,0
1610554661.802,-349.609,58.594,68.359,-5.371,-28.320,0
1610554661.806,-327.148,60.059,61.523,-10.254,18.066,0
1610554661.810,214.844,43.457,48.828,36.133,-0.488,0
1610554661.814,503.906,25.391,33.203,68.359,23.438,0
1610554661.817,235.840,34.668,42.480,37.109,20.020,0
1610554661.821,-337.402,46.875,60.059,-21.973,-17.090,0
1610554661.825,-435.059,40.039,54.199,-24.902,8.789,0
1610554661.829,152.344,28.320,46.387,45.898,4.883,0
1610554661.833,532.715,26.367,41.504,88.867,13.184,0
1610554661.850,291.504,35.645,38.574,47.852,-2.930,0
1610554661.854,-253.906,48.340,50.781,-24.902,-29.297,0
1610554661.858,-381.348,52.246,61.523,-29.297,-5.371,0
1610554661.862,105.957,41.504,46.875,51.270,49.316,0
1610554661.866,512.695,30.273,30.762,95.215,65.430,0
1610554661.870,368.652,48.828,39.551,49.805,69.336,0
1610554661.874,-152.832,67.871,52.734,-6.348,68.848,0
1610554661.877,-402.344,50.781,41.992,-20.508,37.598,0
1610554661.881,14.160,27.344,24.902,31.738,50.293,0
1610554661.885,475.586,21.973,24.902,105.957,66.406,0
1610554661.889,377.930,32.227,36.621,96.680,34.180,0
1610554661.893,-124.512,41.504,47.852,-8.301,20.020,0
1610554661.896,-411.621,47.363,60.059,-49.805,17.090,0
1610554661.900,-44.922,43.945,45.898,53.223,20.508,0
1610554661.904,412.109,35.156,20.508,129.395,28.320,0
1610554661.908,397.461,36.621,28.809,108.887,9.766,0
1610554661.912,4.395,45.898,50.293,20.508,8.789,0
1610554661.916,-434.082,42.969,58.594,-53.223,41.504,0
1610554661.920,-174.316,31.250,51.758,-24.414,87.891,0
1610554661.923,434.570,28.320,40.527,62.012,89.844,0
1610554661.927,502.930,24.902,39.551,85.449,-4.395,0
1610554661.931,55.664,25.391,35.156,-13.672,8.789,0
1610554661.935,-371.094,22.461,27.344,-83.008,54.688,0
1610554661.939,-162.109,23.926,38.086,-33.691,49.805,0
1610554661.940,366.699,19.043,38.086,62.500,43.945,0
1610554661.944,492.188,10.742,25.391,100.098,-15.137,0
1610554661.948,122.559,30.273,31.250,73.730,42.480,0
1610554661.952,-360.352,42.480,46.387,1.953,58.105,0
1610554661.956,-237.305,36.621,54.688,-7.812,90.820,0
1610554661.960,284.668,28.809,33.691,53.223,71.289,0
1610554661.964,448.730,29.297,17.578,65.430,-78.125,0
1610554661.967,160.156,41.504,31.250,32.715,-6.836,0
1610554661.971,-320.312,42.969,54.199,-13.184,57.129,0
1610554661.975,-306.152,34.180,51.758,-17.578,40.527,0
1610554661.979,236.328,26.367,41.504,31.738,65.918,0
1610554661.983,497.070,22.949,38.086,65.918,41.992,0
1610554661.985,206.055,29.785,40.039,24.902,20.020,0
1610554661.989,-293.945,35.156,48.340,-32.715,48.828,0
1610554661.993,-331.055,34.668,41.504,-21.973,30.762,0
1610554661.997,161.133,33.203,27.344,49.316,44.434,0
1610554662.001,471.191,31.738,22.461,64.941,50.293,0
1610554662.005,242.188,36.621,27.832,40.527,10.742,0
1610554662.009,-263.184,45.410,51.270,5.859,-22.949,0
1610554662.012,-389.648,52.246,57.129,3.418,-4.883,0
1610554662.016,43.457,41.504,31.250,45.410,-9.277,0
1610554662.020,413.086,26.367,25.879,83.496,-43.945,0
1610554662.024,262.207,35.156,44.434,47.363,19.043,0
1610554662.028,-258.301,46.875,51.270,-35.645,104.004,0
1610554662.030,-462.891,45.410,42.480,-49.805,14.160,0
1610554662.034,-34.180,36.621,36.133,18.066,-62.012,0
1610554662.038,417.969,33.691,38.086,74.707,-9.277,0
1610554662.042,289.551,41.992,32.227,32.227,19.531,0
1610554662.046,-270.508,41.992,32.715,-43.945,26.367,0
1610554662.050,-497.070,43.945,45.898,-50.293,4.883,0
1610554662.054,-82.520,34.668,32.715,5.859,60.059,0
1610554662.057,366.699,22.461,19.043,53.223,80.078,0
1610554662.061,324.707,27.344,23.438,57.617,29.785,0
1610554662.065,-139.160,34.668,28.320,-16.602,18.555,0
1610554662.069,-483.398,39.551,36.621,-83.008,54.199,0
1610554662.073,-200.684,31.738,31.250,-68.359,56.641,0
1610554662.075,300.293,26.367,25.391,-15.137,-2.441,0
1610554662.079,315.430,28.320,23.438,-20.020,5.371,0
1610554662.083,-125.488,33.203,25.879,-83.008,36.621,0
1610554662.087,-520.020,37.109,34.180,-118.164,13.672,0
1610554662.091,-338.379,34.668,34.180,-115.723,25.879,0
1610554662.095,208.984,29.297,34.668,-74.707,50.293,0
1610554662.099,288.574,36.621,34.180,-52.734,16.113,0
1610554662.102,-150.391,40.527,28.809,-111.328,-41.016,0
1610554662.106,-519.531,39.551,35.156,-172.852,-30.273,0
1610554662.110,-421.387,39.062,42.969,-135.742,20.508,0
1610554662.114,96.680,27.832,39.062,-51.270,40.039,0
1610554662.118,328.613,21.973,28.320,-41.992,-5.859,0
1610554662.121,-24.414,24.902,32.715,-73.242,-9.766,0
1610554662.125,-477.539,32.715,55.664,-82.031,-20.996,0
1610554662.129,-417.969,37.109,57.129,-68.359,-55.176,0
1610554662.133,99.609,28.809,40.527,-34.668,13.672,0
1610554662.137,362.793,29.297,39.062,-3.418,-5.859,0
1610554662.141,85.449,39.062,47.852,-20.020,-31.250,0
1610554662.145,-379.395,47.852,57.617,-65.430,-28.320,0
1610554662.148,-365.234,53.223,55.664,-42.969,26.367,0
1610554662.152,133.789,46.387,46.387,54.688,51.758,0
1610554662.156,423.828,30.762,38.086,75.684,-2.441,0
1610554662.160,232.422,30.762,38.086,14.648,4.883,0
1610554662.164,-248.047,40.527,50.781,-14.160,-26.367,0
1610554662.166,-411.621,42.480,55.664,-0.977,-5.371,0
1610554662.170,65.918,31.738,43.457,40.039,9.277,0
1610554662.174,502.930,22.949,36.133,56.152,22.461,0
1610554662.178,317.871,27.832,31.250,31.738,27.344,0
1610554662.182,-196.777,39.062,30.273,-24.414,19.043,0
1610554662.186,-372.070,42.969,53.711,-30.273,34.668,0
1610554662.190,43.945,39.551,59.570,31.738,45.410,0
1610554662.193,446.777,31.250,40.527,51.758,55.664,0
1610554662.197,313.965,30.273,34.180,33.691,63.477,0
1610554662.201,-174.316,41.504,44.434,-14.648,49.316,0
1610554662.205,-394.531,45.410,59.570,-30.762,7.324,0
1610554662.209,-28.320,39.551,52.734,49.805,27.832,0
1610554662.212,417.969,27.344,29.297,104.004,28.809,0
1610554662.216,378.906,27.344,29.297,62.988,12.695,0
1610554662.220,-50.293,38.574,48.828,-3.906,53.711,0
1610554662.224,-373.535,45.898,60.059,-45.898,110.352,0
1610554662.228,-80.566,35.156,50.781,-9.766,61.523,0
1610554662.232,429.688,23.438,34.668,43.457,9.277,0
1610554662.236,423.340,30.273,27.344,26.855,12.695,0
1610554662.239,20.996,37.598,33.691,-30.273,35.156,0
1610554662.243,-303.223,39.551,44.922,-57.617,93.750,0
1610554662.247,-152.344,32.715,38.574,-23.438,64.941,0
1610554662.251,351.562,21.973,18.555,1.465,47.852,0
1610554662.255,483.887,21.484,15.625,-1.465,36.133,0
1610554662.272,41.504,30.762,29.785,-27.832,-13.184,0
1610554662.276,-407.715,35.645,36.133,-83.496,10.742,0
1610554662.280,-223.633,30.273,30.762,-60.059,29.785,0
1610554662.284,302.246,21.973,22.461,31.250,6.348,0
1610554662.288,424.316,20.508,21.973,45.410,15.137,0
1610554662.292,65.430,33.203,30.273,-23.926,44.434,0
1610554662.296,-370.605,43.945,41.504,-82.520,12.207,0
1610554662.299,-289.551,40.039,44.434,-45.898,-53.223,0
1610554662.303,181.641,27.344,22.461,20.020,4.883,0
1610554662.307,378.906,31.250,21.973,43.457,5.859,0
1610554662.311,142.578,46.875,46.387,19.531,57.617,0
1610554662.315,-273.926,44.434,48.340,-25.879,108.398,0
1610554662.316,-265.137,33.691,31.738,0.488,51.270,0
1610554662.320,198.730,22.461,25.391,73.730,15.625,0
1610554662.324,515.625,19.531,32.715,104.492,-4.395,0
1610554662.328,311.035,26.855,38.574,79.590,-24.902,0
1610554662.332,-148.438,37.598,42.480,42.480,-6.836,0
1610554662.336,-200.195,42.480,43.457,44.922,-5.371,0
1610554662.340,262.207,35.156,31.250,109.375,29.785,0
1610554662.343,611.816,32.227,14.648,149.902,88.867,0
1610554662.347,426.270,35.156,20.996,104.492,80.078,0
1610554662.351,-60.059,41.504,46.875,45.898,61.523,0
1610554662.355,-199.707,51.270,45.410,63.965,21.973,0
1610554662.359,199.219,43.457,25.391,134.277,36.621,0
1610554662.360,551.270,25.391,24.902,148.438,47.852,0
1610554662.364,402.832,27.832,27.344,119.629,57.617,0
1610554662.368,-71.777,44.434,35.645,80.078,30.762,0
1610554662.372,-354.980,51.758,53.223,57.617,-3.418,0
1610554662.376,9.766,35.645,31.738,92.773,27.344,0
1610554662.380,450.195,24.414,13.672,143.555,25.391,0
1610554662.384,333.008,34.668,21.484,144.043,20.996,0
1610554662.387,-101.074,48.340,30.762,100.098,-0.977,0
1610554662.391,-414.551,47.363,37.109,61.523,25.879,0
1610554662.395,-72.266,36.621,31.250,80.566,70.312,0
1610554662.399,433.105,31.250,26.367,112.305,81.055,0
1610554662.403,438.965,40.039,25.391,96.680,104.980,0
1610554662.405,3.906,47.852,20.508,60.547,28.809,0
1610554662.409,-351.074,42.480,20.020,10.254,13.672,0
1610554662.413,-96.680,34.180,28.809,42.969,25.879,0
1610554662.417,406.250,26.367,34.180,106.445,-32.715,0
1610554662.421,483.398,22.461,24.414,99.609,10.254,0
1610554662.425,109.375,29.785,24.414,54.199,95.215,0
1610554662.429,-269.043,39.062,20.508,9.277,40.527,0
1610554662.432,-95.703,39.062,30.762,48.340,-15.625,0
1610554662.436,414.062,31.738,29.785,121.582,70.312,0
1610554662.440,495.605,25.879,7.324,108.887,110.840,0
1610554662.444,126.465,29.297,28.320,58.105,73.242,0
1610554662.448,-219.727,45.898,59.570,29.785,41.504,0
1610554662.452,-129.395,44.434,48.828,52.246,-9.766,0
1610554662.456,332.031,21.973,20.508,103.516,-11.230,0
1610554662.460,528.320,16.602,-2.930,116.699,43.945,0
1610554662.464,184.570,24.902,-4.395,81.543,17.578,0
1610554662.468,-286.621,34.180,25.879,29.785,-23.438,0
1610554662.472,-254.883,34.180,40.527,27.344,5.371,0
1610554662.476,201.172,29.785,26.367,70.801,42.969,0
1610554662.479,439.453,32.227,18.066,109.863,76.172,0
1610554662.483,195.801,36.621,11.719,74.707,83.496,0
1610554662.487,-265.137,39.551,18.066,15.625,30.762,0
1610554662.491,-320.312,53.711,40.527,30.273,20.508,0
1610554662.495,115.723,46.875,37.598,70.801,60.059,0
1610554662.497,401.855,19.531,17.578,63.965,69.336,0
1610554662.501,206.543,21.973,13.184,36.133,66.895,0
1610554662.505,-249.023,39.551,23.438,-3.906,53.711,0
1610554662.509,-365.234,41.992,20.508,-9.766,73.730,0
1610554662.513,80.078,26.367,3.906,26.855,84.473,0
1610554662.517,444.336,20.996,0.488,61.523,65.430,0
1610554662.521,293.457,28.809,11.719,38.086,28.809,0
1610554662.524,-157.715,41.992,33.203,-14.648,24.902,0
1610554662.528,-352.051,42.480,41.504,-38.574,58.105,0
1610554662.532,-21.484,36.621,23.438,8.789,27.832,0
1610554662.536,324.707,32.715,23.438,59.082,64.453,0
1610554662.540,250.000,40.527,35.645,41.992,102.051,0
1610554662.541,-184.082,48.340,32.227,-10.254,29.297,0
1610554662.545,-443.359,43.945,29.785,-26.367,18.555,0
1610554662.549,-166.992,34.668,18.555,15.137,44.922,0
1610554662.553,239.258,25.879,-1.953,52.246,83.496,0
1610554662.557,249.023,31.250,10.254,52.246,92.285,0
1610554662.561,-140.625,43.945,18.555,1.953,54.688,0
1610554662.565,-444.336,51.270,30.273,-27.832,2.441,0
1610554662.568,-196.289,48.828,38.086,4.883,17.578,0
1610554662.572,256.348,37.109,10.254,39.062,49.316,0
1610554662.576,267.578,37.598,11.719,35.156,9.277,0
1610554662.580,-62.500,47.363,33.691,3.906,-6.836,0
1610554662.584,-305.664,47.852,35.645,-17.578,-4.883,0
1610554662.617,-128.906,41.504,40.039,10.742,8.301,0
1610554662.621,274.414,37.109,30.273,44.434,50.781,0
1610554662.625,352.051,44.922,25.879,52.734,60.059,0
1610554662.629,55.664,46.875,29.785,27.832,35.156,0
1610554662.633,-247.559,43.945,29.297,-21.973,24.414,0
1610554662.637,-163.086,43.945,26.855,-13.184,-32.715,0
1610554662.641,199.219,37.109,13.672,33.691,-20.996,0
1610554662.644,338.379,37.109,20.508,45.898,57.129,0
1610554662.648,110.352,46.387,35.645,22.461,51.758,0
1610554662.652,-231.934,58.594,34.668,-16.602,34.180,0
1610554662.656,-221.191,58.105,33.691,7.324,18.066,0
1610554662.660,155.762,45.410,25.879,41.016,54.688,0
1610554662.646,365.234,42.480,0.000,44.922,68.848,0
1610554662.650,164.062,51.758,17.578,38.086,45.410,0
1610554662.654,-193.359,54.688,54.688,-16.113,24.902,0
1610554662.658,-235.352,44.922,44.922,-34.180,-30.273,0
1610554662.662,89.355,37.109,32.715,17.578,-11.719,0
1610554662.666,358.398,41.504,27.832,46.387,51.270,0
1610554662.670,230.957,47.363,22.461,32.227,52.734,0
1610554662.673,-164.551,48.828,29.785,-0.488,9.277,0
1610554662.677,-271.484,47.363,39.551,-5.371,19.043,0
1610554662.681,59.082,42.969,42.969,25.879,14.648,0
1610554662.685,309.570,36.621,29.297,54.199,24.902,0
1610554662.689,179.199,42.969,32.227,43.945,59.082,0
1610554662.691,-174.805,48.340,44.922,-13.184,40.527,0
1610554662.695,-323.242,47.852,44.434,-20.020,0.488,0
1610554662.699,-9.766,47.363,39.551,22.949,13.184,0
1610554662.703,302.246,45.410,39.062,48.340,41.992,0
1610554662.707,230.957,39.062,30.762,34.180,58.105,0
1610554662.711,-116.211,41.016,18.555,-8.789,57.129,0
1610554662.715,-291.504,46.875,19.531,-17.090,-29.785,0
1610554662.718,-36.621,36.133,23.926,14.648,4.395,0
1610554662.722,280.273,31.738,28.809,59.082,63.965,0
1610554662.726,255.859,38.086,18.066,63.477,37.109,0
1610554662.730,-58.594,46.875,22.461,4.883,5.371,0
1610554662.734,-278.320,50.293,52.734,-26.855,-8.789,0
1610554662.737,-87.891,45.898,56.641,23.926,-16.113,0
1610554662.741,255.371,44.922,41.016,68.848,18.555,0
1610554662.745,299.805,47.852,35.156,53.711,73.242,0
1610554662.749,-26.855,47.852,38.574,21.484,55.664,0
1610554662.753,-270.020,41.992,33.691,-14.160,-26.367,0
1610554662.757,-79.590,38.086,23.926,-32.227,-28.809,0
1610554662.761,277.832,37.598,22.461,-1.953,58.594,0
1610554662.764,312.988,41.016,35.156,28.320,70.801,0
1610554662.768,37.109,42.480,37.598,-3.906,-5.859,0
1610554662.772,-203.125,45.410,32.715,-46.875,-42.969,0
1610554662.776,-116.699,40.039,23.438,-31.738,1.465,0
1610554662.780,185.547,29.785,14.648,28.320,9.277,0
1610554662.795,292.480,34.668,17.090,46.387,1.953,0
1610554662.799,97.656,46.387,28.809,9.277,23.438,0
1610554662.803,-214.844,48.828,38.574,-26.855,-6.348,0
1610554662.807,-214.844,43.457,35.645,-20.996,-51.758,0
1610554662.811,132.324,44.434,27.344,38.574,22.461,0
1610554662.815,319.824,44.434,23.926,54.199,77.637,0
1610554662.819,106.934,36.133,31.738,11.719,36.621,0
1610554662.822,-242.676,40.527,38.574,-22.949,37.109,0
1610554662.826,-247.070,51.270,41.504,-6.836,51.270,0
1610554662.830,111.328,46.875,31.250,33.691,45.410,0
1610554662.834,310.547,33.691,10.254,40.039,40.527,0
1610554662.838,110.840,31.738,14.160,19.043,40.527,0
1610554662.825,-197.266,41.016,38.574,-15.625,-21.484,0
1610554662.829,-227.539,43.457,47.363,-10.742,-10.254,0
1610554662.833,48.340,32.715,24.414,19.043,76.172,0
1610554662.837,304.688,26.855,-1.465,35.156,83.496,0
1610554662.841,178.711,35.645,12.695,34.180,46.875,0
1610554662.845,-163.574,49.805,45.898,-0.488,4.883,0
1610554662.849,-242.676,53.223,48.828,-18.066,-12.695,0
1610554662.852,0.000,41.504,35.156,20.508,0.977,0
1610554662.856,276.367,28.809,17.578,44.922,38.086,0
1610554662.860,240.723,27.832,20.020,22.461,36.621,0
1610554662.864,-69.336,43.945,43.457,-5.859,-16.113,0
1610554662.868,-242.676,51.270,49.316,-13.184,-7.812,0
1610554662.870,-24.414,43.457,40.039,18.066,19.531,0
1610554662.874,284.180,41.016,32.227,61.035,27.344,0
1610554662.878,237.305,39.551,20.020,52.734,55.664,0
1610554662.882,-55.664,42.969,20.996,7.324,1.953,0
1610554662.886,-252.930,43.945,35.645,-17.578,-29.297,0
1610554662.890,-62.012,39.551,26.855,11.719,-7.324,0
1610554662.894,262.695,36.621,22.949,48.828,-22.949,0
1610554662.897,251.465,41.016,25.391,38.574,-16.113,0
1610554662.901,-46.387,47.852,24.902,14.160,6.348,0
1610554662.905,-253.906,50.293,43.457,0.977,-5.371,0
1610554662.909,-51.758,47.363,44.922,9.766,-3.418,0
1610554662.913,288.574,40.527,33.203,30.273,32.715,0
1610554662.930,334.961,42.480,33.203,23.438,-14.160,0
1610554662.934,70.801,54.688,41.504,-6.836,-40.039,0
1610554662.938,-190.918,57.617,44.922,-14.160,5.859,0
1610554662.942,-87.402,47.852,33.203,-0.977,-6.348,0
1610554662.946,214.844,36.621,9.766,24.902,-37.109,0
1610554662.950,291.992,38.574,14.160,52.246,-10.254,0
1610554662.954,93.262,44.922,38.086,28.320,-32.227,0
1610554662.957,-207.520,45.898,46.387,-21.484,-15.625,0
1610554662.961,-172.852,46.387,33.691,-18.555,27.344,0
1610554662.965,112.793,44.922,21.484,29.785,53.223,0
1610554662.969,247.070,43.945,34.668,51.758,76.172,0
1610554662.973,68.848,43.457,43.945,12.207,76.660,0
1610554662.962,-211.426,47.852,52.246,-26.855,71.777,0
1610554662.966,-177.246,43.945,49.316,2.441,57.617,0
1610554662.970,112.793,40.039,31.738,46.875,34.180,0
1610554662.974,243.164,44.922,16.602,27.832,51.270,0
1610554662.978,111.328,50.781,18.555,-4.883,82.520,0
1610554662.982,-160.156,54.199,30.762,-12.695,24.414,0
1610554662.986,-235.840,50.293,32.715,-15.625,9.277,0
1610554662.989,-4.395,46.387,19.043,22.461,26.855,0
1610554662.993,259.277,41.992,8.301,59.082,33.203,0
1610554662.997,210.449,45.410,13.672,46.387,88.867,0
1610554663.001,-99.609,54.199,18.066,-8.301,43.945,0
1610554663.005,-203.613,49.805,19.043,-1.465,-18.066,0
1610554663.035,82.520,36.133,23.438,53.223,-21.973,0
1610554663.039,326.660,33.203,15.625,65.430,0.977,0
1610554663.043,214.844,40.527,12.695,37.598,22.949,0
1610554663.047,-113.281,43.457,26.855,4.883,23.438,0
1610554663.051,-218.262,39.062,38.574,5.371,3.418,0
1610554663.055,42.969,32.227,33.203,46.387,61.035,0
1610554663.059,323.730,31.250,25.391,72.754,77.148,0
1610554663.062,299.316,38.086,33.691,75.195,12.207,0
1610554663.066,-19.531,41.016,40.039,47.852,-11.230,0
1610554663.070,-229.980,39.551,35.156,2.930,36.133,0
1610554663.074,-2.930,35.645,31.250,33.203,70.312,0
1610554663.078,280.762,31.250,19.531,99.121,36.133,0
1610554663.065,214.844,36.621,20.996,102.539,11.719,0
1610554663.069,-7.812,37.598,36.621,54.688,-9.277,0
1610554663.073,-138.672,41.016,41.016,25.391,22.949,0
1610554663.077,-33.203,41.016,35.156,34.668,34.180,0
1610554663.081,265.625,38.086,28.320,75.195,10.254,0
1610554663.085,366.211,42.969,27.344,74.219,-13.672,0
1610554663.089,117.188,47.852,33.203,48.828,30.273,0
1610554663.092,-186.523,52.734,41.504,36.621,85.449,0
1610554663.096,-67.383,56.152,41.992,50.781,-11.230,0
1610554663.100,301.758,45.898,36.133,114.258,-83.008,0
1610554663.104,396.973,42.969,30.273,129.883,-60.547,0
1610554663.108,173.340,50.781,31.738,73.242,-5.859,0
1610554663.110,-135.742,58.594,39.551,39.551,22.949,0
1610554663.114,-68.848,57.617,38.086,62.988,4.883,0
1610554663.118,301.270,46.387,29.785,96.680,-5.859,0
1610554663.122,441.895,41.504,32.227,97.656,37.109,0
1610554663.126,206.543,44.434,38.574,87.891,57.617,0
1610554663.130,-125.488,48.340,45.410,46.875,14.160,0
1610554663.134,-93.262,50.293,47.363,40.527,14.160,0
1610554663.137,207.520,47.852,39.062,81.543,23.438,0
1610554663.141,312.012,44.922,27.344,88.379,34.668,0
1610554663.145,165.527,50.781,39.551,61.035,32.715,0
1610554663.149,-100.586,61.035,63.477,24.414,-27.344,0
1610554663.153,-123.047,54.688,55.176,14.648,-1.953,0
1610554663.155,173.340,40.527,41.016,51.758,-24.902,0
1610554663.159,365.723,32.715,33.203,72.266,4.395,0
1610554663.163,243.164,36.133,37.109,58.105,27.344,0
1610554663.167,-96.680,43.945,44.434,17.090,-38.574,0
1610554663.171,-181.641,46.387,33.691,-11.719,-36.133,0
1610554663.175,94.238,41.504,32.715,25.879,13.184,0
1610554663.179,277.344,34.668,34.180,49.316,65.918,0
1610554663.182,201.172,38.574,36.133,30.273,66.406,0
1610554663.186,-86.914,45.898,51.270,-32.227,-2.930,0
1610554663.190,-320.801,43.457,54.199,-49.805,-14.648,0
1610554663.194,-32.227,37.109,47.852,19.531,41.016,0
1610554663.198,340.820,34.180,49.805,44.922,84.961,0
1610554663.202,278.320,47.852,62.012,36.621,72.266,0
1610554663.206,-32.227,50.781,57.129,1.465,4.883,0
1610554663.210,-241.699,40.527,57.129,-25.391,1.953,0
1610554663.214,-42.480,34.668,65.918,6.348,-5.859,0
1610554663.218,284.180,31.738,62.012,34.180,3.418,0
1610554663.222,263.672,34.668,62.012,25.879,25.879,0
1610554663.226,-52.246,41.016,68.359,11.719,24.414,0
1610554663.229,-297.363,46.387,78.125,-12.695,28.809,0
1610554663.233,-66.895,41.992,73.242,13.184,7.812,0
1610554663.237,283.203,30.273,63.477,71.289,57.617,0
1610554663.241,275.391,34.180,62.500,49.316,63.477,0
1610554663.245,-19.043,48.828,61.035,-35.645,14.648,0
1610554663.245,-261.230,54.199,62.500,-50.293,22.949,0
1610554663.249,-114.258,53.711,61.035,-7.812,41.016,0
1610554663.253,234.375,51.758,56.152,52.246,7.812,0
1610554663.257,349.121,50.293,53.223,61.035,3.418,0
1610554663.261,88.379,54.199,52.734,7.324,61.523,0
1610554663.265,-183.105,56.152,59.570,-26.367,34.180,0
1610554663.269,-129.883,60.059,69.824,1.465,-51.758,0
1610554663.272,179.199,55.664,62.988,76.660,-5.859,0
1610554663.276,305.176,37.109,44.922,66.406,58.594,0
1610554663.280,97.656,36.621,46.875,-2.441,49.805,0
1610554663.284,-195.312,42.480,61.523,-41.016,50.781,0
1610554663.288,-168.945,42.969,54.199,-26.855,42.480,0
1610554663.290,131.836,36.621,43.945,39.062,8.789,0
1610554663.294,242.676,36.133,49.316,61.523,40.039,0
1610554663.298,63.477,42.480,52.734,15.137,38.086,0
1610554663.302,-148.926,45.898,62.500,-21.484,5.371,0
1610554663.306,-134.766,46.875,62.500,2.441,-2.930,0
1610554663.310,130.859,41.992,51.758,27.832,17.578,0
1610554663.314,324.219,38.086,42.969,28.809,33.691,0
1610554663.317,185.059,39.062,45.410,29.785,21.484,0
1610554663.321,-145.020,41.504,49.805,-31.250,44.434,0
1610554663.325,-231.445,37.598,49.805,-40.527,41.992,0
1610554663.329,44.434,31.250,38.574,14.160,54.688,0
1610554663.333,207.031,23.926,27.832,41.504,5.371,0
1610554663.351,128.906,34.180,36.621,31.250,25.391,0
1610554663.355,-110.840,41.992,51.758,-24.902,111.328,0
1610554663.359,-245.605,29.297,54.688,-47.852,35.156,0
1610554663.363,5.371,22.461,38.574,-17.578,-9.277,0
1610554663.367,274.902,20.508,36.621,26.367,35.156,0
1610554663.371,202.637,26.367,34.668,31.250,26.367,0
1610554663.375,-149.902,32.227,33.203,-13.672,-6.348,0
1610554663.378,-259.277,30.762,46.387,-36.621,-42.480,0
1610554663.382,-9.766,24.902,41.992,-2.930,-25.879,0
1610554663.386,271.973,24.414,30.762,44.434,-26.855,0
1610554663.390,227.539,24.902,27.344,42.969,-20.508,0
1610554663.394,-58.105,25.391,34.668,-21.484,6.348,0
1610554663.395,-289.062,29.785,36.621,-51.758,14.160,0
1610554663.399,-134.277,25.879,34.180,-0.977,-5.371,0
1610554663.403,231.445,19.043,26.367,48.828,21.973,0
1610554663.407,265.137,27.832,31.738,47.363,58.105,0
1610554663.411,-5.371,35.645,39.062,2.441,21.484,0
1610554663.415,-230.469,35.156,33.203,-44.922,16.602,0
1610554663.419,-111.328,28.320,30.273,-21.973,12.207,0
1610554663.422,187.012,20.020,23.926,34.180,25.391,0
1610554663.426,229.004,21.973,29.297,38.086,40.039,0
1610554663.430,-16.113,28.809,31.738,3.906,5.859,0
1610554663.434,-272.949,32.715,19.531,-40.527,5.371,0
1610554663.438,-150.879,29.785,32.715,-40.039,14.160,0
1610554663.440,199.707,27.344,42.480,23.926,46.387,0
1610554663.444,284.180,28.320,30.273,42.969,73.730,0
1610554663.448,63.477,36.621,31.738,2.441,70.312,0
1610554663.452,-235.352,46.387,44.922,-44.434,64.453,0
1610554663.456,-206.055,50.781,48.828,-25.391,18.555,0
1610554663.460,141.113,48.340,42.969,41.504,-25.391,0
1610554663.464,303.223,36.621,33.203,38.086,-4.883,0
1610554663.467,112.793,34.668,26.367,-25.879,3.418,0
1610554663.471,-191.895,47.363,37.109,-60.059,1.953,0
1610554663.475,-191.406,51.758,39.551,-29.785,16.602,0
1610554663.479,113.770,43.945,28.809,16.113,23.438,0
1610554663.483,243.164,41.504,22.949,41.992,72.266,0
1610554663.485,105.957,50.293,23.926,33.691,57.129,0
1610554663.489,-198.242,58.105,30.762,-18.066,0.977,0
1610554663.493,-252.930,55.176,18.066,-27.832,-24.414,0
1610554663.497,89.355,45.410,7.812,36.133,52.734,0
1610554663.501,321.289,41.016,12.695,66.406,69.824,0
1610554663.505,216.309,45.410,25.391,23.438,14.648,0
1610554663.509,-117.676,47.852,36.621,-36.621,20.996,0
1610554663.512,-237.793,52.246,46.387,-49.316,33.203,0
1610554663.516,9.277,39.062,36.133,-9.766,36.621,0
1610554663.520,239.258,26.367,9.766,25.391,-17.090,0
1610554663.524,176.758,40.039,12.695,2.930,-46.875,0
1610554663.528,-121.582,49.805,25.879,-46.875,8.301,0
1610554663.530,-270.508,52.246,26.367,-59.082,30.762,0
1610554663.534,-15.625,51.270,16.602,-17.090,-34.668,0
1610554663.538,254.395,47.363,10.254,37.109,-22.461,0
1610554663.542,178.711,49.805,3.906,36.621,37.598,0
1610554663.546,-78.613,58.594,20.508,-17.578,12.695,0
1610554663.550,-244.141,61.523,37.598,-53.711,-26.367,0
1610554663.554,-69.824,55.664,30.762,0.977,-23.926,0
1610554663.557,282.715,50.293,20.508,60.547,20.020,0
1610554663.561,309.082,59.082,28.809,48.340,-2.441,0
1610554663.565,-6.836,64.941,41.504,-7.812,-18.066,0
1610554663.569,-248.535,55.664,37.598,-45.898,45.410,0
1610554663.573,-97.168,48.340,32.715,-22.461,23.926,0
1610554663.576,215.820,43.457,16.602,50.293,20.508,0
1610554663.580,251.953,42.969,5.371,50.781,34.668,0
1610554663.584,-1.953,47.363,22.461,-13.672,29.297,0
1610554663.588,-247.070,51.270,41.992,-41.504,-15.625,0
1610554663.592,-127.930,44.434,41.992,-19.043,-16.602,0
1610554663.596,189.453,38.574,37.109,32.227,56.152,0
1610554663.600,274.414,42.480,25.879,49.805,54.688,0
1610554663.603,28.320,51.758,27.344,8.789,25.391,0
1610554663.607,-281.250,55.176,47.852,-58.594,-4.395,0
1610554663.611,-179.199,46.387,43.945,-41.016,-46.387,0
1610554663.615,168.945,42.480,30.273,37.598,-0.488,0
1610554663.619,295.898,41.504,28.320,39.062,4.883,0
1610554663.620,75.195,43.457,21.973,1.465,-34.668,0
1610554663.624,-244.141,58.105,33.203,-21.973,26.855,0
1610554663.628,-178.223,57.617,39.062,-23.926,24.414,0
1610554663.632,157.227,41.016,20.996,21.973,15.625,0
1610554663.636,265.625,37.598,20.508,51.758,69.336,0
1610554663.640,129.883,42.969,28.320,21.484,67.383,0
1610554663.644,-190.918,52.246,38.574,-19.043,23.438,0
1610554663.647,-247.559,53.223,38.086,-15.625,47.852,0
1610554663.651,77.148,44.434,27.832,33.203,86.426,0
1610554663.655,265.625,41.016,27.832,52.734,44.922,0
1610554663.659,170.898,44.922,30.762,28.809,57.129,0
1610554663.663,-153.320,54.199,36.621,-8.301,-4.395,0
1610554663.667,-219.727,53.711,33.691,-16.113,-36.133,0
1610554663.671,41.504,46.875,20.996,28.320,-47.363,0
1610554663.675,275.879,43.457,17.090,54.199,-5.859,0
1610554663.679,177.734,46.875,26.855,19.531,61.035,0
1610554663.683,-105.957,51.270,33.203,-15.625,36.621,0
1610554663.687,-226.562,51.270,33.691,-18.555,-4.883,0
1610554663.691,-10.742,53.711,41.504,20.996,-23.438,0
1610554663.694,239.258,41.016,38.574,67.383,-7.812,0
1610554663.698,177.734,30.273,34.180,34.668,3.906,0
1610554663.702,-90.332,43.457,41.992,-18.555,23.926,0
1610554663.706,-253.418,48.828,39.551,-46.875,44.922,0
1610554663.710,-102.051,41.992,35.645,-20.508,54.688,0
1610554663.725,196.289,36.621,29.785,41.016,29.785,0
1610554663.729,239.258,38.086,27.344,45.898,24.414,0
1610554663.733,-100.098,46.875,36.621,-10.254,64.941,0
1610554663.737,-286.133,48.828,39.551,-40.527,-26.855,0
1610554663.741,-56.152,44.434,30.762,1.465,-65.918,0
1610554663.745,250.000,41.016,25.391,46.387,14.648,0
1610554663.749,263.184,40.039,25.391,48.340,11.230,0
1610554663.752,12.695,43.945,27.832,-2.441,15.625,0
1610554663.756,-232.910,47.852,38.086,-48.828,2.441,0
1610554663.760,-142.578,45.410,41.016,-17.090,22.461,0
1610554663.764,184.082,39.062,35.645,54.688,102.051,0
1610554663.768,261.230,41.992,33.691,57.617,104.004,0
1610554663.771,31.250,42.969,36.133,4.883,14.648,0
1610554663.775,-240.723,39.551,38.086,-33.203,24.902,0
1610554663.779,-232.910,39.062,31.250,-9.277,19.043,0
1610554663.783,76.660,32.227,23.438,26.367,5.371,0
1610554663.787,267.578,29.785,23.926,23.438,65.430,0
1610554663.791,104.980,36.621,31.738,-14.648,53.711,0
1610554663.795,-186.035,46.387,37.598,-42.480,-17.090,0
1610554663.798,-194.824,42.480,29.785,-13.672,-16.113,0
1610554663.802,104.492,30.762,26.855,33.691,40.527,0
1610554663.806,270.020,34.180,23.926,42.969,60.059,0
1610554663.810,102.051,44.434,27.832,15.137,45.410,0
1610554663.814,-184.570,49.316,30.273,-34.668,34.668,0
1610554663.815,-208.496,49.316,25.391,-41.504,17.090,0
1610554663.819,63.965,38.574,37.598,18.066,-12.207,0
1610554663.823,258.301,31.250,41.504,51.270,0.977,0
1610554663.827,124.512,47.363,44.922,33.691,8.301,0
1610554663.831,-197.266,50.293,48.340,-13.184,-6.836,0
1610554663.835,-244.629,40.039,42.480,-29.785,-7.324,0
1610554663.839,7.324,37.109,35.645,2.930,53.223,0
1610554663.842,276.367,33.203,32.227,37.109,53.223,0
1610554663.846,208.008,35.156,36.621,35.645,12.207,0
1610554663.850,-87.891,40.039,40.527,-14.160,19.531,0
1610554663.854,-223.633,39.062,41.504,-23.926,43.945,0
1610554663.858,-5.859,34.180,36.133,25.879,-21.484,0
1610554663.860,269.043,32.227,28.320,66.406,9.277,0
1610554663.864,201.172,33.691,30.273,30.762,44.922,0
1610554663.868,-86.914,37.109,36.133,-21.973,33.203,0
1610554663.872,-187.012,41.016,40.039,-29.785,73.242,0
1610554663.876,-26.367,45.410,38.086,24.902,70.312,0
1610554663.880,243.164,45.410,26.367,79.102,6.348,0
1610554663.884,240.234,38.574,15.137,42.969,-12.207,0
1610554663.887,-43.945,35.645,19.531,-12.207,-16.113,0
1610554663.891,-228.516,40.527,36.133,-26.855,-56.641,0
1610554663.895,-91.797,42.969,31.738,-11.230,-20.020,0
1610554663.899,239.258,40.527,17.090,25.391,-6.348,0
1610554663.903,224.609,41.992,21.973,46.387,-9.277,0
1610554663.905,-14.648,44.434,26.855,1.465,13.184,0
1610554663.909,-194.336,46.387,33.691,-26.855,43.945,0
1610554663.913,-109.375,43.945,38.086,1.953,13.184,0
1610554663.917,195.801,41.016,24.414,48.828,-26.367,0
1610554663.921,229.492,37.109,16.602,57.129,34.668,0
1610554663.925,33.691,39.551,23.926,6.836,57.129,0
1610554663.929,-189.941,44.922,37.598,-17.090,7.324,0
1610554663.932,-121.094,42.480,41.992,8.301,36.621,0
1610554663.936,151.855,38.574,37.109,31.250,48.828,0
1610554663.940,237.305,34.180,28.320,36.621,24.902,0
1610554663.944,52.734,44.922,32.715,15.625,20.020,0
1610554663.948,-163.574,53.711,43.457,-16.113,6.836,0
1610554663.952,-156.250,43.945,28.809,-12.207,-8.789,0
1610554663.956,100.586,36.133,15.137,35.645,27.832,0
1610554663.960,278.809,33.691,18.066,57.129,29.297,0
1610554663.964,111.328,37.598,29.297,26.367,-19.043,0
1610554663.968,-189.453,40.039,32.227,-35.156,-101.074,0
1610554663.972,-228.027,40.039,34.180,-33.203,-12.695,0
1610554663.976,37.598,37.598,31.738,35.645,62.012,0
1610554663.979,243.164,35.645,24.902,49.316,16.113,0
1610554663.983,149.414,39.062,31.738,14.648,20.508,0
1610554663.987,-159.668,41.016,37.109,-28.809,-88.379,0
1610554663.991,-247.070,40.039,41.504,-25.879,-44.434,0
1610554663.995,19.531,41.992,41.992,30.762,73.242,0
1610554663.996,272.461,30.762,23.438,50.781,52.734,0
1610554664.000,147.949,26.855,8.301,15.137,8.301,0
1610554664.004,-165.039,37.109,10.254,-10.254,17.090,0
1610554664.008,-240.723,34.668,18.066,-21.973,0.000,0
1610554664.012,14.160,31.738,26.855,18.555,32.227,0
1610554664.016,292.480,30.762,31.738,62.988,55.664,0
1610554664.020,238.281,29.785,29.297,36.621,22.949,0
1610554664.023,-67.871,32.715,23.926,-8.789,6.348,0
1610554664.027,-216.309,31.250,29.297,-23.926,-5.859,0
1610554664.031,-19.531,31.738,30.273,14.648,55.176,0
1610554664.035,273.438,29.297,20.996,63.477,-2.930,0
1610554664.039,223.633,26.367,18.555,41.992,-11.230,0
1610554664.040,-66.895,32.715,24.902,-12.207,25.391,0
1610554664.044,-195.801,41.992,37.109,-13.672,-4.883,0
1610554664.048,-33.203,38.086,28.320,24.414,23.926,0
1610554664.052,288.086,36.621,14.160,60.059,67.871,0
1610554664.056,310.059,39.551,25.879,52.246,56.152,0
1610554664.060,0.488,30.273,32.227,-4.395,33.691,0
1610554664.064,-246.094,31.250,30.762,-67.871,42.480,0
1610554664.067,-177.246,27.344,27.344,-52.734,47.363,0
1610554664.071,168.945,21.973,18.066,7.324,16.602,0
1610554664.075,242.188,28.320,15.625,-19.043,-12.207,0
1610554664.079,-40.039,28.809,13.184,-64.453,16.602,0
1610554664.083,-301.758,31.738,6.348,-118.652,41.992,0
1610554664.100,-235.352,20.020,11.719,-172.363,36.621,0
1610554664.104,58.105,7.812,23.438,-143.555,5.371,0
1610554664.108,111.816,13.672,31.250,-118.164,-4.395,0
1610554664.112,-72.266,21.973,46.875,-158.691,42.969,0
1610554664.116,-332.031,26.855,49.316,-215.820,28.320,0
1610554664.120,-319.336,31.738,44.434,-197.754,-49.316,0
1610554664.124,-30.762,17.578,27.344,-147.949,-19.531,0
1610554664.127,76.172,-0.488,6.348,-167.969,28.320,0
1610554664.131,-102.051,3.906,14.160,-194.336,-5.859,0
1610554664.135,-434.570,10.254,31.738,-219.727,10.254,0
1610554664.139,-450.684,0.488,17.578,-223.145,54.688,0
1610554664.143,-116.211,-16.113,-5.859,-167.969,64.941,0
1610554664.145,43.945,-16.602,-3.418,-138.184,40.527,0
1610554664.149,-88.379,4.395,16.602,-162.598,53.223,0
1610554664.153,-388.184,12.695,20.020,-198.730,48.340,0
1610554664.157,-455.566,-2.441,7.324,-204.102,52.734,0
1610554664.161,-169.922,-5.859,3.418,-153.320,53.223,0
1610554664.165,64.453,-0.977,13.184,-104.492,25.391,0
1610554664.169,-34.668,0.977,19.531,-119.141,15.625,0
1610554664.172,-324.707,12.695,26.367,-151.855,35.645,0
1610554664.176,-409.180,12.207,23.438,-140.625,42.480,0
1610554664.180,-131.836,6.836,20.020,-79.590,37.109,0
1610554664.184,147.949,7.324,5.859,-38.574,47.852,0
1610554664.188,50.781,11.719,-1.465,-35.156,42.480,0
1610554664.192,-235.352,21.973,16.602,-81.543,21.973,0
1610554664.196,-332.031,26.367,23.438,-105.957,-20.508,0
1610554664.200,-103.516,28.809,18.066,-33.203,-44.922,0
1610554664.204,237.305,33.691,17.090,46.387,-33.203,0
1610554664.208,207.031,35.156,19.531,47.363,-6.348,0
1610554664.212,-94.238,42.480,37.109,2.930,50.781,0
1610554664.216,-234.375,54.688,50.293,-9.766,33.203,0
1610554664.219,-59.570,40.527,32.227,31.738,11.719,0
1610554664.223,239.746,22.949,12.207,82.031,19.531,0
1610554664.227,257.812,26.855,6.836,88.379,1.953,0
1610554664.231,-7.812,38.086,15.625,36.133,20.996,0
1610554664.235,-211.426,47.363,26.855,10.742,56.152,0
1610554664.235,-101.562,51.270,18.555,65.430,3.906,0
1610554664.239,248.047,41.016,11.230,118.164,-3.906,0
1610554664.243,341.797,35.645,21.973,99.609,-34.668,0
1610554664.247,68.359,42.480,21.484,33.691,-12.207,0
1610554664.251,-207.031,54.199,29.785,8.789,52.246,0
1610554664.255,-104.004,64.941,41.992,51.758,30.762,0
1610554664.259,257.812,49.316,27.832,96.680,26.367,0
1610554664.262,338.379,30.273,19.043,85.938,23.926,0
1610554664.266,102.051,36.133,26.367,54.688,-5.859,0
1610554664.270,-175.781,50.781,36.133,32.715,-30.273,0
1610554664.274,-130.371,55.664,44.434,44.922,-76.660,0
1610554664.278,202.637,52.734,41.504,100.098,-15.625,0
1610554664.280,313.965,51.270,37.598,124.023,43.457,0
1610554664.284,139.648,60.059,38.574,83.984,42.969,0
1610554664.288,-108.398,70.801,38.086,32.227,98.145,0
1610554664.292,-169.434,65.918,30.273,41.016,34.668,0
1610554664.296,182.129,64.941,31.250,109.375,23.438,0
1610554664.300,410.156,66.895,28.320,136.230,62.500,0
1610554664.304,211.426,53.711,30.273,91.797,49.316,0
1610554664.307,-120.117,55.664,48.828,30.273,7.324,0
1610554664.311,-160.156,63.965,39.551,40.527,1.953,0
1610554664.315,149.902,55.176,34.180,89.355,30.762,0
1610554664.319,357.910,46.387,35.156,105.957,49.316,0
1610554664.323,229.492,50.781,37.109,87.891,23.438,0
1610554664.340,-112.305,51.270,32.715,31.250,0.488,0
1610554664.344,-215.820,38.086,22.461,-3.418,12.695,0
1610554664.348,32.715,27.832,18.555,32.715,45.410,0
1610554664.352,269.531,33.203,10.254,74.707,65.918,0
1610554664.356,252.441,30.273,4.395,60.547,47.363,0
1610554664.360,-68.848,23.438,12.207,0.488,38.086,0
1610554664.364,-229.980,32.715,23.438,-14.648,1.465,0
1610554664.367,-17.578,33.203,12.207,35.645,-24.902,0
1610554664.371,288.574,27.344,4.395,83.008,16.113,0
1610554664.375,269.531,37.598,26.367,69.824,42.480,0
1610554664.379,-80.078,42.480,36.133,19.043,37.598,2
1610554664.383,-251.953,37.598,21.973,0.488,18.555,0
1610554664.372,-47.852,28.809,12.207,24.902,31.738,0
1610554664.376,290.039,34.668,26.367,87.402,75.195,0
1610554664.380,306.641,42.480,26.855,81.055,35.645,0
1610554664.384,-62.988,36.133,20.020,10.742,-20.020,0
1610554664.388,-286.621,37.598,28.809,-30.762,0.000,0
1610554664.392,-51.270,39.551,25.391,-12.695,1.953,0
1610554664.396,279.297,37.598,21.484,48.828,16.113,0
1610554664.399,327.637,43.457,10.254,54.688,44.922,0
1610554664.403,28.809,54.688,20.996,33.203,13.672,0
1610554664.407,-264.648,61.523,50.293,14.648,7.812,0
1610554664.411,-132.324,54.199,48.340,20.020,-11.230,0
1610554664.415,242.676,52.734,40.039,71.777,-35.645,0
1610554664.417,312.012,57.617,42.969,90.332,30.762,0
1610554664.421,93.750,61.035,48.828,53.711,22.461,0
1610554664.425,-209.473,62.500,47.852,10.254,-15.625,0
1610554664.429,-182.617,48.340,49.316,18.066,36.621,0
1610554664.433,174.316,41.016,43.457,62.500,26.367,0
1610554664.437,307.129,37.598,30.762,69.824,29.785,0
1610554664.441,114.258,43.945,37.109,38.086,97.656,0
1610554664.444,-191.895,65.918,53.711,20.996,57.129,0
1610554664.448,-180.176,60.547,47.363,25.391,14.648,0
1610554664.452,140.625,40.527,25.391,56.641,54.688,0
1610554664.456,313.965,39.062,28.809,73.730,96.680,0
1610554664.460,144.043,48.340,43.945,40.527,69.336,0
1610554664.475,-181.641,54.688,47.363,-5.371,55.176,0
1610554664.479,-207.520,56.152,44.922,9.766,35.156,0
1610554664.483,99.121,55.664,39.062,51.270,7.324,0
1610554664.487,339.844,58.594,34.668,59.570,32.227,0
1610554664.491,226.562,50.293,44.434,28.809,-2.930,0
1610554664.495,-162.598,48.828,47.852,-11.230,32.715,0
1610554664.499,-250.488,60.547,45.898,-18.555,82.031,0
1610554664.502,63.965,50.293,41.504,18.555,37.598,0
1610554664.506,293.457,38.574,34.668,62.500,27.832,0
1610554664.510,216.309,44.922,35.645,40.039,2.441,0
1610554664.514,-97.656,56.641,40.527,-12.207,-13.184,0
1610554664.518,-263.184,55.176,37.109,-21.484,12.695,0
1610554664.521,-3.906,53.711,31.250,23.926,29.297,0
1610554664.525,296.387,52.246,25.879,74.707,45.898,0
1610554664.529,233.398,46.387,44.434,63.477,48.828,0
1610554664.533,-86.426,59.082,62.012,14.160,22.949,0
1610554664.537,-282.715,56.152,50.781,-15.137,9.277,0
1610554664.541,-76.660,48.828,32.227,13.672,-10.742,0
1610554664.545,262.695,47.852,20.508,70.312,-33.203,0
1610554664.548,239.258,47.852,26.367,56.152,-8.301,0
1610554664.552,-67.383,48.828,45.410,5.371,9.277,0
1610554664.556,-262.207,49.805,60.547,-11.719,29.785,0
1610554664.560,-96.680,46.387,43.945,6.348,44.434,0
1610554664.564,238.770,30.762,21.973,44.434,26.367,0
1610554664.566,275.391,30.273,21.484,41.992,10.742,0
1610554664.570,-11.230,42.480,32.227,5.371,0.000,0
1610554664.574,-277.832,48.828,36.133,-29.785,-3.906,0
1610554664.578,-151.855,43.457,32.227,-24.414,41.504,0
1610554664.582,225.098,35.645,23.438,19.043,23.438,0
1610554664.586,306.641,30.273,20.996,32.227,4.883,0
1610554664.590,42.969,38.574,33.691,8.301,106.445,0
1610554664.593,-243.164,40.527,35.156,-31.738,52.734,0
1610554664.597,-175.293,29.785,19.043,-20.996,-5.371,0
1610554664.601,187.988,27.832,23.438,23.438,52.246,0
1610554664.605,312.500,25.879,39.062,31.738,78.613,0
1610554664.609,80.078,31.738,44.922,4.395,83.984,0
1610554664.610,-219.238,47.363,45.898,-23.438,60.547,0
1610554664.614,-190.430,50.293,49.316,-9.277,25.391,0
1610554664.618,144.043,30.273,34.668,11.719,41.504,0
1610554664.622,322.754,25.391,25.879,30.273,51.270,0
1610554664.626,142.578,30.762,34.668,9.766,35.645,0
1610554664.630,-199.219,33.203,35.645,-54.688,5.371,0
1610554664.634,-250.977,37.598,26.855,-47.852,34.668,0
1610554664.637,86.914,36.133,21.973,27.832,32.715,0
1610554664.641,322.754,33.203,25.879,54.199,16.602,0
1610554664.645,168.457,36.133,28.320,12.207,10.742,0
1610554664.649,-178.711,39.062,33.691,-38.574,-90.332,0
1610554664.653,-239.258,50.293,40.039,-35.156,-7.812,0
1610554664.657,57.617,47.363,38.574,18.555,29.297,0
1610554664.661,300.293,27.344,17.090,33.691,15.137,0
1610554664.665,200.684,29.785,18.066,12.207,45.898,0
1610554664.669,-142.090,39.062,38.574,-23.926,-10.742,0
1610554664.673,-282.715,40.039,42.969,-30.273,28.320,0
1610554664.677,-6.836,38.086,42.969,17.090,-34.180,0
1610554664.681,265.137,44.434,39.062,57.617,-62.500,0
1610554664.684,201.660,44.922,35.645,34.668,41.992,0
1610554664.688,-93.262,40.039,40.039,-17.578,33.691,0
1610554664.692,-270.996,41.016,50.781,-30.273,101.074,0
1610554664.696,-48.828,38.086,47.852,0.488,117.188,0
1610554664.700,262.695,31.738,32.715,47.852,55.664,0
1610554664.701,252.930,44.922,27.832,48.340,84.473,0
1610554664.705,-58.594,55.664,34.180,5.859,47.363,0
1610554664.709,-285.156,43.945,35.156,-29.785,11.230,0
1610554664.713,-94.238,37.598,40.527,-5.859,5.859,0
1610554664.717,249.512,34.180,35.156,50.293,-6.348,0
1610554664.721,257.324,32.227,30.273,42.969,19.531,0
1610554664.725,-47.852,41.016,50.293,0.000,30.762,0
1610554664.728,-291.992,49.805,65.918,-30.273,-6.348,0
1610554664.732,-152.344,40.527,54.688,-18.555,59.082,0
1610554664.736,208.496,27.344,30.762,35.645,61.523,0
1610554664.740,278.320,32.227,32.227,46.387,22.949,0
1610554664.744,-1.465,39.062,38.086,-3.418,37.598,0
1610554664.746,-264.160,50.293,42.480,-24.902,-5.371,0
1610554664.750,-159.180,53.223,41.504,0.977,-32.227,0
1610554664.754,184.570,29.785,29.785,33.691,-34.180,0
1610554664.758,292.969,20.508,26.855,32.227,-31.250,0
1610554664.762,63.477,31.250,33.203,-3.418,9.766,0
1610554664.766,-244.141,39.062,50.293,-37.598,4.395,0
1610554664.770,-205.566,41.504,44.922,-22.461,-13.184,0
1610554664.773,145.996,39.551,33.691,34.668,-16.113,0
1610554664.777,309.082,33.691,32.227,53.223,8.789,0
1610554664.781,112.305,39.551,32.227,25.391,62.500,0
1610554664.785,-213.867,46.875,51.758,-23.438,31.250,0
1610554664.789,-226.074,42.969,54.199,-14.160,21.973,0
1610554664.806,117.676,44.922,46.875,40.039,74.707,0
1610554664.810,325.684,47.363,39.062,54.199,60.547,0
1610554664.814,149.902,35.645,22.949,21.484,-1.953,0
1610554664.818,-180.176,40.527,37.109,-23.926,8.301,0
1610554664.822,-236.816,45.898,54.199,-25.879,41.992,0
1610554664.826,61.523,36.133,46.875,15.625,21.973,0
1610554664.830,311.523,36.621,40.039,42.480,-34.668,0
1610554664.833,202.148,39.062,42.480,28.809,17.090,0
1610554664.837,-138.184,43.945,45.410,-15.137,62.988,0
1610554664.841,-261.230,43.945,47.363,-28.320,-1.953,0
1610554664.845,11.719,37.109,41.016,16.113,30.273,0
1610554664.849,300.293,36.621,29.785,46.387,44.922,0
1610554664.851,221.191,42.969,38.086,29.785,12.207,0
1610554664.855,-116.211,45.898,43.945,-22.949,-14.648,0
1610554664.859,-294.434,33.691,27.832,-51.758,49.316,0
1610554664.863,-55.176,25.879,28.809,-11.719,63.965,0
1610554664.867,270.508,27.832,31.738,39.062,-3.418,0
1610554664.871,234.375,33.203,33.691,30.762,-15.625,0
1610554664.875,-78.613,38.086,42.969,-5.859,29.785,0
1610554664.878,-290.527,41.992,47.363,-30.762,64.941,0
1610554664.882,-97.168,39.551,45.898,-16.602,34.180,0
1610554664.886,244.629,31.250,32.715,33.203,30.273,0
1610554664.890,253.906,41.016,40.527,35.156,36.621,0
1610554664.894,-29.297,49.805,45.898,-4.883,5.859,0
1610554664.897,-272.949,41.504,40.527,-38.086,-4.883,0
1610554664.901,-126.465,37.109,37.598,-14.160,-11.719,0
1610554664.905,224.609,34.180,30.273,37.109,34.180,0
1610554664.909,278.320,31.250,37.598,38.574,62.012,0
1610554664.913,10.254,39.062,45.898,0.977,21.484,0
1610554664.917,-267.090,47.852,55.176,-27.832,40.039,0
1610554664.921,-166.504,49.805,54.688,-2.441,8.789,0
1610554664.924,187.500,41.016,39.062,43.457,-26.855,0
1610554664.928,278.320,28.320,33.691,40.039,-36.621,0
1610554664.932,26.367,25.879,38.086,-4.883,7.812,0
1610554664.936,-265.137,26.367,46.387,-48.340,-2.930,0
1610554664.940,-199.219,33.203,46.875,-26.855,-5.859,0
1610554664.956,146.973,33.691,33.691,28.320,41.992,0
1610554664.960,288.086,29.785,19.043,42.480,18.066,0
1610554664.964,78.613,34.180,29.785,8.789,1.465,0
1610554664.968,-245.605,40.039,39.062,-31.738,31.738,0
1610554664.972,-243.164,41.504,38.086,-23.926,87.891,0
1610554664.976,83.984,39.551,33.203,13.672,45.898,0
1610554664.980,259.277,26.367,17.578,28.809,20.508,0
1610554664.983,108.398,20.020,19.043,-3.418,14.648,0
1610554664.987,-220.703,31.738,28.809,-46.387,-7.812,0
1610554664.991,-264.160,41.504,37.109,-32.227,6.836,0
1610554664.995,48.340,32.715,33.203,21.484,14.160,0
1610554664.999,280.273,25.391,25.879,50.293,-4.395,0
1610554664.986,156.250,30.762,37.598,36.621,-9.766,0
1610554664.990,-184.570,37.598,47.363,-9.277,-42.969,0
1610554664.994,-265.625,43.945,46.387,-20.996,-16.113,0
1610554664.998,18.066,39.551,33.203,10.254,57.129,0
1610554665.002,281.250,23.926,11.230,26.855,42.480,0
1610554665.006,207.031,29.785,24.902,11.719,69.824,0
1610554665.010,-112.305,43.457,42.969,-29.297,42.969,0
1610554665.013,-267.090,40.039,40.039,-37.109,14.648,0
1610554665.017,-33.203,35.156,29.785,5.371,-11.230,0
1610554665.021,277.832,32.715,20.020,57.617,58.105,0
1610554665.025,233.398,33.691,26.855,44.434,93.262,0
1610554665.029,-92.773,45.898,30.273,-0.488,-3.906,0
1610554665.031,-277.344,55.176,36.133,-13.184,34.180,0
1610554665.035,-74.707,45.898,37.598,-1.953,60.059,0
1610554665.039,250.977,33.203,36.133,39.551,10.254,0
1610554665.043,247.559,29.297,41.504,30.762,-35.645,0
1610554665.047,-54.688,34.180,30.762,-20.020,-5.371,0
1610554665.051,-274.414,40.527,30.762,-39.062,15.625,0
1610554665.055,-116.699,33.691,36.621,-14.160,-20.996,0
1610554665.058,216.797,29.785,27.344,44.434,-43.945,0
1610554665.062,271.973,35.156,15.625,60.547,21.973,0
1610554665.066,4.395,42.969,18.066,23.438,53.223,0
1610554665.070,-252.441,54.688,40.527,-20.996,35.645,0
1610554665.074,-154.297,48.340,36.621,-17.578,31.738,0
1610554665.075,179.688,28.809,27.344,25.879,53.711,0
1610554665.079,274.902,26.855,35.645,31.250,87.891,0
1610554665.083,26.855,38.574,42.969,0.977,22.949,0
1610554665.087,-260.254,49.316,42.480,-24.414,32.715,0
1610554665.091,-204.102,47.363,40.039,-14.648,48.340,0
1610554665.095,135.254,39.062,45.410,38.086,17.090,0
1610554665.099,283.691,36.133,39.551,55.176,57.617,0
1610554665.102,69.824,43.945,37.598,16.113,47.852,0
1610554665.106,-244.141,47.852,45.410,-37.598,-9.277,0
1610554665.110,-211.914,52.246,53.711,-20.020,-52.246,0
1610554665.114,133.301,50.781,47.852,46.387,4.883,0
1610554665.118,310.547,35.645,25.391,53.223,50.781,0
1610554665.123,127.441,35.156,27.832,20.020,60.059,0
1610554665.127,-207.520,43.945,40.527,-28.320,37.598,0
1610554665.131,-250.488,39.062,41.016,-27.832,48.828,0
1610554665.135,61.523,27.344,37.109,15.137,37.598,0
1610554665.139,295.410,29.297,30.762,45.898,-25.391,0
1610554665.143,161.621,36.621,32.715,38.574,37.598,0
1610554665.147,-175.781,44.922,42.480,-8.301,25.879,0
1610554665.150,-264.648,43.457,40.039,-22.949,-5.371,0
1610554665.154,20.020,36.621,40.527,17.090,18.066,0
1610554665.158,289.062,39.062,44.434,57.617,32.715,0
1610554665.162,197.754,46.387,43.457,54.199,24.902,0
1610554665.166,-137.207,44.922,38.574,-5.371,44.434,0
1610554665.180,-270.508,41.016,36.621,-25.879,105.469,0
1610554665.184,-5.859,41.992,37.598,22.461,59.570,0
1610554665.188,299.805,41.504,33.691,58.105,-8.789,0
1610554665.192,229.004,42.969,39.551,38.086,52.246,0
1610554665.196,-83.984,47.363,46.875,-9.766,67.871,0
1610554665.200,-256.836,48.828,47.852,-22.461,20.508,0
1610554665.204,-54.199,47.363,46.387,14.648,-4.883,0
1610554665.207,284.668,41.992,32.227,65.430,13.672,0
1610554665.211,273.438,44.922,24.414,48.828,31.738,0
1610554665.215,-36.621,59.082,47.852,3.906,8.301,0
1610554665.219,-246.094,56.152,62.012,-19.043,-11.719,0
1610554665.223,-92.773,33.691,46.875,-15.137,2.441,0
1610554665.256,255.859,27.344,31.250,31.738,6.836,0
1610554665.260,285.645,32.227,30.762,43.457,26.855,0
1610554665.264,4.395,40.527,36.621,9.277,-10.254,0
1610554665.268,-233.398,44.922,26.855,-20.508,-32.227,0
1610554665.272,-125.977,42.969,25.391,-10.254,30.273,0
1610554665.276,218.750,40.527,41.504,36.621,14.648,0
1610554665.280,313.965,38.086,38.574,49.805,14.160,0
1610554665.283,65.430,42.969,40.039,9.277,53.223,0
1610554665.287,-217.285,56.641,53.711,-24.414,20.020,0
1610554665.291,-158.203,56.641,48.828,-6.348,-47.852,0
1610554665.295,179.688,38.086,29.785,33.203,-46.387,0
1610554665.299,313.477,32.715,23.926,37.109,20.508,0
1610554665.261,107.422,42.480,40.527,8.789,27.344,0
1610554665.265,-211.914,49.805,43.457,-24.902,-30.273,0
1610554665.269,-191.895,48.828,32.227,-13.672,-57.617,0
1610554665.273,159.180,40.527,29.297,38.086,6.348,0
1610554665.277,324.219,37.109,33.691,62.012,-2.930,0
1610554665.281,143.555,42.969,44.922,32.227,-43.457,0
1610554665.285,-176.758,51.758,51.270,-27.832,16.602,0
1610554665.288,-236.328,49.316,49.316,-21.973,44.922,0
1610554665.292,82.520,42.480,45.898,33.691,24.902,0
1610554665.296,318.359,35.156,39.062,54.199,19.531,0
1610554665.300,156.738,28.809,35.645,20.020,10.254,0
1610554665.304,-175.293,34.668,41.016,-38.574,0.488,0
1610554665.316,-258.789,38.574,42.480,-41.992,-5.371,0
1610554665.320,38.086,38.086,30.273,3.418,-31.250,0
1610554665.324,297.363,34.668,17.578,38.574,-28.320,0
1610554665.328,197.266,38.574,29.297,21.973,37.109,0
1610554665.332,-139.648,44.922,44.922,-32.715,71.777,0
1610554665.336,-271.484,48.828,45.410,-45.898,-12.695,0
1610554665.340,-7.324,50.293,36.133,-2.930,-14.160,0
1610554665.343,263.184,44.922,30.762,42.969,45.410,0
1610554665.347,200.195,39.062,26.367,18.066,42.480,0
1610554665.351,-106.445,35.156,24.902,-36.133,40.527,0
1610554665.355,-284.180,33.203,27.832,-54.688,-15.137,0
1610554665.359,-70.801,33.691,24.414,-27.832,7.812,0
1610554665.360,250.977,31.250,24.902,18.066,85.938,0
1610554665.364,230.957,30.273,28.320,-2.930,25.879,0
1610554665.368,-108.887,35.156,30.762,-66.406,46.875,0
1610554665.372,-342.285,39.062,36.621,-92.773,49.805,0
1610554665.376,-147.461,39.551,27.344,-66.406,-27.344,0
1610554665.380,190.430,31.250,15.137,-15.625,13.672,0
1610554665.384,189.941,29.297,28.320,-32.227,92.285,0
1610554665.387,-98.145,38.574,38.574,-88.379,79.102,0
1610554665.391,-340.820,46.875,42.969,-109.375,55.176,0
1610554665.395,-223.145,43.457,45.410,-92.773,62.012,0
1610554665.399,112.305,25.879,21.484,-65.918,57.617,0
1610554665.403,168.945,19.043,15.137,-73.242,10.742,0
1610554665.407,-97.168,29.785,27.832,-104.492,49.316,0
1610554665.411,-343.750,39.062,29.785,-122.559,69.824,0
1610554665.415,-255.859,35.156,39.062,-99.121,-11.719,0
1610554665.419,82.520,27.832,38.086,-51.758,-2.441,0
1610554665.423,224.609,24.414,24.902,-42.480,20.508,0
1610554665.427,9.766,26.855,30.273,-66.895,-15.137,0
1610554665.431,-293.945,28.320,40.527,-101.074,49.316,0
1610554665.434,-263.672,24.902,39.551,-78.125,25.391,0
1610554665.438,78.125,27.344,40.039,-16.602,-12.207,0
1610554665.442,262.695,29.785,38.574,5.859,57.617,0
1610554665.446,67.871,23.926,32.715,-21.973,30.273,0
1610554665.450,-265.137,26.367,37.109,-56.152,-15.625,0
1610554665.450,-247.070,26.855,41.504,-34.668,-25.391,0
1610554665.454,99.609,23.438,40.039,16.602,6.348,0
1610554665.458,304.688,22.949,27.344,52.246,40.039,0
1610554665.462,168.457,30.273,28.320,32.227,49.316,0
1610554665.466,-153.320,41.016,37.109,-14.160,11.230,0
1610554665.470,-221.191,34.180,34.668,-13.672,-7.324,0
1610554665.474,85.938,31.250,33.691,42.969,9.277,0
1610554665.477,329.590,29.785,29.297,68.848,9.766,0
1610554665.481,207.031,23.438,38.086,39.062,49.316,0
1610554665.485,-115.723,28.320,45.898,-6.836,76.660,0
1610554665.489,-229.492,36.621,33.203,-8.301,-3.906,0
1610554665.493,48.828,39.062,32.715,42.480,-99.121,0
1610554665.495,325.195,33.691,32.715,70.312,-35.156,0
1610554665.499,264.648,31.250,22.461,62.012,35.156,0
1610554665.503,-73.730,39.062,33.203,4.395,47.363,0
1610554665.507,-243.164,49.316,44.434,-9.277,4.395,0
1610554665.511,22.949,40.039,43.945,40.039,-8.789,0
1610554665.515,325.684,24.414,20.508,78.125,55.664,0
1610554665.519,287.109,33.691,18.066,80.078,23.926,0
1610554665.522,-30.273,49.805,43.945,45.898,-6.348,0
1610554665.526,-234.375,43.945,52.734,16.602,86.914,0
1610554665.530,-52.734,30.273,40.527,30.762,78.613,0
1610554665.534,272.949,25.391,21.973,69.824,40.527,0
1610554665.538,306.641,33.203,24.902,65.430,43.457,0
1610554665.540,18.066,44.922,27.832,27.344,18.555,0
1610554665.544,-231.934,39.551,32.227,-6.836,1.953,0
1610554665.548,-98.633,33.691,42.969,17.578,-27.344,0
1610554665.552,260.742,31.738,29.297,83.008,23.926,0
1610554665.556,318.848,34.668,13.672,72.266,65.918,0
1610554665.560,61.035,45.410,25.879,18.555,24.414,0
1610554665.564,-178.711,51.270,40.039,1.465,18.555,0
1610554665.567,-114.258,41.016,39.062,10.254,19.531,0
1610554665.571,234.863,33.691,43.457,51.270,30.762,0
1610554665.575,346.680,36.133,39.062,57.617,42.969,0
1610554665.579,87.891,31.738,20.508,16.113,54.688,0
1610554665.583,-208.008,41.992,24.902,-5.859,32.715,0
1610554665.587,-155.762,48.828,41.016,14.160,-17.090,0
1610554665.591,167.480,36.133,35.645,63.965,-61.523,0
1610554665.595,317.383,30.762,27.344,75.684,-20.508,0
1610554665.599,127.930,31.738,20.508,32.715,49.316,0
1610554665.603,-195.801,46.875,37.598,-13.184,-11.719,0
1610554665.607,-208.984,52.246,40.039,-5.371,-18.555,0
1610554665.611,117.188,39.062,21.484,45.898,62.988,0
1610554665.614,270.508,40.527,24.902,75.684,-0.488,0
1610554665.618,129.883,46.387,32.715,46.875,-17.090,0
1610554665.622,-149.414,50.781,44.434,-7.324,48.340,0
1610554665.626,-221.191,50.781,49.316,-12.207,69.824,0
1610554665.630,99.609,52.734,38.574,41.016,51.270,0
1610554665.646,337.891,58.105,40.527,83.984,33.691,0
1610554665.650,197.266,45.410,37.109,53.711,62.988,0
1610554665.654,-138.184,43.945,34.180,-6.836,23.438,0
1610554665.658,-249.512,47.363,46.387,-14.160,-4.883,0
1610554665.662,14.648,42.480,45.410,25.879,20.020,0
1610554665.666,291.016,44.922,21.973,60.547,55.176,0
1610554665.670,216.309,40.527,18.066,45.898,64.453,0
1610554665.673,-105.957,38.574,42.480,-4.395,16.113,0
1610554665.677,-263.184,44.922,39.551,-15.137,3.418,0
1610554665.681,-20.508,41.992,33.203,22.949,62.012,0
1610554665.685,284.180,37.598,37.598,60.059,87.402,0
1610554665.689,211.914,41.016,35.645,45.898,35.156,0
1610554665.690,-68.359,53.711,39.062,0.977,-43.945,0
1610554665.694,-219.727,59.082,42.969,-14.648,-4.883,0
1610554665.698,-51.270,47.363,41.016,13.184,30.762,0
1610554665.702,259.766,34.180,34.180,48.340,57.129,0
1610554665.706,259.277,35.645,31.250,35.156,56.152,0
1610554665.710,-36.133,41.992,33.691,-4.395,37.109,0
1610554665.714,-265.137,41.016,33.691,-25.391,58.105,0
1610554665.717,-114.258,46.387,34.180,9.277,68.359,0
1610554665.721,234.375,53.223,45.898,71.777,81.055,0
1610554665.725,296.875,49.805,49.316,65.918,20.020,0
1610554665.729,7.812,36.621,36.621,3.418,22.461,0
1610554665.733,-264.160,35.645,37.598,-36.621,66.406,0
1610554665.736,-154.297,40.527,31.250,-10.254,-21.484,0
1610554665.740,188.477,34.180,25.391,38.574,3.418,0
1610554665.744,306.641,31.738,29.297,41.992,37.598,0
1610554665.748,49.316,39.551,34.668,3.906,-28.809,0
1610554665.752,-248.535,46.875,37.598,-28.320,-1.953,0
1610554665.756,-181.641,48.340,35.156,-3.906,27.344,0
1610554665.760,156.738,41.992,34.668,41.504,53.223,0
1610554665.763,324.707,31.250,31.738,57.617,48.828,0
1610554665.767,108.398,39.062,41.992,28.809,29.297,0
1610554665.771,-195.801,47.363,49.805,-22.949,22.461,0
1610554665.775,-192.871,33.203,22.949,-29.297,12.207,0
1610554665.779,103.027,29.785,11.230,14.160,44.922,0
1610554665.781,296.875,31.250,23.438,42.969,33.691,0
1610554665.785,152.344,29.297,28.809,22.461,23.438,0
1610554665.789,-172.363,34.668,34.668,-34.668,53.711,0
1610554665.793,-214.355,40.527,28.809,-24.414,49.316,0
1610554665.797,80.078,42.480,24.414,44.434,5.859,0
1610554665.801,295.410,26.855,15.625,62.012,1.465,0
1610554665.805,167.480,18.066,13.184,29.297,5.859,0
1610554665.808,-170.410,27.832,36.133,-26.367,-52.246,0
1610554665.812,-233.887,31.250,42.969,-46.875,-25.391,0
1610554665.816,52.246,27.832,27.832,-1.953,68.359,0
1610554665.820,297.363,27.344,19.531,45.410,43.457,0
1610554665.824,209.961,34.180,16.113,29.297,51.270,0
1610554665.826,-106.445,40.527,20.508,-23.438,64.941,0
1610554665.830,-255.859,40.527,32.227,-32.715,36.133,0
1610554665.834,-7.324,40.527,31.738,12.207,7.324,0
1610554665.838,297.363,40.039,20.996,48.828,-3.906,0
1610554665.842,246.582,40.527,20.020,36.133,50.781,0
1610554665.846,-85.449,40.039,21.973,-3.906,-18.066,0
1610554665.850,-274.902,33.203,18.066,-34.668,-39.551,0
1610554665.853,-61.035,29.785,25.391,-6.348,15.137,0
1610554665.857,263.184,27.832,28.320,45.410,28.809,0
1610554665.861,270.996,32.227,23.438,43.457,27.344,0
1610554665.865,-27.344,39.551,28.320,-7.324,-11.230,0
1610554665.869,-243.652,43.945,36.133,-39.062,-1.465,0
1610554665.872,-89.355,42.480,30.273,2.930,17.578,0
1610554665.876,244.629,35.645,26.367,60.547,36.133,0
1610554665.880,291.016,34.180,20.996,43.457,49.316,0
1610554665.884,17.578,45.410,29.785,-1.953,-0.488,0
1610554665.888,-235.352,47.363,45.410,-34.668,39.062,0
1610554665.892,-134.766,32.227,38.086,-29.297,-1.465,0
1610554665.896,211.914,25.879,32.227,23.438,-45.898,0
1610554665.899,292.480,28.809,30.762,37.598,-9.766,0
1610554665.903,44.434,31.250,34.180,-6.348,-40.527,0
1610554665.907,-220.703,41.016,45.410,-35.645,-21.484,0
1610554665.911,-150.879,45.898,44.434,-7.812,1.465,0
1610554665.915,186.523,35.156,29.785,46.875,-0.977,0
1610554665.917,313.965,35.156,28.320,50.293,-0.977,0
1610554665.921,102.539,43.457,41.016,29.297,0.488,0
1610554665.925,-224.121,39.062,41.504,-17.578,5.371,0
1610554665.929,-206.543,32.227,30.762,-31.738,-47.363,0
1610554665.933,122.070,31.250,25.391,34.668,-42.969,0
1610554665.937,294.922,31.250,27.832,67.383,-11.230,0
1610554665.941,123.047,35.645,44.922,27.832,-52.734,0
1610554665.944,-184.570,43.945,48.340,-24.414,-19.531,0
1610554665.948,-200.684,46.387,29.297,-13.672,-16.113,0
1610554665.952,121.094,52.246,36.133,41.504,-71.289,0
1610554665.956,337.402,42.969,46.387,56.152,-31.738,0
1610554665.960,181.152,22.949,35.645,11.719,17.578,0
1610554665.975,-170.898,34.668,42.480,-34.668,73.242,0
1610554665.979,-252.930,39.551,38.086,-38.086,11.719,0
1610554665.983,49.316,26.855,22.949,4.395,-32.227,0
1610554665.987,314.941,25.391,19.531,50.781,29.297,0
1610554665.991,223.145,26.367,19.531,40.527,34.668,0
1610554665.995,-107.422,34.668,41.504,-19.531,48.828,0
1610554665.999,-250.000,37.598,55.176,-37.109,99.609,0
1610554666.002,10.742,30.273,36.133,0.977,91.309,0
1610554666.006,291.504,30.273,30.273,36.133,100.098,0
1610554666.010,232.422,35.645,40.039,28.809,72.754,0
1610554666.014,-63.965,45.898,44.922,2.930,22.949,0
1610554666.018,-251.953,41.016,40.039,-21.973,45.410,0
1610554666.021,-41.992,24.902,17.090,-5.371,60.059,0
1610554666.025,298.828,29.297,18.066,62.988,46.875,0
1610554666.029,289.062,40.039,38.086,81.543,15.625,0
1610554666.033,-42.969,33.691,37.598,11.230,88.867,0
1610554666.037,-275.391,28.320,31.250,-54.688,89.844,0
1610554666.041,-114.258,29.785,26.855,-31.250,11.230,0
1610554666.045,251.953,26.855,33.203,44.434,46.875,0
1610554666.048,301.270,23.438,28.320,57.129,72.754,0
1610554666.052,-4.883,31.250,17.090,1.465,43.945,0
1610554666.056,-247.070,45.410,37.109,-35.645,72.754,0
1610554666.060,-134.277,39.062,44.922,-13.672,70.801,0
1610554666.064,210.938,20.508,17.578,26.855,28.809,0
1610554666.066,310.547,23.926,10.254,35.645,18.555,0
1610554666.070,38.086,27.832,24.414,6.836,52.734,0
1610554666.074,-251.465,30.762,22.949,-27.832,66.895,0
1610554666.078,-176.270,34.668,8.301,-19.043,20.996,0
1610554666.082,183.594,37.598,11.719,55.176,-2.930,0
1610554666.086,306.641,39.551,30.762,64.941,20.020,0
1610554666.090,72.266,27.832,37.598,-0.488,58.105,0
1610554666.093,-228.516,31.738,47.852,-25.879,77.148,0
1610554666.097,-217.285,41.504,38.086,-12.695,41.992,0
1610554666.101,119.141,26.367,15.137,18.555,-16.113,0
1610554666.105,307.617,18.066,11.719,32.715,-14.160,0
1610554666.109,132.324,28.809,18.555,7.812,-29.297,0
1610554666.111,-187.012,40.039,26.367,-35.645,-61.523,0
1610554666.115,-218.750,35.645,16.602,-40.039,-59.082,0
1610554666.119,93.262,24.902,4.395,8.301,15.137,0
1610554666.123,318.359,27.344,16.113,46.387,34.668,0
1610554666.127,159.180,32.715,28.320,28.809,20.020,0
1610554666.131,-180.176,33.691,18.066,-20.996,10.742,0
1610554666.135,-241.699,32.715,19.043,-20.996,-13.672,0
1610554666.138,72.266,36.621,25.879,24.414,26.367,0
1610554666.142,315.430,41.016,16.113,52.246,70.801,0
1610554666.146,200.195,34.668,7.812,22.461,110.840,0
1610554666.150,-120.117,32.227,17.578,-37.598,53.711,0
1610554666.154,-281.738,34.668,26.367,-43.945,27.344,0
1610554666.156,-35.156,35.156,16.113,20.020,45.410,0
1610554666.160,306.152,31.738,12.695,65.430,16.113,0
1610554666.164,259.277,32.715,23.926,44.434,-0.977,0
1610554666.168,-78.125,44.434,32.715,3.906,-23.926,0
1610554666.172,-232.422,59.082,34.180,-0.488,41.992,0
1610554666.176,-10.742,49.316,18.066,25.391,61.035,0
1610554666.180,298.828,26.367,2.930,63.477,9.277,0
1610554666.183,263.184,27.832,11.230,39.062,28.320,0
1610554666.187,-65.430,42.480,24.414,-27.832,16.113,0
1610554666.191,-234.863,52.734,35.645,-30.273,-22.461,0
1610554666.195,-45.898,47.852,42.480,-2.441,-61.523,0
1610554666.199,266.602,38.086,25.391,28.809,-33.691,0
1610554666.200,282.715,32.227,20.020,31.250,27.344,0
1610554666.204,-13.184,39.062,31.738,6.348,-15.625,0
1610554666.208,-240.234,55.176,36.621,-18.555,-2.930,0
1610554666.212,-103.516,47.363,34.180,-1.465,57.129,0
1610554666.216,231.445,28.809,20.996,44.434,42.969,0
1610554666.220,288.086,27.832,5.371,42.480,-9.277,0
1610554666.224,17.578,35.156,18.066,-0.488,-36.133,0
1610554666.227,-241.699,50.293,42.969,-38.086,-10.742,0
1610554666.231,-136.719,50.293,42.969,1.465,36.133,0
1610554666.235,189.941,32.227,33.691,52.246,41.016,0
1610554666.239,307.129,33.691,33.691,37.109,62.012,0
1610554666.243,75.684,37.109,39.551,8.301,79.590,0
1610554666.246,-229.980,46.387,53.223,-11.719,29.297,0
1610554666.250,-175.293,49.316,53.711,-3.906,58.594,0
1610554666.254,133.789,27.832,34.668,38.086,55.664,0
1610554666.258,282.227,20.996,25.391,62.012,16.602,0
1610554666.262,113.281,29.785,12.207,21.484,7.812,0
1610554666.266,-198.242,42.969,16.113,-35.156,26.855,0
1610554666.270,-203.125,49.316,34.180,-1.465,1.953,0
1610554666.273,106.445,38.574,21.973,43.945,1.953,0
1610554666.277,297.363,28.320,7.812,50.293,66.895,0
1610554666.281,136.230,36.621,20.996,32.227,61.035,0
1610554666.285,-201.660,43.457,39.551,-21.973,22.949,0
1610554666.289,-247.070,49.805,46.875,-21.973,5.859,0
1610554666.291,81.055,46.387,40.527,21.484,-14.160,0
1610554666.295,315.918,27.832,22.461,54.688,10.254,0
1610554666.299,178.223,27.832,20.020,44.922,15.137,0
1610554666.303,-139.160,45.410,38.086,-18.066,-9.277,0
1610554666.307,-266.602,41.016,39.062,-26.367,32.227,0
1610554666.311,-18.066,29.297,21.484,30.762,41.992,0
1610554666.315,274.902,25.879,21.973,59.082,-5.371,0
1610554666.318,227.539,25.879,36.621,42.969,-50.293,0
1610554666.322,-111.328,33.691,38.574,-17.090,-36.133,0
1610554666.326,-277.832,36.133,26.367,-35.156,-11.230,0
1610554666.330,-30.273,34.668,20.508,28.320,6.348,0
1610554666.334,291.016,42.480,26.855,65.430,24.902,0
1610554666.337,249.023,35.156,20.996,35.156,-31.738,0
1610554666.341,-76.660,23.926,27.832,-21.484,-37.109,0
1610554666.345,-284.668,24.414,36.133,-40.039,-25.879,0
1610554666.349,-90.820,24.414,23.438,4.395,-20.020,0
1610554666.353,268.066,26.855,19.043,66.406,26.855,0
1610554666.357,280.273,29.785,17.578,50.293,80.078,0
1610554666.361,-21.973,33.691,23.926,-5.859,49.316,0
1610554666.364,-255.371,42.480,36.133,-28.320,-15.137,0
1610554666.368,-129.883,34.180,27.344,-18.555,-26.855,0
1610554666.372,204.590,31.250,19.043,47.852,-9.277,0
1610554666.376,301.270,35.156,15.137,53.711,6.348,0
1610554666.380,23.926,32.715,8.301,-9.766,19.043,0
1610554666.395,-265.625,37.109,17.578,-41.504,-18.066,0
1610554666.399,-152.832,36.133,28.809,-7.324,-60.059,0
1610554666.403,193.359,32.715,20.996,60.547,0.000,0
1610554666.407,296.875,34.668,26.855,79.590,39.551,0
1610554666.411,59.570,39.551,37.109,30.273,-0.977,0
1610554666.415,-232.910,41.992,35.645,-30.762,-5.371,0
1610554666.419,-201.660,39.551,24.902,-15.137,24.902,0
1610554666.422,151.367,44.922,22.461,41.992,39.551,0
1610554666.426,327.148,56.152,34.180,65.918,79.590,0
1610554666.430,108.887,43.457,28.809,22.461,92.285,0
1610554666.434,-224.609,31.738,27.344,-39.551,51.270,0
1610554666.438,-243.652,31.250,20.508,-22.461,67.383,0
1610554666.441,88.379,26.855,14.160,24.414,62.012,0
1610554666.445,284.668,26.855,18.555,39.551,18.555,0
1610554666.449,112.793,31.250,16.602,20.508,66.406,0
1610554666.453,-192.871,36.133,26.855,-31.250,80.078,0
1610554666.457,-233.398,42.969,29.785,-29.297,66.895,0
1610554666.461,77.148,48.340,29.297,25.391,44.434,0
1610554666.465,302.734,39.551,27.832,49.316,31.738,0
1610554666.468,166.504,29.785,22.461,39.062,-2.441,0
1610554666.472,-169.434,34.180,33.691,-10.742,-5.371,0
1610554666.476,-270.996,38.574,40.039,-31.250,15.625,0
1610554666.480,15.137,31.250,26.855,12.695,-8.301,0
1610554666.484,268.555,30.762,22.461,55.176,-27.832,0
1610554666.485,202.637,41.992,15.625,43.457,-19.043,0
1610554666.489,-118.164,43.457,19.531,1.465,17.578,0
1610554666.493,-278.809,39.551,29.785,-15.625,12.695,0
1610554666.497,-27.344,33.691,16.113,8.789,-5.371,0
1610554666.501,267.578,26.855,27.344,52.734,23.438,0
1610554666.505,255.859,37.109,42.969,59.570,67.383,0
1610554666.509,-52.246,46.875,39.062,5.859,87.891,0
1610554666.512,-279.785,37.598,37.598,-40.039,46.875,0
1610554666.516,-93.262,36.621,44.922,-2.441,54.688,0
1610554666.520,243.164,36.133,33.691,50.781,70.801,0
1610554666.524,263.672,39.062,29.297,45.410,-4.395,0
1610554666.528,-43.457,46.875,42.480,8.301,-44.922,0
1610554666.531,-267.090,44.922,37.598,-19.531,17.578,0
1610554666.535,-111.328,38.086,32.227,8.301,43.457,0
1610554666.539,220.215,36.621,43.457,69.336,18.555,0
1610554666.543,287.109,41.504,41.016,58.594,17.090,0
1610554666.547,15.625,39.551,32.715,6.836,8.789,0
1610554666.551,-257.324,44.922,44.434,-32.715,35.156,0
1610554666.555,-154.785,40.527,41.504,-25.391,57.129,0
1610554666.558,188.477,23.926,24.414,20.508,52.734,0
1610554666.562,285.645,26.855,11.719,30.762,0.977,0
1610554666.566,64.453,40.527,19.043,9.277,5.859,0
1610554666.570,-228.516,46.387,36.133,-26.367,25.391,0
1610554666.574,-176.758,41.016,43.457,-15.137,-33.203,0
1610554666.576,160.645,31.250,37.598,46.387,-63.965,0
1610554666.580,285.156,31.738,24.902,46.387,-1.465,0
1610554666.584,78.613,43.457,27.344,17.090,28.809,0
1610554666.588,-226.562,45.410,40.527,-23.438,-32.715,0
1610554666.592,-207.520,56.152,50.781,-8.301,-25.391,0
1610554666.596,124.512,48.340,45.410,38.574,5.371,0
1610554666.600,299.316,20.020,32.227,32.227,-15.137,0
1610554666.603,118.652,25.879,31.250,22.949,13.672,0
1610554666.607,-201.172,40.527,27.832,-16.602,93.262,0
1610554666.611,-216.309,41.992,22.461,-28.320,44.922,0
1610554666.615,61.035,38.574,33.691,29.785,36.621,0
1610554666.619,271.484,35.156,45.898,74.219,101.074,0
1610554666.621,175.293,36.621,52.246,35.156,50.781,0
1610554666.625,-137.695,51.270,57.617,-28.320,20.996,0
1610554666.629,-231.445,56.641,58.594,-18.066,33.691,0
1610554666.633,20.020,38.574,44.922,24.414,31.250,0
1610554666.637,288.574,31.250,26.367,32.227,65.918,0
1610554666.641,200.684,31.738,20.508,25.391,85.938,0
1610554666.645,-139.648,41.504,39.551,-1.953,90.820,0
1610554666.648,-258.301,47.852,48.828,-27.344,66.406,0
1610554666.652,-22.949,33.203,25.879,5.371,44.434,0
1610554666.656,264.160,27.832,15.625,41.992,99.609,0
1610554666.660,216.309,27.344,28.320,22.949,86.914,0
1610554666.664,-96.191,31.250,39.551,-16.113,34.668,0
1610554666.666,-271.484,31.738,40.039,-31.738,18.555,0
1610554666.670,-62.988,30.762,42.969,0.000,41.992,0
1610554666.674,256.836,32.227,37.109,39.551,38.086,0
1610554666.678,241.699,25.391,13.672,22.461,-7.324,0
1610554666.682,-43.945,30.273,15.625,-5.371,28.320,0
1610554666.686,-261.719,34.668,44.922,-19.043,73.730,0
1610554666.690,-112.305,36.621,48.828,-2.441,52.734,0
1610554666.693,229.980,36.621,32.227,26.367,-6.348,0
1610554666.697,270.508,32.715,31.738,12.207,-13.184,0
1610554666.701,-11.719,39.062,33.691,-15.137,5.371,0
1610554666.705,-241.211,46.875,41.992,-29.297,6.836,0
1610554666.709,-133.301,39.062,44.434,-19.043,-11.719,0
1610554666.710,190.918,30.762,30.273,43.457,2.441,0
1610554666.714,288.574,41.016,37.109,61.035,44.922,0
1610554666.718,49.316,42.969,45.410,0.000,52.246,0
1610554666.722,-225.098,43.945,40.527,-47.363,30.762,0
1610554666.726,-150.879,44.434,37.598,-20.020,46.387,0
1610554666.730,159.180,36.621,30.273,49.805,58.105,0
1610554666.734,273.438,42.480,22.949,54.199,32.715,0
1610554666.737,95.215,44.922,28.809,11.719,41.504,0
1610554666.741,-208.496,47.363,41.016,-12.695,27.832,0
1610554666.745,-193.359,54.688,46.387,0.000,14.648,0
1610554666.749,140.625,49.316,43.457,34.668,-2.441,0
1610554666.753,310.059,41.016,29.297,52.246,49.805,0
1610554666.771,141.113,49.316,40.527,26.855,98.145,0
1610554666.775,-184.570,61.523,52.734,-5.371,71.777,0
1610554666.779,-229.980,51.758,37.109,-6.348,102.539,0
1610554666.783,78.613,37.598,28.809,25.879,59.082,0
1610554666.787,300.781,38.574,32.715,53.711,4.883,0
1610554666.791,167.480,45.410,33.691,26.855,31.738,0
1610554666.795,-154.785,49.805,38.086,-18.066,20.996,0
1610554666.798,-233.887,43.945,31.738,-24.902,29.785,0
1610554666.802,57.617,46.875,27.344,25.391,38.574,0
1610554666.806,309.082,49.805,41.992,71.777,56.152,0
1610554666.810,194.336,37.109,25.391,32.227,69.336,0
1610554666.814,-118.164,41.016,25.391,-28.809,32.227,0
1610554666.816,-254.395,47.363,49.805,-24.902,-41.992,0
1610554666.820,-10.254,41.504,41.992,27.832,-42.480,0
1610554666.824,272.949,34.180,22.461,56.641,68.848,0
1610554666.828,209.961,37.109,24.902,43.457,98.633,0
1610554666.832,-76.172,60.547,46.875,19.531,29.785,0
1610554666.836,-248.047,63.965,53.711,-8.789,16.113,0
1610554666.840,-66.895,35.156,34.180,-10.742,52.734,0
1610554666.843,268.555,22.461,30.762,29.297,18.555,0
1610554666.847,268.066,39.551,39.551,49.316,19.043,0
1610554666.851,-35.645,49.805,49.316,7.812,29.297,0
1610554666.855,-261.719,34.668,45.898,-30.273,-15.137,0
1610554666.859,-102.051,30.762,40.527,-10.254,9.766,0
1610554666.862,258.301,34.180,23.926,29.785,29.297,0
1610554666.866,287.109,35.645,13.672,39.551,-4.883,0
1610554666.870,-28.809,39.062,33.203,2.930,2.441,0
1610554666.874,-263.184,41.992,47.852,-27.344,4.883,0
1610554666.878,-127.441,41.016,45.410,-3.906,33.691,0
1610554666.882,211.426,38.574,32.227,44.434,59.570,0
1610554666.886,288.086,37.109,24.414,48.340,47.852,0
1610554666.889,30.273,40.039,33.203,24.414,60.547,0
1610554666.893,-232.422,50.293,54.199,13.672,41.016,0
1610554666.897,-152.344,48.828,57.617,10.742,30.762,0
1610554666.901,169.922,30.762,39.062,21.973,26.855,0
1610554666.905,285.645,20.020,12.695,25.879,40.039,0
1610554666.906,69.336,21.484,13.184,7.324,49.316,0
1610554666.910,-237.305,33.691,38.574,-24.902,-13.672,0
1610554666.914,-194.336,42.480,30.762,-6.836,-23.926,0
1610554666.918,142.578,37.598,24.902,45.410,-4.883,0
1610554666.922,303.711,34.668,34.180,55.664,-28.320,0
1610554666.926,122.070,41.992,35.645,22.461,-21.973,0
1610554666.930,-192.383,45.898,41.504,-39.062,-101.074,0
1610554666.933,-209.961,41.016,37.598,-40.527,-120.605,0
1610554666.937,91.797,36.133,29.297,13.184,-3.906,0
1610554666.941,312.012,41.504,27.344,43.945,70.801,0
1610554666.945,164.062,38.086,27.344,29.297,58.594,0
1610554666.949,-180.664,34.180,38.574,-23.926,-19.043,0
1610554666.951,-250.488,38.574,42.480,-32.715,15.137,0
1610554666.955,41.504,37.109,41.992,25.879,76.660,0
1610554666.959,294.434,32.715,41.016,53.711,-4.395,0
1610554666.963,181.641,30.762,41.992,19.043,-49.805,0
1610554666.967,-138.672,37.598,45.898,-22.461,14.160,0
1610554666.971,-251.465,38.574,34.668,-27.344,56.641,0
1610554666.975,16.602,37.598,19.531,20.508,48.340,0
1610554666.978,297.852,41.016,29.785,61.035,43.457,0
1610554666.982,221.191,35.645,44.434,40.527,27.832,0
1610554666.986,-94.238,34.180,43.945,-1.953,44.434,0
1610554666.990,-251.953,39.062,40.527,-20.020,30.273,0
1610554666.994,-28.809,32.715,39.062,2.441,41.992,0
1610554666.996,270.508,23.926,30.762,52.734,57.129,0
1610554667.000,250.000,30.762,28.809,43.945,44.434,0
1610554667.004,-58.105,38.574,44.922,-6.348,15.625,0
1610554667.008,-258.789,34.180,44.922,-21.973,37.598,0
1610554667.012,-82.520,32.227,34.180,0.488,61.035,0
1610554667.016,252.930,38.086,32.715,45.410,27.832,0
1610554667.020,275.879,41.504,24.902,44.434,-30.762,0
1610554667.023,-21.484,40.527,24.902,-1.465,-48.340,0
1610554667.027,-245.605,42.480,33.203,-9.766,-57.129,0
1610554667.031,-122.070,30.273,20.508,12.695,-36.133,0
1610554667.035,200.684,20.996,-1.953,37.598,1.953,0
1610554667.039,269.531,31.250,5.859,28.320,-28.809,0
1610554667.041,18.066,40.039,41.504,-2.441,-58.105,0
1610554667.045,-246.094,42.480,54.199,-24.414,-35.156,0
1610554667.049,-159.668,37.598,50.781,-21.484,27.832,0
1610554667.053,186.523,31.738,43.457,25.391,28.809,0
1610554667.057,290.039,29.785,35.645,54.199,18.066,0
1610554667.061,46.875,35.645,35.645,26.855,-32.715,0
1610554667.065,-219.727,43.945,40.527,-21.973,-16.113,0
1610554667.068,-171.875,49.805,41.016,-22.461,17.578,0
1610554667.072,154.297,44.922,25.391,30.273,-18.066,0
1610554667.076,308.594,32.715,7.812,46.387,-10.254,0
1610554667.080,113.281,34.668,24.414,10.254,-31.250,0
1610554667.084,-187.012,40.039,47.852,-24.902,-22.949,0
1610554667.087,-210.449,39.551,40.039,-12.695,4.395,0
1610554667.091,91.309,31.250,25.391,19.531,4.883,0
1610554667.095,291.992,28.320,20.996,32.227,111.328,0
1610554667.099,143.555,40.039,33.203,28.809,99.609,0
1610554667.103,-190.430,43.945,44.434,-10.254,43.457,0
1610554667.107,-243.652,42.480,41.992,-27.832,15.625,0
1610554667.111,64.453,41.016,42.969,15.625,40.039,0
1610554667.114,306.152,41.992,31.738,49.316,93.750,0
1610554667.118,180.176,37.598,18.555,36.133,50.293,0
1610554667.122,-160.156,36.621,30.273,-17.578,30.762,0
1610554667.126,-258.789,38.574,32.227,-36.621,40.527,0
1610554667.130,22.949,34.668,23.438,4.395,75.195,0
1610554667.146,290.527,33.691,19.043,61.035,62.012,0
1610554667.150,208.008,33.691,18.555,40.039,74.219,0
1610554667.154,-100.098,42.480,27.832,-24.902,53.711,0
1610554667.158,-260.254,41.016,28.809,-36.621,-6.836,0
1610554667.162,-37.109,26.855,21.973,-0.488,28.809,0
1610554667.166,272.461,28.320,23.926,54.199,46.387,0
1610554667.170,240.234,39.062,32.715,46.387,16.113,0
1610554667.173,-69.336,38.574,33.203,-12.695,16.113,0
1610554667.177,-258.789,35.156,36.133,-33.691,47.363,0
1610554667.181,-74.219,35.156,28.809,-11.719,57.617,0
1610554667.185,249.512,31.738,16.602,38.086,63.965,0
1610554667.189,264.648,32.715,17.578,38.086,70.312,0
1610554667.191,-58.105,34.668,20.996,-12.207,34.180,0
1610554667.195,-266.113,36.621,25.879,-42.480,37.598,0
1610554667.199,-109.375,39.062,26.855,-13.672,68.359,0
1610554667.203,210.449,38.574,15.625,52.246,0.977,0
1610554667.207,291.504,36.133,25.879,57.617,-67.383,0
1610554667.211,10.742,38.086,28.809,-0.977,-18.066,0
1610554667.215,-229.492,58.594,44.922,-26.855,61.035,0
1610554667.218,-124.512,52.246,51.270,8.301,43.457,0
1610554667.222,174.805,27.344,23.438,44.434,4.883,0
1610554667.226,271.973,25.879,22.949,39.551,44.922,0
1610554667.230,41.992,26.855,30.762,0.488,61.523,0
1610554667.234,-223.145,34.668,32.227,-32.715,69.824,0
1610554667.236,-165.039,41.992,31.738,-14.648,7.324,0
1610554667.240,156.250,36.133,34.180,30.762,0.977,0
1610554667.244,306.641,35.645,32.715,42.969,71.777,0
1610554667.248,106.934,40.039,36.621,21.973,37.598,0
1610554667.252,-202.637,54.199,42.969,-16.602,33.691,0
1610554667.256,-185.547,64.453,25.879,-0.977,30.762,0
1610554667.260,116.211,43.457,14.160,41.504,-11.719,0
1610554667.263,268.066,30.762,25.391,38.086,12.207,0
1610554667.267,119.629,40.527,34.668,11.230,16.113,0
1610554667.271,-178.223,51.270,37.598,-27.344,-15.137,0
1610554667.275,-223.145,53.223,42.969,-25.879,-10.742,0
1610554667.279,86.426,45.410,45.410,35.156,-4.395,0
1610554667.281,302.734,36.621,38.574,50.781,36.133,0
1610554667.285,170.898,35.645,34.180,20.508,55.664,0
1610554667.289,-149.902,44.922,36.621,-11.719,46.875,0
1610554667.293,-243.652,50.781,39.551,-13.184,41.992,0
1610554667.297,44.434,45.898,30.273,36.621,40.039,0
1610554667.301,300.781,49.805,27.344,81.055,40.527,0
1610554667.305,217.773,50.781,35.156,54.688,24.902,0
1610554667.308,-118.652,42.480,39.551,-19.531,55.176,0
1610554667.312,-260.742,45.410,34.180,-33.203,31.250,0
1610554667.316,9.766,41.992,32.227,13.184,25.879,0
1610554667.320,296.875,37.109,24.902,59.570,46.387,0
1610554667.324,251.953,41.992,31.250,58.105,37.598,0
1610554667.327,-48.828,52.734,56.152,16.602,79.590,0
1610554667.331,-242.676,51.270,42.480,-27.832,101.074,0
1610554667.335,-44.922,42.969,20.020,-19.531,62.988,0
1610554667.339,261.719,38.086,29.785,36.133,32.227,0
1610554667.343,261.719,47.852,39.551,47.852,-0.977,0
1610554667.347,-29.785,53.711,38.574,1.465,40.039,0
1610554667.351,-256.348,41.016,37.598,-31.738,37.109,0
1610554667.354,-85.449,47.363,46.387,13.672,-39.062,0
1610554667.358,246.582,45.410,37.598,66.406,-0.977,0
1610554667.362,265.625,31.250,17.090,39.551,96.680,0
1610554667.366,4.883,35.645,21.973,1.465,56.152,0
1610554667.370,-225.586,43.945,32.715,-11.719,54.688,0
1610554667.385,-133.789,44.922,33.203,-0.977,7.812,0
1610554667.389,190.430,40.527,29.785,47.852,-15.137,0
1610554667.393,295.898,41.504,39.551,53.223,60.059,0
1610554667.397,60.059,46.387,45.410,16.602,0.977,0
1610554667.401,-211.426,55.664,44.434,1.953,-20.020,0
1610554667.405,-143.555,56.641,46.875,5.859,23.438,0
1610554667.409,174.316,35.645,35.156,39.062,-20.508,0
1610554667.412,289.062,27.832,30.762,43.457,-48.340,0
1610554667.416,80.078,35.645,28.809,-0.977,10.254,0
1610554667.420,-211.914,39.551,41.016,-28.320,52.246,0
1610554667.424,-191.406,41.992,49.805,-8.301,20.508,0
1610554667.428,125.488,35.645,36.133,41.016,19.531,0
1610554667.430,301.270,34.668,23.926,55.176,10.254,0
1610554667.434,133.301,40.039,20.996,29.297,-0.977,0
1610554667.438,-179.199,46.875,30.762,-5.859,5.859,0
1610554667.442,-230.957,46.875,35.645,-12.207,-38.574,0
1610554667.446,93.750,45.898,35.645,50.781,-56.152,0
1610554667.450,321.289,43.945,33.691,77.148,-34.668,0
1610554667.454,156.738,32.227,29.297,19.043,-4.395,0
1610554667.457,-157.715,34.668,32.715,-26.855,-12.695,0
1610554667.461,-247.070,33.691,38.574,-34.668,26.367,0
1610554667.465,23.438,33.203,36.133,3.906,81.055,0
1610554667.469,281.250,42.480,37.598,50.293,108.398,0
1610554667.473,200.195,42.480,29.785,40.527,73.730,0
1610554667.460,-120.117,45.410,32.227,-10.742,58.105,0
1610554667.464,-260.254,49.316,40.039,-22.461,27.832,0
1610554667.468,-12.207,46.387,27.344,28.320,-8.301,0
1610554667.472,269.043,38.086,24.902,60.059,53.711,0
1610554667.476,228.027,45.898,42.969,45.898,93.750,0
1610554667.480,-76.172,51.758,60.059,2.441,90.332,0
1610554667.484,-256.836,39.551,47.852,-21.973,62.988,0
1610554667.487,-43.457,37.598,34.180,10.742,-31.738,0
1610554667.491,262.695,37.598,32.227,51.758,-70.801,0
1610554667.495,254.395,44.434,41.016,51.270,-16.113,0
1610554667.499,-46.387,54.688,43.457,12.695,51.758,0
1610554667.503,-253.418,50.781,42.480,-6.836,-10.742,0
1610554667.521,-83.496,41.992,43.457,17.578,-41.504,0
1610554667.525,239.746,39.062,34.668,63.477,-62.500,0
1610554667.529,278.320,46.875,36.621,66.406,-51.270,0
1610554667.533,6.836,48.828,42.480,9.766,9.766,0
1610554667.537,-237.793,40.039,37.598,-41.504,-4.395,0
1610554667.541,-118.164,44.434,33.691,-7.324,19.043,0
1610554667.545,209.473,40.039,29.785,46.875,67.383,0
1610554667.548,272.949,29.785,25.879,36.133,84.473,0
1610554667.552,48.340,38.574,27.344,11.230,13.672,0
1610554667.556,-212.402,44.434,34.180,-21.973,-63.477,0
1610554667.560,-139.648,36.133,35.156,-15.625,-7.324,0
1610554667.564,190.918,31.738,27.832,33.691,95.703,0
1610554667.567,306.641,34.668,31.738,49.316,69.824,0
1610554667.571,84.961,39.551,42.969,25.391,8.301,0
1610554667.575,-208.008,46.875,49.316,-16.602,26.855,0
1610554667.579,-183.594,42.969,35.156,-7.812,33.691,0
1610554667.583,128.906,36.621,18.066,41.016,80.078,0
1610554667.587,284.668,31.250,19.043,56.641,38.574,0
1610554667.591,110.352,38.574,33.203,37.598,-26.367,0
1610554667.594,-188.477,46.875,47.363,-5.859,14.648,0
1610554667.598,-210.938,41.504,47.852,-8.301,43.457,0
1610554667.602,90.332,35.156,35.645,30.762,28.809,0
1610554667.606,283.203,27.344,22.461,52.246,2.441,0
1610554667.610,146.484,29.297,20.508,40.039,25.879,0
1610554667.611,-163.086,41.504,31.738,-21.973,14.160,0
