timestamps,TP9,AF7,AF8,TP10,Right AUX,Marker0
1610547929.579,130.371,33.203,40.527,74.219,29.297,0
1610547929.583,25.391,35.645,23.438,36.621,39.062,0
1610547929.587,-56.641,32.227,28.320,-15.137,29.297,0
1610547929.591,-20.020,34.668,28.320,2.441,-7.324,0
1610547929.595,99.609,33.203,18.555,61.523,-13.672,0
1610547929.599,130.859,29.785,18.555,76.660,3.418,0
1610547929.603,29.785,35.156,26.367,33.203,26.367,0
1610547929.606,-61.523,33.203,38.086,-28.320,-23.926,0
1610547929.610,-45.410,29.297,36.621,-9.277,-15.625,0
1610547929.614,70.312,31.738,33.203,64.941,42.480,0
1610547929.618,132.324,29.785,36.133,67.871,63.965,0
1610547929.622,46.875,29.297,38.086,18.066,43.945,0
1610547929.624,-53.223,32.227,32.715,-20.508,-29.297,0
1610547929.628,-50.293,30.273,21.484,-11.230,3.418,0
1610547929.632,57.617,24.414,22.949,50.293,52.246,0
1610547929.636,131.348,24.902,26.367,91.309,28.320,0
1610547929.640,55.176,31.738,15.137,52.246,20.508,0
1610547929.644,-46.387,34.180,23.438,-9.277,14.648,0
1610547929.648,-51.758,33.203,42.969,-10.254,65.918,0
1610547929.651,34.668,25.879,43.457,45.410,81.543,0
1610547929.655,118.652,26.367,42.480,79.102,57.617,0
1610547929.659,75.195,35.645,37.598,43.457,37.109,0
1610547929.663,-39.551,31.250,23.438,-19.531,-25.879,0
1610547929.667,-53.223,29.785,20.020,-24.902,-25.879,0
1610547929.670,38.574,35.645,24.902,33.691,83.496,0
1610547929.674,137.207,37.598,31.250,76.660,115.234,0
1610547929.678,107.422,31.738,27.832,59.570,77.148,0
1610547929.682,-21.973,27.344,22.949,13.184,104.980,0
1610547929.686,-62.012,29.297,25.391,-7.324,91.797,0
1610547929.690,29.297,29.785,24.902,28.809,67.871,0
1610547929.694,132.324,29.785,31.250,76.660,89.844,0
1610547929.697,108.887,31.250,32.715,50.293,68.848,0
1610547929.701,-18.066,31.738,34.180,-17.090,21.484,0
1610547929.705,-73.730,32.227,34.668,-34.180,10.254,0
1610547929.709,-2.441,26.855,20.508,11.719,18.555,0
1610547929.713,107.910,25.391,16.113,68.848,24.414,0
1610547929.714,109.375,30.762,32.715,63.965,17.090,0
1610547929.718,-2.441,34.180,35.156,4.395,23.926,0
1610547929.722,-75.684,32.715,27.344,-30.762,36.621,0
1610547929.726,-21.973,30.762,25.391,9.766,-7.812,0
1610547929.730,103.027,32.227,30.273,73.242,61.523,0
1610547929.734,124.512,33.203,28.809,76.172,83.496,0
1610547929.738,23.438,33.691,22.461,24.902,20.508,0
1610547929.741,-55.176,26.855,23.926,-25.879,11.719,0
1610547929.745,-16.602,23.926,20.508,-7.324,-16.602,0
1610547929.749,102.051,31.738,25.391,65.918,7.324,0
1610547929.753,145.508,34.668,33.691,89.355,69.824,0
1610547929.757,34.180,32.715,33.203,31.250,29.785,0
1610547929.760,-70.312,27.344,38.574,-20.508,9.766,0
1610547929.764,-35.645,27.832,40.039,6.348,29.785,0
1610547929.768,81.055,27.344,30.762,65.918,23.438,0
1610547929.772,134.277,22.949,26.367,80.566,58.105,0
1610547929.776,50.293,28.320,26.367,34.668,-16.602,0
1610547929.780,-53.223,30.273,32.715,-8.789,-29.785,0
1610547929.784,-44.434,29.297,28.809,0.488,37.109,0
1610547929.787,63.965,28.809,26.367,47.852,23.438,0
1610547929.791,130.859,31.738,32.227,73.242,-12.695,0
1610547929.795,59.082,33.691,35.156,38.086,41.992,0
1610547929.799,-33.691,31.738,41.016,-4.883,62.500,0
1610547929.803,-44.434,34.180,44.434,-1.465,-29.785,0
1610547929.804,42.969,36.621,34.668,48.828,-29.785,0
1610547929.808,130.859,30.273,23.926,74.219,32.715,0
1610547929.812,72.754,31.738,29.297,37.598,37.598,0
1610547929.816,-30.762,41.504,39.551,-7.324,25.391,0
1610547929.820,-46.387,40.527,37.598,-6.348,72.266,0
1610547929.824,38.574,33.691,27.344,43.457,82.520,0
1610547929.828,130.371,29.785,26.855,77.148,12.207,0
1610547929.831,86.426,26.367,32.227,44.922,30.273,0
1610547929.835,-30.273,27.344,31.738,-14.648,30.762,0
1610547929.839,-61.523,30.273,32.715,-19.043,20.996,0
1610547929.843,18.066,31.738,30.762,37.598,34.668,0
1610547929.847,128.418,35.156,30.273,79.590,-7.812,0
1610547929.850,103.027,30.273,27.344,57.129,-19.043,0
1610547929.854,-20.020,26.855,29.785,2.930,25.391,0
1610547929.858,-71.777,31.250,36.133,-21.973,25.879,0
1610547929.862,0.977,31.250,34.668,13.672,10.254,0
1610547929.866,117.188,36.621,28.320,78.613,85.449,0
1610547929.870,115.234,37.109,24.902,72.266,86.426,0
1610547929.874,-3.418,28.320,32.715,5.371,98.145,0
1610547929.877,-74.219,27.344,33.691,-31.250,74.707,0
1610547929.881,-16.602,30.762,30.762,-1.953,13.184,0
1610547929.885,102.051,33.203,33.203,55.176,19.043,0
1610547929.889,121.582,31.250,27.832,70.312,64.453,0
1610547929.893,10.742,30.762,23.926,18.555,73.730,0
1610547929.896,-69.336,30.762,25.879,-32.227,33.691,0
1610547929.900,-28.809,27.832,21.973,-11.719,52.246,0
1610547929.904,85.938,28.809,21.973,50.293,10.742,0
1610547929.908,124.023,32.227,29.297,71.777,-23.438,0
1610547929.912,22.949,34.668,22.949,24.902,-26.855,0
1610547929.916,-66.406,36.621,12.695,-20.996,-52.246,0
1610547929.920,-44.434,28.809,14.648,-3.418,3.906,0
1610547929.923,64.941,23.926,24.902,49.805,29.785,0
1610547929.927,123.047,25.879,24.414,64.453,40.527,0
1610547929.931,38.574,25.879,22.949,23.438,59.570,0
1610547929.935,-62.500,31.738,25.879,-20.020,41.016,0
1610547929.939,-41.016,31.250,16.113,-26.855,45.898,0
1610547929.954,71.289,27.832,23.438,26.855,93.750,0
1610547929.958,133.301,29.785,33.691,69.824,59.082,0
1610547929.962,46.875,27.832,30.273,28.320,-8.301,0
1610547929.966,-70.312,26.855,19.531,-20.020,64.453,0
1610547929.970,-73.730,29.785,12.695,-6.348,59.570,0
1610547929.974,36.133,30.273,15.137,41.504,20.020,0
1610547929.978,124.023,32.227,27.344,76.172,71.289,0
1610547929.981,66.406,32.227,37.598,39.551,78.125,0
1610547929.985,-40.527,33.691,31.738,-19.531,35.156,0
1610547929.989,-62.500,33.203,24.902,-16.602,-5.371,0
1610547929.993,27.832,32.715,23.926,30.273,-5.859,0
1610547929.997,129.395,34.668,31.738,74.219,47.363,0
1610547929.999,82.520,27.832,31.250,53.223,-14.160,0
1610547930.003,-44.434,25.391,20.996,-8.789,-64.453,0
1610547930.007,-71.777,32.227,31.250,-25.391,-7.812,0
1610547930.011,21.973,36.133,39.551,20.996,29.297,0
1610547930.015,127.930,41.016,27.344,74.707,55.664,0
1610547930.019,93.262,34.180,17.578,63.477,22.461,0
1610547930.023,-30.762,29.297,16.602,0.000,30.762,0
1610547930.026,-71.289,28.809,16.602,-26.367,48.340,0
1610547930.030,-2.441,24.414,24.902,20.996,66.406,0
1610547930.034,110.352,27.344,30.273,65.918,108.398,0
1610547930.038,110.840,28.320,29.297,53.223,121.094,0
1610547930.042,-10.742,31.738,30.273,1.465,77.148,0
1610547930.044,-69.336,36.621,26.367,-26.855,11.719,0
1610547930.048,-2.930,33.203,23.926,7.812,16.113,0
1610547930.052,107.910,30.762,28.809,70.801,-29.785,0
1610547930.056,124.023,32.715,40.527,83.984,-19.043,0
1610547930.060,15.137,36.621,35.645,32.715,-19.531,0
1610547930.064,-56.641,38.086,30.762,-11.719,42.969,0
1610547930.068,-9.766,34.668,39.551,9.766,107.910,0
1610547930.071,88.867,30.762,30.762,57.617,21.973,0
1610547930.075,118.652,27.832,25.879,68.848,16.113,0
1610547930.079,24.414,32.227,37.109,23.438,37.598,0
1610547930.083,-61.523,35.156,35.645,-25.391,14.160,0
1610547930.087,-31.738,30.273,26.367,-8.789,1.953,0
1610547930.089,84.961,31.738,21.484,48.340,15.137,0
1610547930.093,131.836,32.227,22.461,74.707,7.324,0
1610547930.097,41.016,24.902,25.879,37.598,-25.879,0
1610547930.101,-54.688,25.879,31.250,-7.324,26.855,0
1610547930.105,-35.156,33.203,33.203,6.836,41.504,0
1610547930.109,79.102,33.691,37.598,58.594,8.789,0
1610547930.113,142.090,28.320,37.598,72.266,25.879,0
1610547930.116,59.082,27.344,37.109,36.621,-55.664,0
1610547930.120,-42.480,31.250,35.645,-16.113,-66.406,0
1610547930.124,-38.574,31.738,28.809,-16.602,-30.762,0
1610547930.128,63.477,33.203,34.180,46.875,-29.785,0
1610547930.132,136.230,29.297,29.785,80.566,16.113,0
1610547930.135,70.801,27.344,15.137,41.504,62.500,0
1610547930.139,-35.156,33.203,17.578,-10.742,47.363,0
1610547930.143,-52.734,28.809,16.113,-11.719,34.668,0
1610547930.147,40.039,22.949,22.949,40.039,57.129,0
1610547930.151,133.301,27.344,46.875,81.543,60.547,0
1610547930.155,82.520,31.738,52.246,51.270,55.664,0
1610547930.159,-33.691,27.832,46.875,-9.766,-3.418,0
1610547930.162,-60.547,26.367,38.086,-24.414,12.207,0
1610547930.166,27.344,33.203,33.691,30.762,109.863,0
1610547930.170,134.277,35.156,34.180,76.660,96.191,0
1610547930.174,99.121,34.180,28.320,60.547,1.953,0
1610547930.178,-28.320,33.203,23.926,0.488,20.020,0
1610547930.179,-65.430,33.203,26.367,-24.414,24.902,0
1610547930.183,7.812,32.227,26.367,22.949,-19.531,0
1610547930.187,106.445,27.832,23.438,71.777,24.902,0
1610547930.191,102.539,26.855,22.461,64.453,70.801,0
1610547930.195,-20.996,25.391,18.555,4.883,6.348,0
1610547930.199,-86.914,26.367,25.879,-25.391,-42.969,0
1610547930.203,-15.137,28.320,37.598,11.719,-11.230,0
1610547930.206,108.398,29.785,41.992,59.082,30.762,0
1610547930.210,110.840,31.250,44.434,70.801,47.852,0
1610547930.214,-4.883,32.227,46.387,26.367,29.785,0
1610547930.218,-74.707,32.715,36.133,-27.344,-3.418,0
1610547930.222,-24.414,31.250,26.367,-2.930,-38.574,0
1610547930.225,91.797,32.227,30.762,58.105,9.766,0
1610547930.229,114.746,33.203,30.762,62.012,87.402,0
1610547930.233,1.953,30.273,28.320,6.348,65.918,0
1610547930.237,-77.637,25.391,33.691,-29.297,22.949,0
1610547930.241,-45.898,23.438,30.762,-9.277,11.719,0
1610547930.245,58.594,30.273,32.715,35.156,29.785,0
1610547930.249,96.680,39.062,38.086,44.922,37.109,0
1610547930.252,2.441,44.434,39.551,0.977,43.945,0
1610547930.256,-91.309,44.434,37.598,-43.457,7.324,0
1610547930.260,-77.637,45.410,28.809,-36.133,-13.672,0
1610547930.264,23.926,48.828,23.926,7.324,71.777,0
1610547930.268,73.242,53.711,21.973,20.020,71.777,0
1610547930.285,-17.090,57.129,20.508,-34.668,28.320,0
1610547930.289,-136.719,62.988,25.879,-92.773,17.578,0
1610547930.293,-141.602,67.383,28.809,-87.402,7.324,0
1610547930.297,-37.109,67.383,27.344,-47.852,79.102,0
1610547930.301,35.156,72.754,25.879,-28.809,129.395,0
1610547930.305,-39.062,72.754,21.484,-61.035,67.871,0
1610547930.309,-150.391,76.660,24.902,-120.117,24.414,0
1610547930.312,-159.180,78.613,24.902,-122.559,20.020,0
1610547930.316,-61.035,75.684,17.090,-62.012,30.273,0
1610547930.320,25.391,79.102,10.254,-30.273,29.785,0
1610547930.324,-33.691,80.566,7.324,-56.152,74.219,0
1610547930.328,-151.367,77.637,15.137,-106.445,52.246,0
1610547930.330,-174.805,75.195,33.691,-126.953,28.809,0
1610547930.334,-83.984,71.777,43.945,-86.426,77.148,0
1610547930.338,24.902,71.777,42.480,-34.668,1.953,0
1610547930.342,-8.789,71.289,38.086,-44.434,-23.926,0
1610547930.346,-117.676,70.801,37.598,-92.285,-13.184,0
1610547930.350,-147.461,64.941,32.715,-99.121,54.199,0
1610547930.354,-72.754,57.617,29.297,-54.199,84.473,0
1610547930.357,44.922,51.758,25.391,-10.254,83.496,0
1610547930.361,41.016,52.246,25.391,-17.578,93.262,0
1610547930.365,-62.012,56.152,33.203,-53.711,127.441,0
1610547930.369,-94.727,52.246,30.273,-62.988,100.586,0
1610547930.373,-36.133,46.387,25.879,-26.855,31.250,0
1610547930.375,64.941,38.086,25.391,23.438,28.809,0
1610547930.379,83.008,34.180,20.996,43.457,54.199,0
1610547930.383,-18.555,35.645,20.508,1.465,60.059,0
1610547930.387,-78.613,33.203,33.203,-42.480,20.996,0
1610547930.391,-17.578,29.297,36.621,-10.254,8.301,0
1610547930.395,98.145,28.809,34.180,60.059,55.664,0
1610547930.399,125.000,26.855,37.598,77.637,83.496,0
1610547930.402,28.320,23.438,33.203,25.879,47.363,0
1610547930.406,-47.363,24.414,35.156,2.441,59.570,0
1610547930.410,-2.930,21.484,40.527,36.621,34.180,0
1610547930.414,123.047,13.184,36.621,92.285,31.250,0
1610547930.418,172.852,16.113,34.180,107.910,86.426,0
1610547930.419,64.453,15.137,26.367,55.664,76.660,0
1610547930.423,-29.785,16.113,17.578,21.484,64.453,0
1610547930.427,3.906,21.484,22.461,34.668,63.477,0
1610547930.431,120.117,20.020,33.203,82.031,65.918,0
1610547930.435,182.129,15.625,35.156,110.352,31.250,0
1610547930.439,102.539,19.043,23.926,79.590,-8.301,0
1610547930.443,-1.953,20.508,19.531,30.762,-38.574,0
1610547930.446,8.301,18.066,32.227,44.922,22.461,0
1610547930.450,118.164,18.555,40.527,101.562,49.805,0
1610547930.454,190.918,18.066,34.180,119.141,11.719,0
1610547930.458,125.000,16.113,25.391,84.473,0.977,0
1610547930.462,11.230,14.648,23.438,48.340,29.297,0
1610547930.464,-7.324,11.719,23.926,60.059,57.617,0
1610547930.468,96.191,10.254,24.414,95.703,47.852,0
1610547930.472,187.988,10.742,34.668,121.582,12.207,0
1610547930.476,131.348,8.789,30.273,94.727,23.438,0
1610547930.480,19.531,9.277,21.484,44.434,42.969,0
1610547930.484,-9.277,16.113,32.227,40.527,47.852,0
1610547930.488,73.242,19.531,32.227,88.379,-21.973,0
1610547930.491,168.457,12.207,29.297,126.953,-22.949,0
1610547930.495,131.348,10.742,36.621,102.539,55.664,0
1610547930.499,19.531,13.184,41.016,45.410,42.480,0
1610547930.503,-16.113,12.695,33.203,30.762,73.730,0
1610547930.507,57.617,15.137,26.855,80.078,32.227,0
1610547930.509,151.367,13.672,25.391,117.676,-82.520,0
1610547930.513,134.766,11.230,26.367,101.074,-18.066,0
1610547930.517,25.391,14.648,34.668,45.898,94.238,0
1610547930.521,-24.902,16.113,28.809,15.137,52.734,0
1610547930.525,42.480,11.719,23.438,61.035,45.410,0
1610547930.529,148.926,9.277,39.062,124.512,24.902,0
1610547930.533,151.855,16.113,38.574,124.023,-51.270,0
1610547930.536,31.738,15.625,20.508,44.922,-11.719,0
1610547930.540,-40.039,10.254,25.391,-2.930,7.812,0
1610547930.544,19.531,13.672,35.645,33.203,-34.668,0
1610547930.548,143.066,16.602,32.715,97.168,11.230,0
1610547930.552,163.086,17.578,30.273,103.516,78.125,0
1610547930.555,43.945,20.996,29.785,51.758,34.668,0
1610547930.559,-35.156,21.484,25.391,13.184,13.672,0
1610547930.563,-1.953,18.066,25.391,26.855,4.883,0
1610547930.567,102.051,14.160,24.414,74.219,36.133,0
1610547930.571,155.273,19.531,26.367,96.191,35.156,0
1610547930.575,54.688,16.602,22.461,51.758,-41.992,0
1610547930.579,-44.434,10.742,22.949,1.465,-48.828,0
1610547930.582,-19.531,16.602,29.297,15.625,49.316,0
1610547930.586,96.191,20.508,31.250,80.566,119.141,0
1610547930.590,156.738,24.414,32.715,104.492,60.547,0
1610547930.594,66.895,28.320,26.367,62.500,-8.789,0
1610547930.598,-34.180,27.832,23.926,11.230,-12.207,0
1610547930.601,-24.414,27.344,33.203,15.625,15.137,0
1610547930.605,80.566,24.414,30.762,65.918,49.805,0
1610547930.609,159.668,27.344,29.785,105.957,28.320,0
1610547930.613,87.402,30.762,33.203,68.848,38.086,0
1610547930.617,-33.203,25.879,30.762,0.977,35.156,0
1610547930.621,-40.527,23.438,26.367,5.371,26.367,0
1610547930.625,60.547,19.043,28.320,47.363,3.418,0
1610547930.628,144.043,19.043,40.527,83.008,-28.320,0
1610547930.632,89.355,24.902,50.293,66.895,-5.859,0
1610547930.636,-29.297,24.414,49.805,6.348,-54.199,0
1610547930.640,-46.875,23.438,43.945,-6.348,-34.180,0
1610547930.644,51.758,29.297,40.039,51.758,0.977,0
1610547930.645,145.996,33.203,37.598,97.656,38.574,0
1610547930.649,97.168,33.203,23.438,75.195,20.020,0
1610547930.653,-20.996,30.273,22.949,2.441,-13.672,0
1610547930.657,-60.547,27.832,37.598,-24.414,-3.418,0
1610547930.661,16.113,28.809,28.320,30.762,-0.488,0
1610547930.665,131.348,24.902,23.926,81.543,0.488,0
1610547930.669,115.234,25.391,39.551,65.430,25.391,0
1610547930.672,-6.836,29.297,35.645,4.395,56.641,0
1610547930.676,-63.477,26.367,22.461,-20.996,50.293,0
1610547930.680,12.207,23.926,21.484,14.160,91.309,0
1610547930.684,125.488,30.273,28.320,75.684,121.582,0
1610547930.688,123.047,30.762,19.043,73.730,108.398,0
1610547930.705,11.719,24.902,18.555,22.949,51.270,0
1610547930.709,-55.664,25.391,28.320,2.441,-20.020,0
1610547930.713,5.859,28.320,30.273,32.227,1.953,0
1610547930.717,108.398,25.391,37.109,82.520,9.766,0
1610547930.721,122.070,21.973,37.109,80.078,-12.207,0
1610547930.725,21.973,25.391,34.180,19.043,23.438,0
1610547930.729,-60.059,27.344,35.645,-21.484,29.297,0
1610547930.732,-12.695,30.273,30.762,12.207,2.930,0
1610547930.736,104.980,33.691,20.996,72.754,48.828,0
1610547930.740,135.254,26.367,20.508,83.496,72.754,0
1610547930.744,39.062,24.902,31.738,29.785,78.125,0
1610547930.748,-53.711,28.809,31.738,-13.184,97.168,0
1610547930.750,-28.809,24.902,30.762,1.465,42.969,0
1610547930.754,85.449,24.414,46.875,58.594,-2.930,0
1610547930.758,140.625,30.273,46.875,84.961,100.586,0
1610547930.762,52.246,33.691,40.039,35.645,93.262,0
1610547930.766,-50.293,28.809,40.527,-25.879,72.266,0
1610547930.770,-36.133,19.043,23.926,-10.742,12.207,0
1610547930.774,78.125,22.949,15.625,64.941,-67.383,0
1610547930.777,144.043,28.320,31.738,81.055,16.113,0
1610547930.781,60.547,27.832,42.969,32.227,26.855,0
1610547930.785,-53.711,27.832,36.621,-21.484,8.301,0
1610547930.789,-53.223,31.738,31.738,-12.207,13.672,0
1610547930.793,57.617,32.227,35.156,62.500,10.742,0
1610547930.795,145.020,29.785,34.180,101.074,26.855,0
1610547930.799,84.961,32.227,36.133,63.965,7.812,99
1610547930.803,-38.086,29.785,38.574,2.930,-2.930,0
1610547930.807,-56.152,25.391,30.762,-10.254,9.277,0
1610547930.811,40.527,24.902,18.066,38.574,-13.672,0
1610547930.815,131.836,24.902,16.113,83.984,11.719,0
1610547930.819,93.262,29.785,26.855,58.594,36.621,0
1610547930.822,-25.391,26.367,30.762,0.488,26.367,0
1610547930.826,-65.430,23.438,35.645,-14.160,19.531,0
1610547930.830,21.973,29.297,43.457,37.109,0.977,0
1610547930.834,132.812,30.273,35.645,91.309,41.016,0
1610547930.838,108.887,28.320,23.926,75.684,83.984,0
1610547930.840,-8.301,38.086,29.297,20.020,10.742,0
1610547930.844,-59.082,39.062,26.855,-8.301,8.301,0
1610547930.848,8.301,31.738,24.414,30.762,58.594,0
1610547930.852,119.629,27.832,27.832,88.379,47.852,0
1610547930.856,111.328,22.949,29.785,69.824,24.902,0
1610547930.860,-2.441,25.391,39.062,2.930,-12.695,0
1610547930.864,-63.477,30.273,39.062,-25.879,-33.203,0
1610547930.867,-14.160,31.738,35.645,4.883,-97.168,0
1610547930.871,105.957,33.203,35.645,65.430,-21.973,0
1610547930.875,132.812,32.715,26.367,72.266,49.316,0
1610547930.879,21.484,31.250,21.484,17.578,-2.441,0
1610547930.883,-60.059,35.645,29.785,-6.836,20.996,0
1610547930.885,-20.508,39.062,41.016,27.832,27.832,0
1610547930.889,97.656,31.250,29.297,79.102,41.992,0
1610547930.893,126.953,21.484,20.508,82.031,54.688,0
1610547930.897,17.090,18.555,38.574,22.949,64.453,0
1610547930.901,-71.777,23.438,38.574,-25.391,28.320,0
1610547930.905,-31.250,29.297,36.133,0.000,-24.414,0
1610547930.909,84.473,32.227,41.504,56.152,16.602,0
1610547930.912,137.695,35.156,40.039,80.566,125.977,0
1610547930.916,47.363,37.598,32.715,32.715,138.184,0
1610547930.920,-59.570,36.133,24.414,-15.625,31.250,0
1610547930.924,-47.852,34.180,24.414,0.488,-32.227,0
1610547930.928,62.500,27.344,28.320,55.176,38.086,0
1610547930.930,130.371,23.438,35.645,78.125,103.516,0
1610547930.934,51.270,27.832,37.109,44.922,71.777,0
1610547930.938,-46.875,35.156,39.551,-5.859,-20.996,0
1610547930.942,-50.293,34.668,35.645,-8.789,-12.695,0
1610547930.946,43.457,26.855,25.391,49.805,61.523,0
1610547930.950,131.836,31.250,27.832,83.984,51.758,0
1610547930.954,79.590,39.551,28.320,53.711,59.082,0
1610547930.957,-42.969,35.156,25.879,-6.836,27.344,0
1610547930.961,-59.082,32.227,29.297,-7.324,37.109,0
1610547930.965,42.969,29.785,27.832,47.852,45.898,0
1610547930.969,128.906,28.320,24.902,73.242,39.551,0
1610547930.973,88.867,35.156,29.785,52.734,66.406,0
1610547930.975,-27.344,33.691,31.250,-2.441,22.461,0
1610547930.979,-60.547,30.762,38.574,-20.020,4.883,0
1610547930.983,24.902,32.715,38.574,38.574,53.223,0
1610547930.987,131.836,36.621,30.273,81.543,65.430,0
1610547930.991,106.445,38.086,33.691,51.270,-15.625,0
1610547930.995,-17.578,37.109,35.156,0.977,-26.367,0
1610547930.999,-67.383,34.180,38.086,-19.531,-40.039,0
1610547931.002,10.254,29.785,43.457,19.043,-23.926,0
1610547931.006,119.629,23.438,35.156,68.848,39.062,0
1610547931.010,109.375,26.855,28.320,62.988,20.996,0
1610547931.014,0.977,36.621,32.227,23.926,-10.742,0
1610547931.018,-52.246,33.203,38.086,-14.160,0.488,0
1610547931.019,2.441,27.832,41.992,-1.953,34.180,0
1610547931.023,107.910,29.297,41.992,60.059,41.992,0
1610547931.027,122.559,33.203,35.156,69.336,39.062,0
1610547931.031,9.766,32.715,25.391,13.672,18.555,0
1610547931.035,-65.918,27.344,24.414,-30.273,-4.395,0
1610547931.039,-19.531,26.367,30.273,-3.906,-15.137,0
1610547931.043,91.309,32.227,29.297,51.758,46.875,0
1610547931.046,124.512,31.738,27.832,63.477,65.430,0
1610547931.050,21.484,27.344,33.203,20.508,-9.277,0
1610547931.054,-69.336,26.855,30.273,-31.738,7.812,0
1610547931.058,-38.574,26.855,35.645,-8.301,38.086,0
1610547931.062,79.590,32.715,42.480,70.801,23.438,0
1610547931.079,129.883,32.715,35.645,82.031,29.785,0
1610547931.083,34.180,28.320,27.832,20.996,25.879,0
1610547931.087,-65.430,31.250,24.902,-22.461,34.180,0
1610547931.091,-47.852,26.855,26.855,-9.766,-41.504,0
1610547931.095,65.430,24.414,29.297,47.852,13.184,0
1610547931.099,129.395,28.320,28.809,82.031,109.375,0
1610547931.103,54.199,25.879,23.926,36.621,50.293,0
1610547931.106,-47.852,30.762,27.344,-19.531,17.578,0
1610547931.110,-50.781,32.227,37.109,-0.488,-8.301,0
1610547931.114,55.176,28.320,40.039,57.129,8.789,0
1610547931.118,132.324,28.320,34.180,81.543,75.195,0
1610547931.122,65.918,29.297,26.855,46.875,0.488,0
1610547931.125,-44.434,28.320,23.926,-17.578,-83.984,0
1610547931.129,-55.176,29.785,30.762,-24.414,30.762,0
1610547931.133,43.457,36.133,37.598,35.156,13.184,0
1610547931.137,135.742,36.621,32.227,76.660,-17.090,0
1610547931.141,86.426,29.297,18.066,45.898,75.684,0
1610547931.145,-34.180,29.297,14.160,-13.184,45.410,0
1610547931.149,-56.152,33.691,30.273,-20.508,-3.906,0
1610547931.152,31.250,25.879,43.945,24.414,36.621,0
1610547931.156,133.789,27.832,37.598,75.684,95.703,0
1610547931.160,115.234,36.621,32.227,64.453,62.988,0
1610547931.164,-8.789,35.156,42.969,1.953,37.109,0
1610547931.168,-69.824,29.785,44.922,-15.137,-22.949,0
1610547931.169,5.859,31.738,35.156,39.062,-62.988,0
1610547931.173,111.816,30.762,27.832,81.055,25.879,0
1610547931.177,94.238,26.855,22.461,52.734,32.715,0
1610547931.181,-24.902,28.320,19.531,1.465,27.344,0
1610547931.185,-77.637,29.297,22.461,-21.484,65.918,0
1610547931.189,-4.883,30.762,27.832,15.137,68.359,0
1610547931.193,103.027,27.344,40.039,57.617,62.500,0
1610547931.196,106.445,27.832,42.969,51.270,48.828,0
1610547931.200,-1.953,24.902,43.457,2.930,20.508,0
1610547931.204,-67.871,31.738,39.062,-17.578,-2.930,0
1610547931.208,-16.602,45.898,37.109,12.695,14.160,0
1610547931.212,90.332,36.621,36.133,55.664,68.359,0
1610547931.214,117.676,28.320,21.973,66.406,83.008,0
1610547931.218,23.926,32.715,21.484,20.020,62.012,0
1610547931.222,-55.664,32.227,32.715,-20.508,14.160,0
1610547931.226,-31.738,29.297,21.484,-1.465,25.391,0
1610547931.230,85.938,32.227,19.043,64.941,2.441,0
1610547931.234,131.836,32.715,34.180,83.008,82.520,0
1610547931.238,38.574,33.691,35.156,27.832,95.703,0
1610547931.241,-47.363,37.109,29.297,-6.348,0.488,0
1610547931.245,-40.039,36.133,27.344,9.277,9.277,0
1610547931.249,65.430,29.297,34.180,57.129,32.227,0
1610547931.253,129.883,21.484,26.367,82.031,57.129,0
1610547931.257,45.898,24.902,25.391,39.062,58.105,0
1610547931.259,-54.688,32.227,35.645,-19.043,-2.930,0
1610547931.263,-49.805,36.133,36.621,-13.672,-29.297,0
1610547931.267,54.199,37.109,28.320,44.922,1.465,0
1610547931.271,138.184,36.621,23.438,84.961,22.461,0
1610547931.275,67.871,36.621,33.691,49.805,67.383,0
1610547931.279,-46.387,34.668,37.598,-20.508,54.688,0
1610547931.283,-43.457,32.715,34.180,-19.531,6.836,0
1610547931.286,58.594,38.086,32.715,40.527,-10.742,0
1610547931.290,133.301,33.691,31.250,68.359,69.336,0
1610547931.294,76.660,26.855,26.855,44.434,89.844,0
1610547931.298,-35.645,30.273,28.320,-7.812,32.715,0
1610547931.302,-55.176,33.691,31.738,-17.090,20.508,0
1610547931.304,33.691,30.273,28.809,35.156,45.410,0
1610547931.308,131.836,31.738,24.902,76.172,46.387,0
1610547931.312,103.027,33.691,28.320,62.500,41.016,0
1610547931.316,-20.508,34.668,26.367,12.207,0.488,0
1610547931.320,-59.570,37.109,24.414,7.324,-40.527,0
1610547931.324,20.020,36.621,33.691,40.527,-63.965,0
1610547931.328,123.535,32.715,37.109,62.012,5.371,0
1610547931.331,106.445,31.738,30.273,55.176,71.289,0
1610547931.335,-10.742,31.250,27.344,7.324,76.172,0
1610547931.339,-65.430,26.367,36.133,-18.066,0.000,0
1610547931.343,-3.906,30.762,42.480,23.926,-4.395,0
1610547931.347,108.398,31.738,27.832,61.523,2.930,0
1610547931.350,120.117,33.203,24.414,52.734,-4.395,0
1610547931.354,5.859,37.109,29.297,9.766,36.133,0
1610547931.358,-62.500,34.180,31.738,-18.066,34.668,0
1610547931.362,-5.859,34.180,42.480,16.113,26.855,0
1610547931.366,104.492,36.621,28.809,71.289,36.133,0
1610547931.370,129.883,38.086,20.020,78.613,31.738,0
1610547931.374,25.879,35.645,27.344,25.391,32.227,0
1610547931.377,-69.336,27.832,31.250,-24.902,26.855,0
1610547931.381,-32.227,24.902,39.062,7.324,-6.348,0
1610547931.385,90.332,29.785,33.203,77.148,1.465,0
1610547931.389,142.578,36.133,29.297,82.031,46.387,2
1610547931.393,46.875,37.598,37.109,27.344,88.379,0
1610547931.394,-49.805,35.156,40.039,-13.672,108.398,0
1610547931.398,-30.273,34.180,30.273,13.672,9.766,0
1610547931.402,75.195,30.762,16.602,67.383,3.418,0
1610547931.406,143.066,29.297,21.973,81.543,93.750,0
1610547931.410,58.105,28.809,36.133,52.246,39.551,0
1610547931.414,-53.711,22.461,40.527,5.371,38.086,0
1610547931.418,-48.828,20.996,34.180,-7.324,54.688,0
1610547931.421,64.453,27.344,38.086,46.387,-16.602,0
1610547931.425,149.414,31.250,45.410,81.055,-31.738,0
1610547931.429,78.125,34.668,42.480,56.641,55.664,0
1610547931.433,-38.086,35.156,35.645,9.766,25.879,0
1610547931.437,-46.875,31.738,26.367,-3.906,42.480,0
1610547931.454,47.852,31.250,24.902,42.480,113.281,0
1610547931.458,131.348,31.738,29.297,74.707,84.473,0
1610547931.462,76.172,32.227,37.598,45.410,65.430,0
1610547931.466,-31.250,32.227,42.480,0.488,4.883,0
1610547931.470,-63.477,27.344,34.180,-7.324,27.344,0
1610547931.474,26.367,28.809,27.832,38.086,102.051,0
1610547931.478,133.789,32.715,37.109,75.684,55.176,0
1610547931.481,90.332,26.855,51.270,48.340,43.945,0
1610547931.485,-29.297,29.297,49.316,-0.977,48.828,0
1610547931.489,-65.918,34.180,36.133,-14.648,-32.227,0
1610547931.493,11.719,36.133,23.926,38.086,-26.367,0
1610547931.497,116.699,30.273,26.855,87.402,38.574,0
1610547931.499,99.121,28.809,36.133,59.570,30.762,0
1610547931.503,-20.996,32.715,23.926,-6.348,-24.414,0
1610547931.507,-74.707,34.668,12.695,-24.902,0.977,0
1610547931.511,6.836,35.156,24.414,29.785,37.598,0
1610547931.515,125.977,32.715,36.133,73.242,11.719,0
1610547931.519,112.793,32.715,36.621,56.641,33.691,0
1610547931.523,-10.742,34.668,36.621,14.160,59.570,0
1610547931.526,-76.660,29.297,26.855,-20.020,48.828,0
1610547931.530,-17.090,29.785,24.902,6.348,73.242,0
1610547931.534,100.098,30.762,33.691,61.035,114.746,0
1610547931.538,123.535,29.297,31.738,62.500,101.074,0
1610547931.542,29.297,38.086,26.367,19.043,59.082,0
1610547931.544,-54.688,41.504,12.207,-10.254,31.250,0
1610547931.548,-27.344,34.668,19.043,11.719,-5.371,0
1610547931.552,92.285,34.668,39.551,62.988,36.621,0
1610547931.556,131.836,34.180,41.504,86.914,59.570,0
1610547931.560,32.227,34.180,48.828,43.945,15.137,0
1610547931.564,-65.918,36.621,45.410,-19.043,7.812,0
1610547931.568,-41.504,26.367,38.086,-8.789,30.273,0
1610547931.571,81.055,25.391,42.969,53.711,60.547,0
1610547931.575,143.066,31.738,43.457,74.707,65.430,0
1610547931.579,48.340,33.203,42.480,35.645,8.789,0
1610547931.583,-62.500,33.203,33.203,-19.531,-16.113,0
1610547931.587,-49.805,32.227,19.531,-11.719,28.320,0
1610547931.590,62.988,27.832,23.438,47.363,46.875,0
1610547931.594,134.277,28.320,34.180,71.289,1.953,0
1610547931.598,48.828,36.621,34.668,36.133,-14.160,0
1610547931.602,-64.941,36.621,40.039,-26.367,70.312,0
1610547931.606,-65.918,34.180,42.969,-31.738,75.195,0
1610547931.610,36.133,34.668,36.133,32.227,-5.859,0
1610547931.614,122.559,31.250,39.062,73.242,-20.020,0
1610547931.617,72.754,31.250,41.016,43.457,36.133,0
1610547931.621,-44.434,34.180,24.902,-17.090,10.254,0
1610547931.625,-67.871,32.227,18.555,-23.926,-29.785,0
1610547931.629,22.949,32.227,24.902,26.855,-4.395,0
1610547931.633,120.605,37.109,27.832,62.012,11.719,0
1610547931.634,83.008,36.133,24.902,48.828,43.945,0
1610547931.638,-27.832,33.691,28.809,-2.441,12.207,0
1610547931.642,-55.176,36.621,33.203,-15.625,-21.973,0
1610547931.646,23.926,36.133,26.855,38.086,-22.949,0
1610547931.650,120.117,30.273,35.156,81.543,53.223,0
1610547931.654,90.332,23.438,43.457,68.848,45.898,0
1610547931.658,-30.273,21.973,37.598,15.137,-25.879,0
1610547931.661,-80.078,30.273,34.180,-14.648,4.883,0
1610547931.665,-0.977,38.086,36.621,18.066,41.016,0
1610547931.669,104.980,35.156,28.809,55.664,21.484,0
1610547931.673,93.262,29.297,25.391,49.805,55.176,0
1610547931.677,-10.254,34.668,29.785,3.418,45.410,0
1610547931.680,-76.172,35.156,32.715,-23.926,-18.555,0
1610547931.684,-24.902,31.738,37.598,11.230,21.484,0
1610547931.688,94.727,32.715,37.598,69.824,27.344,0
1610547931.692,115.723,32.227,32.715,70.312,47.363,0
1610547931.696,3.906,29.297,36.133,19.531,34.180,0
1610547931.700,-72.754,29.785,44.434,-17.578,10.742,0
1610547931.704,-22.949,31.738,40.527,1.953,30.273,0
1610547931.707,77.637,27.832,32.715,54.199,-6.348,0
1610547931.711,114.258,25.391,32.715,71.777,25.879,0
1610547931.715,23.438,27.832,24.902,23.438,51.270,0
1610547931.719,-63.965,31.738,23.438,-24.902,28.809,0
1610547931.723,-36.133,32.227,32.227,-4.883,-17.578,0
1610547931.724,80.078,34.180,38.574,56.152,-47.852,0
1610547931.728,142.578,37.598,34.180,82.520,69.824,0
1610547931.732,50.781,39.062,24.902,36.133,94.238,0
1610547931.736,-47.852,39.062,29.297,-19.043,44.434,0
1610547931.740,-31.250,37.109,36.621,-1.953,12.695,0
1610547931.744,69.336,33.203,36.133,58.594,1.953,0
1610547931.748,130.859,25.391,30.273,83.984,8.789,0
1610547931.751,50.293,24.902,26.367,44.434,-5.371,0
1610547931.755,-52.246,30.273,31.250,2.441,2.441,0
1610547931.759,-50.781,29.297,31.738,2.930,10.254,0
1610547931.763,48.340,26.367,35.156,40.039,47.852,0
1610547931.767,135.254,28.809,40.527,77.148,49.805,0
1610547931.769,71.289,28.320,35.156,49.805,21.484,0
1610547931.773,-41.992,29.297,26.367,-1.953,42.480,0
1610547931.777,-55.176,32.715,27.344,-9.766,66.406,0
1610547931.781,29.785,32.715,33.691,32.715,58.594,0
1610547931.785,126.953,34.668,35.156,78.125,-9.277,0
1610547931.789,96.191,35.645,33.203,57.617,17.090,0
1610547931.793,-24.414,30.273,28.320,0.000,34.180,0
1610547931.796,-58.105,33.203,26.367,-12.207,-91.309,0
1610547931.800,27.832,36.133,28.809,32.227,-110.840,0
1610547931.804,124.512,32.227,34.668,74.707,19.043,0
1610547931.808,108.887,31.738,35.645,54.688,125.977,0
1610547931.812,-7.812,24.902,36.621,-5.859,104.492,0
1610547931.829,-70.312,23.438,37.598,-24.902,53.223,0
1610547931.833,-1.953,27.344,36.133,19.531,63.477,0
1610547931.837,114.258,26.855,36.133,71.289,64.941,0
1610547931.841,112.793,28.809,35.156,68.848,62.500,0
1610547931.845,-3.418,32.715,32.227,18.555,82.520,0
1610547931.849,-66.895,30.273,26.855,-17.578,73.730,0
1610547931.853,-12.207,23.438,28.809,13.672,20.020,0
1610547931.856,104.492,27.832,37.598,70.312,20.508,0
1610547931.860,115.234,30.762,40.527,71.777,3.906,0
1610547931.864,2.930,29.297,33.691,20.020,-24.414,0
1610547931.868,-67.871,26.855,33.691,-21.973,37.598,0
1610547931.872,-24.902,24.902,32.715,-6.836,41.016,0
1610547931.874,97.656,33.691,30.273,57.129,-0.977,0
1610547931.878,135.254,41.016,40.039,76.172,58.105,0
1610547931.882,24.902,30.273,40.039,11.719,66.895,0
1610547931.886,-59.082,23.926,28.809,-31.250,39.551,0
1610547931.890,-22.461,28.809,26.367,4.395,38.574,0
1610547931.894,84.961,27.344,34.180,69.336,40.527,0
1610547931.898,142.090,27.344,35.156,78.613,25.391,0
1610547931.901,48.828,29.785,36.133,22.949,11.719,0
1610547931.905,-57.129,28.320,36.133,-19.043,1.953,0
1610547931.909,-36.621,28.320,29.297,-3.418,34.180,0
1610547931.913,66.895,20.508,33.691,53.223,77.637,0
1610547931.917,125.488,16.602,35.645,73.242,72.754,0
1610547931.919,54.688,26.367,31.738,35.645,76.660,0
1610547931.923,-42.480,32.227,26.367,-4.883,8.301,0
1610547931.927,-45.898,28.809,10.742,-2.441,11.719,0
1610547931.931,56.641,28.320,4.395,58.594,53.711,0
1610547931.935,133.301,30.273,26.855,98.633,15.137,0
1610547931.939,69.336,30.762,41.992,45.898,13.672,0
1610547931.943,-37.598,30.273,34.668,-18.555,-1.953,0
1610547931.946,-58.594,27.832,27.832,-13.184,-6.348,0
1610547931.950,35.645,24.902,26.855,41.504,-9.766,0
1610547931.954,134.766,23.926,27.344,75.195,-0.488,0
1610547931.958,84.473,26.367,24.902,48.828,75.684,0
1610547931.962,-34.668,28.809,20.020,-11.230,62.012,0
1610547931.964,-56.641,31.738,13.672,-19.043,30.762,0
1610547931.968,27.832,30.762,22.949,34.180,-0.977,0
1610547931.972,126.465,27.832,39.062,78.613,16.113,0
1610547931.976,100.098,28.809,44.434,71.777,18.555,0
1610547931.980,-19.531,29.785,45.410,9.766,-39.551,0
1610547931.984,-65.918,31.738,29.785,-24.902,4.883,0
1610547931.988,9.766,34.180,20.508,16.602,38.574,0
1610547931.991,117.188,30.762,35.645,68.848,48.828,0
1610547931.995,101.562,31.250,39.062,62.988,81.543,0
1610547931.999,-14.648,32.227,20.996,3.418,53.711,0
1610547932.003,-72.754,26.855,14.160,-23.438,48.340,0
1610547932.007,-15.625,27.344,20.508,12.695,19.043,0
1610547932.010,98.633,26.367,33.691,61.035,-45.898,0
1610547932.014,107.910,22.949,35.156,57.617,41.504,0
1610547932.018,-4.395,22.461,33.691,5.859,58.105,0
1610547932.022,-68.359,20.996,40.039,-20.508,-2.930,0
1610547932.026,-25.879,21.973,36.133,11.230,33.691,0
1610547932.030,75.684,20.996,32.715,63.477,22.949,0
1610547932.034,107.422,18.555,35.156,82.520,11.719,0
1610547932.037,12.695,23.438,26.855,42.969,26.855,0
1610547932.041,-68.359,33.691,12.207,-10.742,-17.578,0
1610547932.045,-39.062,32.227,21.973,-1.465,0.977,0
1610547932.049,75.195,29.785,28.320,61.035,20.996,0
1610547932.053,131.836,31.250,35.156,81.055,-3.418,0
1610547932.055,32.715,30.762,42.969,26.367,37.598,0
1610547932.059,-71.289,31.738,33.691,-30.273,19.531,0
1610547932.063,-50.781,29.785,32.715,-14.160,16.113,0
1610547932.067,61.523,27.832,37.109,49.316,85.449,0
1610547932.071,125.977,27.344,38.574,78.613,82.520,0
1610547932.075,46.875,26.367,35.645,43.457,16.113,0
1610547932.079,-59.570,29.297,22.949,-7.324,-15.625,0
1610547932.082,-59.082,38.086,21.484,-10.254,67.383,0
1610547932.086,51.758,34.180,32.227,38.574,122.070,0
1610547932.090,134.766,21.973,36.621,73.242,108.398,0
1610547932.094,66.895,23.926,41.504,54.199,57.129,0
1610547932.098,-42.969,32.715,37.109,0.977,1.953,0
1610547932.099,-50.781,33.691,34.668,-9.277,-2.930,0
1610547932.103,46.387,31.738,36.621,33.691,20.020,0
1610547932.107,133.789,28.320,28.320,67.871,2.930,0
1610547932.111,78.125,24.902,24.414,52.246,-0.488,0
1610547932.115,-36.621,28.809,27.832,11.230,7.812,0
1610547932.119,-55.664,29.785,25.391,4.883,66.895,0
1610547932.123,25.391,29.297,19.531,36.621,80.078,0
1610547932.126,125.488,32.715,23.926,69.824,81.543,0
1610547932.130,101.074,37.109,35.156,57.129,60.059,0
1610547932.134,-20.020,36.621,28.809,3.418,27.344,0
1610547932.138,-71.777,34.180,23.926,-21.484,-2.441,0
1610547932.142,7.812,35.156,28.320,17.090,-55.664,0
1610547932.144,123.535,33.691,23.926,67.383,-12.695,0
1610547932.148,113.281,33.203,23.926,74.219,20.508,0
1610547932.152,-4.883,33.691,21.973,21.484,4.883,0
1610547932.156,-68.848,30.762,23.926,-29.297,49.316,0
1610547932.160,-4.883,29.785,27.832,4.883,46.387,0
1610547932.164,108.398,32.227,19.043,65.918,13.184,0
1610547932.168,118.652,34.668,28.320,66.895,44.922,0
1610547932.171,5.371,35.645,45.410,19.531,11.230,0
1610547932.175,-66.406,34.668,34.668,-18.555,-53.223,0
1610547932.179,-14.648,36.133,25.879,4.883,10.742,0
1610547932.183,93.750,32.715,23.438,53.223,64.453,0
1610547932.187,126.953,32.715,24.902,66.406,41.504,0
1610547932.204,21.484,34.180,25.879,32.715,76.172,0
1610547932.208,-79.102,26.855,27.344,-7.324,44.434,0
1610547932.212,-38.574,25.879,35.156,4.883,50.781,0
1610547932.216,82.031,31.250,29.785,54.688,29.297,0
1610547932.220,127.441,28.809,25.879,57.129,19.531,0
1610547932.224,38.086,31.250,34.180,15.625,82.031,0
1610547932.228,-58.594,38.574,29.785,-15.137,55.664,0
1610547932.231,-35.156,34.180,19.043,9.766,28.320,0
1610547932.235,73.730,28.809,25.391,54.688,63.965,0
1610547932.239,134.277,29.785,34.180,64.941,75.684,0
1610547932.243,54.688,28.320,27.344,25.391,71.289,0
1610547932.247,-50.293,31.250,25.879,-27.344,62.500,0
1610547932.249,-43.945,35.156,27.832,-18.066,31.738,0
1610547932.253,64.453,31.738,21.484,50.293,13.184,0
1610547932.257,135.254,28.809,20.508,82.031,49.316,0
1610547932.261,57.129,29.785,26.855,27.344,16.602,0
1610547932.265,-52.246,32.715,35.156,-24.414,22.461,0
1610547932.269,-50.781,36.133,35.156,-5.859,105.957,0
1610547932.273,39.551,32.227,28.320,43.945,86.914,0
1610547932.276,115.234,29.785,27.832,71.289,18.555,0
1610547932.280,62.988,31.738,34.668,42.480,20.508,0
1610547932.284,-47.852,30.273,35.156,-18.555,20.020,0
1610547932.288,-66.895,30.273,25.391,-27.344,20.020,0
1610547932.292,20.996,28.809,23.926,32.227,49.805,0
1610547932.294,121.094,25.879,32.715,76.660,40.527,0
1610547932.298,84.473,20.996,34.180,45.898,12.207,0
1610547932.302,-38.086,23.926,26.855,-6.348,-23.926,0
1610547932.306,-71.289,30.273,25.879,-14.648,-4.395,0
1610547932.310,6.836,27.344,39.062,26.367,37.109,0
1610547932.314,124.023,35.156,38.086,83.008,-1.465,0
1610547932.318,119.141,41.992,25.391,75.195,2.930,0
1610547932.321,-1.953,38.086,25.391,3.418,25.391,0
1610547932.325,-56.641,33.691,33.691,-33.691,18.066,0
1610547932.329,25.391,33.691,34.180,14.648,83.008,0
1610547932.333,133.789,36.133,21.484,78.125,62.988,0
1610547932.337,117.188,32.227,21.484,72.754,9.766,0
1610547932.339,7.324,27.832,33.203,18.555,13.672,0
1610547932.343,-58.105,30.762,36.133,-15.625,49.316,0
1610547932.347,-12.207,30.273,31.250,15.625,52.246,0
1610547932.351,98.145,29.785,33.203,69.336,47.852,0
1610547932.355,122.559,35.156,43.945,75.684,22.461,0
1610547932.359,10.254,32.227,35.645,17.090,11.719,0
1610547932.363,-72.266,27.832,26.855,-18.066,53.223,0
1610547932.366,-32.227,28.320,33.691,13.184,57.129,0
1610547932.370,90.332,29.297,34.668,70.312,32.715,0
1610547932.374,137.207,32.715,24.902,85.449,21.484,0
1610547932.378,38.574,36.621,23.438,33.203,20.508,0
1610547932.382,-52.246,32.227,26.367,-7.812,61.523,0
1610547932.384,-32.227,31.250,32.227,5.859,69.336,0
1610547932.388,76.660,36.133,38.574,57.129,-23.438,0
1610547932.392,136.719,36.133,45.898,83.984,21.973,0
1610547932.396,48.828,37.598,39.551,50.781,46.387,0
1610547932.400,-54.688,39.551,26.367,-2.441,7.324,0
1610547932.404,-43.457,35.156,24.414,2.441,-31.250,0
1610547932.408,66.895,32.715,27.344,53.711,-21.973,0
1610547932.411,142.090,37.598,32.227,73.730,33.691,0
1610547932.415,67.871,42.969,35.645,48.828,21.973,0
1610547932.419,-41.504,39.551,30.762,-5.371,64.941,0
1610547932.423,-43.945,39.062,30.762,-9.277,55.664,0
1610547932.427,55.176,39.551,41.992,45.410,-18.555,0
1610547932.430,141.602,35.156,41.016,83.008,54.199,0
1610547932.434,79.590,35.156,37.598,59.082,86.914,0
1610547932.438,-39.551,34.668,37.598,-1.465,6.348,0
1610547932.442,-55.176,34.668,35.156,-11.719,-36.621,0
1610547932.446,36.133,36.133,35.645,37.109,-11.719,0
1610547932.450,133.301,32.227,32.227,75.684,57.617,0
1610547932.454,95.703,27.832,31.738,57.129,63.477,0
1610547932.457,-32.227,23.926,33.691,3.418,-3.418,0
1610547932.461,-67.383,23.438,34.180,-9.277,-31.738,0
1610547932.465,17.578,27.344,39.062,36.133,-7.812,0
1610547932.469,122.070,28.809,37.109,81.543,-6.348,0
1610547932.473,104.980,32.227,35.156,68.359,45.410,0
1610547932.474,-15.137,32.715,33.691,10.742,108.887,0
1610547932.478,-66.406,29.785,25.391,-17.090,92.285,0
1610547932.482,6.348,31.250,29.297,25.391,42.969,0
1610547932.486,119.141,32.715,38.574,77.148,72.754,0
1610547932.490,117.676,28.809,34.180,70.801,82.031,0
1610547932.494,-5.371,21.484,20.996,14.648,34.668,0
1610547932.498,-75.195,19.043,19.043,-25.879,34.180,0
1610547932.501,-17.090,23.926,31.738,2.441,26.367,0
1610547932.505,97.168,28.320,39.551,57.617,-22.461,0
1610547932.509,121.582,29.297,38.574,66.406,20.996,0
1610547932.513,13.672,25.879,36.133,10.742,52.246,0
1610547932.517,-67.383,29.297,32.715,-26.367,60.547,0
1610547932.520,-17.578,30.273,28.320,8.789,28.320,0
1610547932.524,94.238,23.438,24.902,58.105,8.301,0
1610547932.528,123.535,25.879,29.297,62.500,50.781,0
1610547932.532,29.297,30.273,34.180,19.043,52.246,0
1610547932.536,-62.012,32.715,31.250,-22.461,20.508,0
1610547932.540,-36.133,34.180,31.250,-9.766,-9.766,0
1610547932.544,76.660,33.691,21.973,46.387,-26.367,0
1610547932.547,133.789,30.273,17.578,74.219,12.207,0
1610547932.551,43.457,30.273,35.645,37.109,77.637,0
1610547932.555,-64.453,34.180,42.480,-18.555,47.852,0
1610547932.559,-60.059,22.949,31.738,-18.066,34.180,0
1610547932.563,53.223,20.020,35.645,35.645,28.320,0
1610547932.580,133.301,35.156,46.875,69.336,0.977,0
1610547932.584,59.570,38.086,42.480,34.180,-38.574,0
1610547932.588,-46.387,32.227,34.180,-15.137,-54.688,0
1610547932.592,-44.922,31.250,28.320,-4.395,-21.484,0
1610547932.596,52.734,27.344,20.996,44.434,-1.465,0
1610547932.600,129.883,29.297,22.949,71.777,37.598,0
1610547932.604,73.242,33.203,33.691,47.852,59.082,0
1610547932.607,-37.109,36.621,36.621,1.953,93.262,0
1610547932.611,-53.223,37.598,36.133,-7.812,49.316,0
1610547932.615,30.762,26.367,35.156,25.391,-28.320,0
1610547932.619,120.605,21.973,39.062,67.871,45.898,0
1610547932.623,84.473,23.438,31.738,47.852,47.852,0
1610547932.625,-26.367,27.344,27.344,-9.277,2.441,0
1610547932.629,-57.129,30.273,24.414,-15.625,35.156,0
1610547932.633,18.555,32.715,18.555,35.645,15.137,0
1610547932.637,118.164,34.668,26.367,81.543,46.875,0
1610547932.641,97.168,30.273,32.715,62.012,25.391,0
1610547932.645,-19.043,26.855,30.762,8.789,44.922,0
1610547932.649,-70.312,27.832,26.367,-15.625,107.910,0
1610547932.652,-3.906,24.902,24.902,17.090,40.527,0
1610547932.656,105.469,24.414,24.902,70.801,35.156,0
1610547932.660,106.445,28.320,27.832,67.383,50.293,0
1610547932.664,-8.301,33.203,23.926,17.090,-22.949,0
1610547932.668,-69.336,34.668,22.949,-12.207,-2.930,0
1610547932.670,-13.672,33.691,26.855,21.973,53.223,0
1610547932.674,106.445,36.133,31.250,79.590,46.875,0
1610547932.678,123.535,33.203,36.621,75.195,86.426,0
1610547932.682,10.254,30.762,35.156,19.043,86.426,0
1610547932.686,-63.965,31.738,40.527,-14.160,-6.836,0
1610547932.690,-22.949,27.344,40.039,11.230,-32.715,0
1610547932.694,90.820,24.414,33.203,61.523,-0.977,0
1610547932.697,127.930,26.367,25.391,72.754,0.488,0
1610547932.701,26.367,31.738,22.461,32.227,55.176,0
1610547932.705,-72.754,30.762,35.156,-7.812,78.613,0
1610547932.709,-40.039,30.273,30.273,7.324,30.273,0
1610547932.713,83.008,34.668,26.367,69.824,40.039,0
1610547932.715,130.371,30.273,34.668,77.637,74.219,0
1610547932.719,35.645,27.344,32.715,25.879,59.082,0
1610547932.723,-67.383,26.855,33.691,-14.160,63.965,0
1610547932.727,-48.340,26.367,41.504,-6.348,99.121,0
1610547932.731,61.523,26.367,36.133,45.410,35.645,0
1610547932.735,129.883,27.832,23.438,79.590,21.484,0
1610547932.739,55.176,31.738,23.926,42.969,55.176,0
1610547932.742,-54.199,36.133,30.273,-15.625,23.926,0
1610547932.746,-58.105,36.133,30.762,-11.230,35.156,0
1610547932.750,48.340,33.203,35.645,46.387,56.152,0
1610547932.754,134.766,32.227,31.738,79.102,-5.371,0
1610547932.758,70.801,29.785,29.297,46.875,-19.531,0
1610547932.760,-46.387,31.738,33.203,-9.766,44.922,0
1610547932.764,-62.500,31.250,25.879,-15.625,16.602,0
1610547932.768,35.645,27.344,28.809,42.969,-14.648,0
1610547932.772,133.789,29.785,36.621,86.914,73.730,0
1610547932.776,94.727,35.156,32.227,70.801,44.922,0
1610547932.780,-26.367,36.621,30.273,6.836,22.949,0
1610547932.784,-54.688,37.598,39.062,-10.742,66.406,0
1610547932.787,35.645,35.156,41.992,34.668,48.340,0
1610547932.791,130.859,36.133,41.016,72.754,38.086,0
1610547932.795,102.539,34.668,47.852,63.965,48.828,0
1610547932.799,-6.836,33.691,45.410,19.043,30.762,0
1610547932.803,-56.641,31.738,30.762,-2.441,7.812,0
1610547932.806,8.301,28.320,21.484,31.250,54.688,0
1610547932.810,121.582,29.297,28.809,81.055,55.664,0
1610547932.814,119.629,30.762,30.273,84.473,-17.090,0
1610547932.818,4.883,32.715,31.738,16.113,15.137,0
1610547932.822,-70.312,37.109,38.086,-30.273,33.203,0
1610547932.826,-6.836,35.645,35.645,8.789,21.973,0
1610547932.830,104.004,33.203,36.621,69.336,12.695,0
1610547932.833,112.305,36.133,41.016,72.266,20.996,0
1610547932.837,10.254,37.598,41.504,25.391,45.898,0
1610547932.841,-60.059,40.527,25.391,-5.371,6.836,0
1610547932.845,-14.648,36.133,11.719,17.578,0.488,0
1610547932.849,95.703,23.926,19.531,62.988,47.852,0
1610547932.849,128.418,20.020,42.480,69.336,29.297,0
1610547932.853,30.762,31.250,54.199,27.344,-18.066,0
1610547932.857,-56.152,36.621,42.480,-23.438,-21.484,0
1610547932.861,-28.809,37.109,37.109,-2.930,-26.367,0
1610547932.865,81.055,33.203,31.250,62.500,20.996,0
1610547932.869,122.559,25.391,29.297,76.172,2.441,0
1610547932.873,26.855,27.832,34.180,22.461,-7.324,0
1610547932.876,-57.129,34.668,30.273,-20.996,13.672,0
1610547932.880,-38.574,33.691,31.738,0.977,42.480,0
1610547932.884,65.918,28.320,38.086,51.270,83.008,0
1610547932.888,131.836,26.367,37.109,72.754,99.121,0
1610547932.892,48.828,25.879,31.738,38.574,42.969,0
1610547932.909,-47.852,29.297,33.203,-4.883,56.641,0
1610547932.913,-35.156,30.273,45.410,0.977,91.309,0
1610547932.917,51.270,26.855,44.922,41.016,68.848,0
1610547932.921,114.746,28.320,35.156,68.359,83.496,0
1610547932.925,62.012,32.227,32.227,39.551,69.824,0
1610547932.929,-42.480,35.645,37.109,-12.207,70.312,0
1610547932.933,-57.617,36.621,33.691,-7.324,64.941,0
1610547932.936,39.551,35.645,31.250,44.922,63.477,0
1610547932.940,133.789,32.715,37.109,80.078,68.359,0
1610547932.944,95.215,34.180,43.457,56.152,25.391,0
1610547932.948,-15.137,32.227,44.922,-2.930,24.902,0
1610547932.952,-48.828,24.902,40.527,-14.648,25.879,0
1610547932.954,33.691,29.297,38.574,40.527,10.742,0
1610547932.958,134.766,32.715,39.551,88.379,19.043,0
1610547932.962,105.957,35.645,35.645,70.801,29.297,0
1610547932.966,-14.160,37.598,28.320,18.066,14.648,0
1610547932.970,-62.012,36.621,30.762,0.977,10.254,0
1610547932.974,11.230,32.715,30.762,40.527,-11.719,0
1610547932.978,124.512,25.879,23.438,90.332,-13.184,0
1610547932.981,112.305,28.809,26.855,69.824,13.672,0
1610547932.985,-8.789,35.645,32.227,1.953,-2.441,0
1610547932.989,-68.359,35.156,30.273,-29.785,60.547,0
1610547932.993,-8.789,33.691,28.809,3.906,31.250,0
1610547932.997,104.004,33.691,26.855,60.547,-14.648,0
1610547932.999,109.863,33.691,28.809,63.965,-20.508,0
1610547933.003,1.465,32.715,30.762,26.367,20.508,0
1610547933.007,-57.617,34.180,28.809,-12.695,18.555,0
1610547933.011,-13.184,33.203,27.344,3.418,-34.668,0
1610547933.015,99.609,32.227,26.367,65.430,6.348,0
1610547933.019,133.301,31.250,27.832,74.219,23.438,0
1610547933.023,20.996,29.297,33.691,19.531,10.254,0
1610547933.026,-68.359,29.785,35.645,-27.344,20.996,0
1610547933.030,-30.762,28.809,37.109,2.930,30.273,0
1610547933.034,86.914,26.855,37.598,66.406,63.477,0
1610547933.038,135.254,33.691,30.762,78.613,0.488,0
1610547933.042,41.016,40.527,28.320,40.527,-70.801,0
1610547933.045,-52.734,39.551,26.855,-1.953,-64.453,0
1610547933.049,-37.598,39.062,26.367,-2.930,-73.242,0
1610547933.053,74.707,35.156,31.250,46.387,26.367,0
1610547933.057,136.230,28.809,35.645,74.707,104.492,0
1610547933.061,46.387,29.785,33.691,31.738,102.539,0
1610547933.065,-56.152,31.250,35.156,-23.438,11.719,0
1610547933.069,-44.434,33.203,40.039,-6.836,-30.762,0
1610547933.072,62.988,32.227,35.645,55.176,35.156,0
1610547933.076,133.789,32.227,32.227,90.820,60.547,0
1610547933.080,68.359,34.180,25.879,54.688,63.477,0
1610547933.084,-41.016,30.762,25.391,-16.602,79.102,0
1610547933.088,-51.270,26.367,28.809,-17.578,7.812,0
1610547933.089,55.176,37.598,19.531,52.734,37.109,0
1610547933.093,145.996,40.527,18.066,86.426,119.141,0
1610547933.097,79.102,27.832,28.320,38.574,39.062,0
1610547933.101,-35.645,30.762,35.156,-12.207,37.598,0
1610547933.105,-56.152,32.227,35.156,-14.648,42.969,0
1610547933.109,31.250,28.320,33.203,33.691,35.156,0
1610547933.113,136.230,30.273,33.691,81.543,46.387,0
1610547933.116,105.957,30.762,30.762,69.336,22.949,0
1610547933.120,-9.277,31.738,21.973,3.418,-4.395,0
1610547933.124,-53.711,31.738,26.367,-17.578,1.953,0
1610547933.128,18.066,28.320,35.645,30.762,48.828,0
1610547933.132,130.859,31.250,31.250,80.566,51.758,0
1610547933.134,119.141,35.156,22.461,77.637,69.336,0
1610547933.138,-3.418,31.738,21.484,11.719,73.730,0
1610547933.142,-62.988,27.344,38.086,-21.484,20.996,0
1610547933.146,-6.836,24.414,39.062,17.578,-37.109,0
1610547933.150,104.004,25.391,28.320,71.777,10.742,0
1610547933.154,119.141,30.762,28.809,68.359,84.961,0
1610547933.158,8.301,33.203,27.832,14.160,66.895,0
1610547933.161,-62.988,32.715,23.438,-18.066,4.883,0
1610547933.165,-12.207,29.297,31.738,7.324,2.441,0
1610547933.169,104.980,33.691,44.434,66.406,63.477,0
1610547933.173,131.348,36.133,43.945,71.777,45.898,0
1610547933.177,19.531,29.785,32.715,16.113,32.715,0
1610547933.179,-62.012,30.762,21.484,-21.484,62.988,0
1610547933.183,-17.090,33.203,29.785,2.930,2.930,0
1610547933.187,97.168,35.156,39.551,62.988,-21.973,0
1610547933.191,129.883,34.180,34.668,81.543,52.734,0
1610547933.195,22.949,27.832,24.414,19.531,0.488,0
1610547933.199,-70.801,27.344,18.066,-30.273,-15.137,0
1610547933.203,-42.969,26.855,24.414,2.930,34.668,0
1610547933.206,69.824,28.809,34.668,55.664,32.715,0
1610547933.210,136.230,33.203,38.086,73.242,40.039,0
1610547933.214,53.223,28.320,36.133,34.180,55.664,0
1610547933.218,-44.922,28.320,28.809,-13.672,72.266,0
1610547933.222,-37.598,32.715,21.484,0.977,29.297,0
1610547933.224,61.523,34.668,21.973,52.734,-3.906,0
1610547933.228,133.789,32.227,34.668,71.777,49.316,0
1610547933.232,57.129,28.320,42.480,37.109,17.578,0
1610547933.236,-53.223,30.762,32.715,-16.113,-42.969,0
1610547933.240,-57.129,30.762,31.250,-14.160,-6.836,0
1610547933.244,42.969,29.297,31.250,48.340,13.184,0
1610547933.248,125.488,28.809,20.996,81.055,41.504,0
1610547933.251,74.219,29.297,26.855,47.363,8.789,0
1610547933.255,-34.180,32.715,29.297,-2.441,0.000,0
1610547933.259,-60.547,29.785,22.461,-7.324,8.789,0
1610547933.263,31.250,28.809,30.273,41.992,14.648,0
1610547933.267,139.160,27.832,28.320,79.590,84.473,0
1610547933.270,102.051,30.273,20.508,60.059,103.027,0
1610547933.274,-21.484,31.250,28.809,-1.465,54.199,0
1610547933.278,-64.453,30.273,30.762,-25.879,69.336,0
1610547933.282,9.766,34.668,29.785,19.531,100.586,0
1610547933.286,116.699,35.645,40.527,71.777,82.520,0
1610547933.290,103.516,33.691,40.039,57.129,57.617,0
1610547933.294,-15.137,33.691,33.203,-3.906,45.898,0
1610547933.297,-69.824,34.180,28.809,-27.344,8.301,0
1610547933.301,-3.418,30.762,25.391,9.766,-20.996,0
1610547933.305,104.492,28.809,24.414,64.453,22.461,0
1610547933.309,114.258,34.180,27.344,66.406,6.348,0
1610547933.313,4.395,35.156,34.668,11.230,-14.160,0
1610547933.329,-67.383,33.691,29.785,-24.414,-2.441,0
1610547933.333,-12.695,30.273,20.996,10.254,-4.883,0
1610547933.337,96.680,23.926,28.809,66.895,20.020,0
1610547933.341,114.746,31.250,36.621,60.059,37.598,0
1610547933.345,15.137,36.133,46.387,2.930,5.859,0
1610547933.349,-66.895,29.785,47.363,-36.621,-29.785,0
1610547933.353,-34.180,23.438,34.180,-8.789,61.523,0
1610547933.356,80.566,22.949,27.832,62.988,100.586,0
1610547933.360,122.070,30.273,31.250,76.172,97.656,0
1610547933.364,23.438,35.645,28.320,26.367,67.383,0
1610547933.368,-50.781,39.551,28.809,-18.555,24.414,0
1610547933.372,-22.461,36.133,34.668,-0.488,66.406,0
1610547933.374,71.289,27.832,30.273,61.523,49.805,0
1610547933.378,132.324,32.715,28.809,79.590,27.344,0
1610547933.382,52.246,37.109,26.855,31.250,47.852,0
1610547933.386,-56.641,34.180,31.738,-16.113,25.391,0
1610547933.390,-54.199,30.762,40.527,-6.836,51.270,0
1610547933.394,59.570,31.250,36.133,49.805,90.820,0
1610547933.398,130.371,27.832,33.691,71.289,63.477,0
1610547933.401,56.152,28.320,28.809,40.039,5.371,0
1610547933.405,-50.293,34.668,23.438,-3.418,-8.301,0
1610547933.409,-56.152,35.645,27.344,-20.508,-14.160,0
1610547933.413,44.922,32.227,39.062,22.461,13.672,0
1610547933.417,134.766,29.785,43.945,62.500,19.531,0
1610547933.420,75.195,32.715,35.645,30.273,51.270,0
1610547933.424,-40.527,34.668,30.273,-17.090,62.500,0
1610547933.428,-63.477,27.344,27.832,-14.648,2.930,0
1610547933.432,19.531,26.367,29.785,27.832,39.551,0
1610547933.436,123.047,36.133,35.645,66.895,40.039,0
1610547933.440,87.402,38.086,34.668,54.199,0.977,0
1610547933.444,-35.156,37.109,35.645,-2.930,22.949,0
1610547933.447,-72.754,32.715,37.109,-14.160,2.441,0
1610547933.451,7.812,31.738,39.551,31.250,5.859,0
1610547933.455,110.352,24.902,33.203,61.523,23.926,0
1610547933.459,91.797,21.973,33.691,61.035,25.879,0
1610547933.463,-18.555,31.250,37.598,-0.977,42.969,0
1610547933.464,-66.406,34.668,36.621,-44.922,12.207,0
1610547933.468,5.859,37.598,37.109,5.371,-8.301,0
1610547933.472,113.281,36.621,28.809,62.988,43.457,0
1610547933.476,106.445,29.785,18.066,57.129,70.312,0
1610547933.480,-4.395,28.809,20.508,8.301,38.574,0
1610547933.484,-69.336,30.273,28.320,-28.320,27.344,0
1610547933.488,-15.625,30.762,34.668,3.418,82.520,0
1610547933.491,106.445,31.250,36.621,63.477,39.062,0
1610547933.495,128.906,33.203,34.180,67.871,1.465,0
1610547933.499,12.695,33.203,35.156,10.742,34.180,0
1610547933.503,-70.801,35.645,32.715,-26.367,21.484,0
1610547933.507,-20.996,33.691,25.879,9.277,64.453,0
1610547933.511,96.191,25.391,23.926,59.570,66.895,0
1610547933.515,118.652,28.809,33.691,58.594,51.270,0
1610547933.519,20.996,31.250,41.016,12.695,-0.488,0
1610547933.523,-66.895,35.156,33.691,-22.949,27.344,0
1610547933.527,-47.363,34.668,26.855,-0.977,46.387,0
1610547933.531,71.289,27.344,21.484,56.641,29.297,0
1610547933.535,127.930,28.320,27.344,65.430,54.688,0
1610547933.538,32.715,31.738,36.133,20.508,25.879,0
1610547933.542,-58.105,34.180,31.250,-19.043,-2.441,0
1610547933.546,-43.457,33.691,23.438,-7.812,-5.859,0
1610547933.550,54.199,28.809,20.508,46.875,-3.906,0
1610547933.554,122.559,17.578,29.297,73.242,29.785,0
1610547933.554,48.828,19.531,43.457,26.855,14.160,0
1610547933.558,-55.664,35.156,43.945,-20.996,24.902,0
1610547933.562,-55.664,37.598,31.250,-10.742,27.344,0
1610547933.566,49.316,35.156,27.344,36.621,0.977,0
1610547933.570,138.672,38.086,28.809,72.754,35.645,0
1610547933.574,79.102,40.039,24.902,43.945,23.926,0
1610547933.578,-41.992,34.180,21.973,-19.531,-13.672,0
1610547933.581,-62.012,26.855,25.879,-25.879,22.461,0
1610547933.585,33.691,26.367,29.297,31.250,26.855,0
1610547933.589,127.441,27.832,32.715,80.078,8.301,0
1610547933.593,87.402,29.297,36.133,61.035,37.109,0
1610547933.597,-35.156,27.832,38.574,-0.977,60.059,0
1610547933.599,-75.195,25.391,29.297,-22.461,13.672,0
1610547933.603,13.184,26.855,20.508,23.926,62.988,0
1610547933.607,117.676,26.855,28.320,64.453,29.297,0
1610547933.611,97.656,30.762,35.645,52.734,40.527,0
1610547933.615,-22.461,31.250,42.480,7.324,59.570,0
1610547933.619,-79.102,25.879,44.434,-14.648,24.902,0
1610547933.623,-6.348,28.809,36.621,17.578,16.602,0
1610547933.626,93.262,29.785,32.227,45.898,8.301,0
1610547933.630,94.238,32.227,35.156,46.387,35.645,0
1610547933.634,-9.277,32.715,31.250,11.230,41.016,0
1610547933.638,-78.125,33.203,35.156,-21.973,-14.648,0
1610547933.642,-16.113,38.574,41.992,17.090,-46.875,0
1610547933.644,91.797,34.668,36.133,61.035,-20.996,0
1610547933.648,93.750,29.297,30.273,45.898,17.578,0
1610547933.652,-23.438,32.715,28.809,-18.066,101.074,0
1610547933.656,-98.633,37.109,27.832,-54.199,36.133,0
1610547933.660,-50.781,41.016,29.785,-20.508,-8.301,0
1610547933.664,59.082,45.410,34.668,30.273,56.641,0
1610547933.668,80.566,44.922,30.273,24.902,27.344,0
1610547933.671,-29.297,48.340,21.973,-28.809,-39.551,0
1610547933.675,-125.000,51.270,22.461,-78.125,-35.156,0
1610547933.679,-109.375,47.363,24.902,-74.707,-16.602,0
1610547933.683,1.465,53.711,28.809,-21.484,-16.113,0
1610547933.687,47.363,60.059,32.227,-7.324,34.668,0
1610547933.704,-49.316,62.988,31.250,-52.246,60.547,0
1610547933.708,-147.461,65.918,21.484,-99.121,14.648,0
1610547933.712,-132.812,69.824,15.625,-87.402,36.133,0
1610547933.716,-21.973,76.172,24.414,-38.086,33.203,0
1610547933.720,46.875,74.707,32.715,-15.137,18.555,0
1610547933.724,-43.945,68.359,23.926,-62.012,20.508,0
1610547933.728,-150.391,62.500,21.484,-120.605,22.949,0
1610547933.731,-137.207,62.988,32.715,-98.633,26.855,0
1610547933.735,-33.691,63.965,39.551,-31.250,39.062,0
1610547933.739,51.270,57.129,37.598,0.977,43.945,0
1610547933.743,-4.395,53.711,32.227,-31.738,20.508,0
1610547933.747,-110.352,54.688,28.809,-80.078,-45.898,0
1610547933.749,-116.699,48.828,25.879,-81.055,-9.766,0
1610547933.753,-13.672,42.969,26.367,-12.207,75.195,0
1610547933.757,89.844,41.504,26.367,42.480,56.152,0
1610547933.761,52.734,44.434,30.273,14.160,17.578,0
1610547933.765,-60.547,45.410,37.109,-36.621,18.066,0
1610547933.769,-83.984,42.480,30.762,-41.504,46.875,0
1610547933.773,12.695,38.574,20.020,10.742,-6.836,0
1610547933.776,124.023,31.738,25.879,61.523,-20.020,0
1610547933.780,100.586,27.832,25.879,59.570,14.648,0
1610547933.784,-15.625,30.273,27.344,9.277,3.418,0
1610547933.788,-63.477,28.320,38.574,-20.020,-1.953,0
1610547933.792,14.160,23.438,33.203,16.113,24.414,0
1610547933.794,127.441,19.531,29.785,72.266,80.566,0
1610547933.798,120.117,21.484,27.344,78.613,86.426,0
1610547933.802,7.812,23.926,25.391,35.645,-10.742,0
1610547933.806,-43.945,22.949,23.926,16.602,-54.688,0
1610547933.810,18.066,20.996,20.996,41.016,16.602,0
1610547933.814,129.883,23.438,28.809,93.262,20.020,0
1610547933.818,146.484,26.855,31.250,101.562,16.113,0
1610547933.821,39.062,22.461,27.344,41.504,64.453,0
1610547933.825,-33.691,20.996,28.809,2.930,77.637,0
1610547933.829,12.207,20.020,22.949,30.762,53.223,0
1610547933.833,125.977,22.461,31.250,95.215,33.203,0
1610547933.837,159.668,22.949,38.086,109.375,19.043,0
1610547933.839,60.059,19.531,36.133,60.059,14.648,0
1610547933.843,-32.227,20.508,33.203,15.137,-22.461,0
1610547933.847,0.000,21.484,22.461,35.645,-11.230,0
1610547933.851,118.164,19.043,26.367,90.332,37.109,0
1610547933.855,166.992,13.184,31.250,112.305,10.254,0
1610547933.859,73.242,14.648,33.691,81.543,22.949,0
1610547933.863,-20.020,16.113,34.668,36.621,25.391,0
1610547933.866,2.930,18.066,33.691,45.898,34.668,0
1610547933.870,120.605,27.344,35.645,90.332,70.801,0
1610547933.874,179.199,27.344,37.109,107.910,67.871,0
1610547933.878,84.473,19.043,31.250,67.871,65.918,0
1610547933.882,-16.113,18.555,24.414,22.949,10.254,0
1610547933.884,-7.324,19.531,29.785,28.809,-31.250,0
1610547933.888,97.168,16.602,36.133,72.266,30.273,0
1610547933.892,169.922,16.113,41.504,102.539,55.176,0
1610547933.896,97.656,19.531,39.551,66.406,5.859,0
1610547933.900,-15.137,20.996,35.156,8.301,-59.082,0
1610547933.904,-25.879,20.996,32.715,19.531,0.488,0
1610547933.908,71.777,22.949,29.297,72.266,104.492,0
1610547933.911,158.203,17.090,30.762,97.168,122.070,0
1610547933.915,106.934,16.602,25.391,73.242,83.984,0
1610547933.919,-8.789,20.996,21.973,20.508,-6.348,0
1610547933.923,-32.227,23.438,26.367,-1.465,-37.598,0
1610547933.927,55.664,27.344,20.020,49.316,67.871,0
1610547933.930,152.344,26.855,27.344,94.238,89.844,0
1610547933.934,123.047,24.902,39.551,80.078,-24.414,0
1610547933.938,1.953,25.391,31.250,38.574,-47.363,0
1610547933.942,-46.387,22.461,20.996,10.742,-13.672,0
1610547933.946,27.832,17.090,19.043,36.133,33.203,0
1610547933.950,137.207,18.555,23.926,87.891,65.918,0
1610547933.954,127.441,24.414,32.715,81.543,52.246,0
1610547933.957,10.254,27.832,41.992,19.531,42.480,0
1610547933.961,-44.434,28.320,39.551,-12.695,75.684,0
1610547933.965,17.090,20.508,24.902,30.762,92.773,0
1610547933.969,127.441,21.484,23.438,83.984,68.359,0
1610547933.973,137.207,27.344,22.949,72.754,-12.695,0
1610547933.976,22.949,25.879,18.555,14.160,-18.066,0
1610547933.980,-50.781,23.926,21.973,-14.648,7.324,0
1610547933.984,7.324,27.344,17.090,21.484,-20.996,0
1610547933.988,126.465,32.715,21.973,80.566,41.504,0
1610547933.992,144.043,29.785,37.598,91.309,41.016,0
1610547933.996,41.504,27.832,40.039,34.180,-45.410,0
1610547934.000,-45.898,24.902,28.320,-19.531,-32.227,0
1610547934.003,-19.043,23.438,25.879,5.371,63.965,0
1610547934.007,93.750,23.438,22.461,64.453,98.633,0
1610547934.011,140.137,18.555,18.066,86.426,57.129,0
1610547934.015,47.363,16.602,14.160,47.363,20.996,0
1610547934.019,-48.828,24.902,8.301,-0.488,17.578,0
1610547934.035,-23.926,35.645,21.484,20.996,53.223,0
1610547934.039,85.449,31.738,40.039,72.266,78.613,0
1610547934.043,142.090,24.414,47.852,79.102,92.285,0
1610547934.047,59.082,26.367,41.016,38.574,41.016,0
1610547934.051,-46.387,27.832,26.367,-15.625,14.160,0
1610547934.055,-38.086,26.367,20.508,-2.441,16.602,0
1610547934.059,65.918,25.879,30.273,56.152,29.785,0
1610547934.062,147.461,29.297,40.527,79.590,59.570,0
1610547934.066,75.684,32.715,33.203,50.293,54.199,0
1610547934.070,-44.434,28.809,23.438,-11.230,29.785,0
1610547934.074,-47.852,22.461,20.996,-16.113,38.086,0
1610547934.078,56.152,21.973,26.855,45.410,23.926,0
1610547934.079,141.602,24.902,36.133,89.844,13.184,0
1610547934.083,83.984,29.297,39.551,62.988,14.160,0
1610547934.087,-28.809,33.203,38.574,4.883,-14.648,0
1610547934.091,-53.223,31.738,28.809,-7.812,-39.062,0
1610547934.095,31.250,29.785,25.879,36.133,33.691,0
1610547934.099,130.371,27.832,34.180,76.660,0.000,0
1610547934.103,90.820,27.344,31.250,54.199,-47.852,0
1610547934.106,-26.367,32.227,19.531,-2.441,67.383,0
1610547934.110,-58.594,35.156,20.508,-15.137,29.297,0
1610547934.114,22.949,34.180,33.203,23.926,-18.066,0
1610547934.118,121.582,28.320,36.621,62.012,63.477,0
1610547934.122,104.004,29.785,33.203,60.059,36.621,0
1610547934.124,-3.906,39.551,39.062,13.672,-41.992,0
1610547934.128,-60.059,31.738,36.133,-14.648,4.883,0
1610547934.132,4.883,26.855,31.250,20.508,59.570,0
1610547934.136,119.629,30.762,27.832,74.219,62.012,0
1610547934.140,113.770,29.785,21.484,78.613,57.129,0
1610547934.144,-0.977,29.297,23.438,26.367,40.527,0
1610547934.148,-66.406,24.902,18.555,-15.625,-0.977,0
1610547934.151,-14.648,24.414,15.137,3.906,20.996,0
1610547934.155,104.004,31.250,21.973,66.406,30.273,0
1610547934.159,133.301,36.133,36.621,84.961,49.316,0
1610547934.163,25.879,35.645,36.133,25.391,85.938,0
1610547934.167,-56.152,33.203,33.691,-16.602,27.832,0
1610547934.169,-17.090,24.414,36.133,8.301,41.016,0
1610547934.173,93.750,24.902,34.668,64.941,17.578,0
1610547934.177,132.812,32.715,42.969,95.215,1.953,0
1610547934.181,36.133,35.156,40.527,45.410,6.348,0
1610547934.185,-62.988,29.297,24.902,-24.902,-52.246,0
1610547934.189,-40.527,23.438,27.344,-13.672,-39.062,0
1610547934.193,78.613,26.855,36.621,49.316,39.551,0
1610547934.196,135.254,30.273,31.738,65.918,56.152,0
1610547934.200,47.363,36.133,33.691,22.461,47.852,0
1610547934.204,-53.223,40.527,37.598,-11.230,29.785,0
1610547934.208,-41.504,34.668,30.273,5.859,-10.254,0
1610547934.212,65.918,27.344,32.227,55.664,28.320,0
1610547934.214,139.160,28.320,33.203,79.102,39.062,0
1610547934.218,75.195,36.621,31.250,37.109,48.340,0
1610547934.222,-25.879,41.016,33.203,-11.719,41.992,0
1610547934.226,-37.598,38.574,38.086,-8.789,24.414,0
1610547934.230,47.852,26.367,34.180,31.738,35.645,0
1610547934.234,131.836,25.391,32.227,69.824,49.316,0
1610547934.238,88.867,35.645,33.203,59.570,108.887,0
1610547934.241,-21.484,40.527,36.133,4.395,77.148,0
1610547934.245,-41.016,40.527,33.691,-8.301,10.742,0
1610547934.249,45.898,33.203,25.879,45.898,46.387,0
1610547934.253,138.184,25.879,27.344,88.379,89.355,0
1610547934.257,92.773,28.809,38.086,61.035,64.941,0
1610547934.260,-27.344,34.180,42.969,11.719,16.602,0
1610547934.264,-57.617,34.668,40.527,0.488,-16.602,0
1610547934.268,21.484,30.273,42.969,37.109,-34.180,0
1610547934.272,120.605,22.949,42.480,81.543,-3.418,0
1610547934.276,103.516,28.809,33.203,66.895,-7.812,0
1610547934.280,-10.742,37.109,28.809,5.371,-5.859,0
1610547934.284,-60.547,33.691,37.598,-17.578,22.461,0
1610547934.287,10.254,32.715,41.016,24.902,12.207,0
1610547934.291,124.512,37.598,40.039,76.660,3.418,0
1610547934.295,122.070,37.109,34.668,69.336,34.180,0
1610547934.299,2.930,35.645,28.809,16.602,44.922,0
1610547934.303,-58.105,36.133,31.738,-10.742,43.457,0
1610547934.304,0.488,33.203,33.203,18.066,32.715,0
1610547934.308,112.305,32.715,34.668,75.195,-1.465,0
1610547934.312,131.348,38.574,39.551,73.730,5.859,0
1610547934.316,21.973,39.551,38.574,24.414,32.715,0
1610547934.320,-50.293,30.762,35.645,-6.348,41.016,0
1610547934.324,-8.301,31.738,28.320,9.277,23.926,0
1610547934.328,93.750,36.133,28.320,62.012,20.996,0
1610547934.331,130.859,31.250,42.480,72.754,22.461,0
1610547934.335,33.203,32.227,46.875,27.344,10.254,0
1610547934.339,-58.594,38.086,38.574,-20.020,-24.902,0
1610547934.343,-34.668,36.621,33.203,-1.953,16.113,0
1610547934.347,75.195,37.598,29.785,70.312,39.062,0
1610547934.349,132.812,36.621,28.809,81.543,5.859,0
1610547934.353,48.828,33.691,36.621,33.203,52.734,0
1610547934.357,-42.480,37.109,41.992,-7.324,68.359,0
1610547934.361,-22.461,38.086,33.691,3.418,14.648,0
1610547934.365,78.613,32.227,23.926,57.129,25.879,0
1610547934.369,145.508,31.250,30.273,88.379,-4.883,0
1610547934.373,72.266,35.645,42.969,50.293,2.441,0
1610547934.376,-38.574,31.738,40.527,-1.953,11.230,0
1610547934.380,-39.551,29.297,39.062,3.906,11.230,0
1610547934.384,60.059,28.320,36.621,48.340,17.578,0
1610547934.388,141.602,29.297,32.227,78.125,34.668,0
1610547934.392,88.379,36.133,28.809,57.129,104.004,0
1610547934.395,-30.273,33.691,26.855,-5.859,66.406,0
1610547934.399,-40.527,39.551,34.180,0.488,19.043,0
1610547934.403,56.641,45.410,37.109,68.359,56.641,0
1610547934.407,131.348,35.645,26.855,86.426,77.637,0
1610547934.411,83.496,26.367,22.949,43.457,33.691,0
1610547934.415,-27.344,26.367,31.738,-10.254,-61.035,0
1610547934.419,-50.293,34.180,37.109,-11.719,-63.477,0
1610547934.422,31.738,37.598,39.551,33.691,-6.836,0
1610547934.426,117.676,32.227,36.133,73.242,-5.859,0
1610547934.430,98.145,31.250,23.438,62.988,67.871,0
1610547934.434,-12.695,34.180,21.484,0.000,106.934,0
1610547934.438,-69.824,30.273,27.344,-30.273,39.062,0
1610547934.443,7.812,28.320,25.391,15.625,19.531,0
1610547934.447,122.070,34.180,28.809,78.125,75.195,0
1610547934.451,118.652,34.668,31.738,82.031,95.215,0
1610547934.455,3.906,30.273,29.297,11.230,33.691,0
1610547934.459,-60.059,34.180,24.414,-23.926,-17.090,0
1610547934.463,2.441,35.645,28.809,19.531,-56.641,0
1610547934.467,119.629,34.180,38.086,76.660,-4.883,0
1610547934.470,135.254,38.086,24.902,77.148,74.219,0
1610547934.474,20.996,38.086,26.855,16.113,43.457,0
1610547934.478,-62.988,33.691,37.598,-14.648,-60.059,0
1610547934.482,-20.508,30.762,29.297,20.020,-42.480,0
1610547934.486,94.727,28.320,24.414,76.172,43.457,0
1610547934.500,130.859,31.250,34.668,77.148,64.941,0
1610547934.504,34.668,34.180,39.062,23.438,67.871,0
1610547934.508,-57.129,35.645,29.297,-23.438,54.199,0
1610547934.512,-30.762,35.645,32.715,-16.113,53.223,0
1610547934.516,88.379,29.785,34.180,53.711,34.668,0
1610547934.520,138.184,26.855,19.531,78.613,55.176,0
1610547934.524,47.852,34.668,22.949,40.527,62.988,0
1610547934.527,-52.734,35.645,32.227,-7.324,24.414,0
1610547934.531,-46.875,26.367,27.832,-3.418,14.648,0
1610547934.535,65.430,32.715,33.203,59.082,31.250,0
1610547934.539,135.254,36.621,36.621,74.707,83.496,0
1610547934.543,53.223,30.762,27.344,40.039,69.336,0
1610547934.544,-44.434,33.691,33.203,-0.488,41.992,0
1610547934.548,-46.387,29.785,34.180,-16.602,-5.859,0
1610547934.552,41.992,26.855,27.344,35.645,21.484,0
1610547934.556,123.047,30.273,29.785,84.473,122.559,0
1610547934.560,63.477,29.785,29.785,57.129,81.055,0
1610547934.564,-45.410,32.227,23.438,-4.883,-15.625,0
1610547934.568,-61.035,35.645,20.996,-17.578,3.418,0
1610547934.571,36.621,32.227,27.832,34.180,40.527,0
1610547934.575,131.348,29.785,30.762,67.871,28.809,0
1610547934.579,83.008,32.227,30.273,36.133,7.812,0
1610547934.583,-31.250,31.738,32.715,-20.996,-62.012,0
1610547934.587,-57.617,31.250,29.297,-27.344,-38.086,0
1610547934.589,32.227,33.203,27.344,32.715,14.648,0
1610547934.593,138.184,34.668,24.902,84.961,19.043,0
1610547934.597,102.051,27.344,19.043,62.988,47.363,0
1610547934.601,-16.113,25.391,26.367,3.418,65.430,0
1610547934.605,-59.570,30.762,27.344,-18.066,41.504,0
1610547934.609,12.207,30.273,18.555,26.367,18.066,0
1610547934.613,122.559,33.691,23.438,82.520,73.730,0
1610547934.616,107.422,32.715,25.391,68.359,83.008,0
1610547934.620,-15.137,29.297,30.762,0.000,52.734,0
1610547934.624,-70.801,28.809,33.691,-22.461,-15.137,0
1610547934.628,-7.324,27.832,30.273,12.207,67.871,0
1610547934.632,101.562,30.762,35.156,61.035,131.836,0
1610547934.634,114.746,32.227,43.945,61.523,35.156,0
1610547934.638,4.883,29.785,43.457,15.137,15.625,0
1610547934.642,-63.965,31.738,29.785,-14.160,27.344,0
1610547934.646,-13.184,32.227,14.160,15.625,1.953,0
1610547934.650,94.727,31.250,16.113,62.012,76.660,0
1610547934.654,120.605,31.250,26.367,62.988,71.777,0
1610547934.658,21.973,34.668,33.203,26.367,17.578,0
1610547934.661,-61.035,33.203,36.621,-21.973,35.156,0
1610547934.665,-26.855,32.715,25.879,-5.371,41.504,0
1610547934.669,83.496,30.762,19.043,64.941,24.414,0
1610547934.673,125.977,23.438,24.902,79.102,37.598,0
1610547934.677,39.551,29.297,30.762,35.645,66.895,0
1610547934.679,-54.688,35.156,24.902,-12.695,-10.742,0
1610547934.683,-41.504,27.832,25.391,-11.230,-11.719,0
1610547934.687,69.336,30.273,29.785,45.898,55.176,0
1610547934.691,134.766,33.691,22.461,71.777,49.805,0
1610547934.695,53.711,31.250,23.926,28.320,2.930,0
1610547934.699,-50.293,34.668,27.344,-16.113,-11.230,0
1610547934.703,-49.316,32.715,26.855,-4.395,-11.719,0
1610547934.706,52.246,28.809,28.320,39.062,10.742,0
1610547934.710,137.207,25.391,33.203,79.590,44.922,0
1610547934.714,73.242,23.926,43.457,52.246,83.984,0
1610547934.718,-50.781,33.691,43.945,-22.461,-2.441,0
1610547934.722,-64.941,39.062,34.180,-35.645,-42.969,0
1610547934.725,38.574,34.668,28.809,23.926,61.523,0
1610547934.729,128.906,28.320,24.414,66.406,53.223,0
1610547934.733,77.637,29.297,23.438,48.340,15.625,0
1610547934.737,-34.668,33.203,19.531,-0.488,49.805,0
1610547934.741,-49.805,34.668,24.414,-20.996,57.129,0
1610547934.745,37.109,32.227,33.691,23.438,20.996,0
1610547934.749,136.230,31.250,25.879,77.148,30.762,0
1610547934.752,106.934,37.598,19.531,58.594,66.895,0
1610547934.756,-19.043,32.715,22.949,-9.277,69.336,0
1610547934.760,-65.918,28.320,33.691,-32.227,21.973,0
1610547934.764,13.672,33.203,39.551,16.113,82.031,0
1610547934.768,122.559,33.203,40.039,73.242,126.953,0
1610547934.769,107.422,32.227,38.086,69.824,23.926,0
1610547934.773,-7.324,32.715,31.738,10.254,9.766,0
1610547934.777,-62.500,32.227,27.832,-24.902,20.508,0
1610547934.781,-0.488,31.250,27.832,15.625,-12.207,0
1610547934.785,115.234,30.762,30.273,71.289,24.414,0
1610547934.789,123.535,30.273,33.203,64.941,14.648,0
1610547934.793,15.137,30.762,38.086,9.766,12.695,0
1610547934.796,-62.012,28.320,30.762,-13.184,78.125,0
1610547934.800,-21.973,31.250,29.785,17.578,26.855,0
1610547934.804,92.285,31.738,30.762,51.758,-17.578,0
1610547934.808,120.117,28.320,33.691,65.918,20.508,0
1610547934.812,15.625,28.809,39.062,27.344,65.430,0
1610547934.830,-74.707,28.809,41.992,-20.996,66.895,0
1610547934.834,-42.480,26.367,34.668,0.977,-5.371,0
1610547934.838,75.684,26.855,25.391,62.500,16.602,0
1610547934.842,120.605,28.809,26.367,76.660,111.816,0
1610547934.846,31.250,32.715,22.461,26.367,73.242,0
1610547934.850,-57.617,36.133,30.273,-17.578,4.395,0
1610547934.854,-39.551,34.180,35.645,5.859,28.809,0
1610547934.857,74.707,27.832,35.645,62.500,24.414,0
1610547934.861,129.395,22.949,37.598,81.543,-25.391,0
1610547934.865,40.527,23.926,36.621,37.109,26.367,0
1610547934.869,-54.688,25.879,38.574,-17.090,47.363,0
1610547934.873,-45.410,27.832,35.645,-1.953,22.461,0
1610547934.874,54.688,30.273,29.297,60.547,26.367,0
1610547934.878,129.883,30.273,26.855,81.543,49.805,0
1610547934.882,68.359,30.762,26.367,32.227,26.855,0
1610547934.886,-46.875,30.762,24.414,-17.578,15.625,0
1610547934.890,-53.223,30.273,25.391,-11.230,0.977,0
1610547934.894,55.664,33.203,26.367,43.945,2.441,0
1610547934.898,144.043,39.551,24.902,74.707,58.105,0
1610547934.901,89.355,41.992,32.715,50.293,28.320,0
1610547934.905,-26.367,38.086,38.086,-0.488,-42.480,0
1610547934.909,-63.477,33.203,26.367,-20.020,-17.578,0
1610547934.913,16.602,32.227,16.602,35.156,-12.695,0
1610547934.917,118.652,30.273,19.531,86.426,-20.996,0
1610547934.919,87.891,26.855,28.809,63.477,58.105,0
1610547934.923,-41.504,25.879,27.344,4.883,113.281,0
1610547934.927,-80.566,31.738,26.367,-12.695,57.129,0
1610547934.931,8.789,31.250,26.367,27.832,69.336,0
1610547934.935,115.723,28.320,23.926,80.566,57.617,0
1610547934.939,109.375,34.668,24.414,72.754,-7.324,0
1610547934.943,-5.859,32.227,18.066,4.883,18.066,0
1610547934.946,-67.871,27.344,18.066,-18.555,44.922,0
1610547934.950,-2.441,34.180,38.086,24.902,23.438,0
1610547934.954,116.699,39.062,50.781,76.172,16.602,0
1610547934.958,112.793,32.715,38.574,75.195,48.828,0
1610547934.962,-4.883,29.785,27.344,14.648,73.730,0
1610547934.965,-65.918,32.227,24.902,-24.414,0.977,0
1610547934.969,-18.555,30.762,30.273,4.883,-19.531,0
1610547934.973,97.168,26.367,36.621,56.152,23.438,0
1610547934.977,124.023,25.879,29.785,60.059,32.227,0
1610547934.981,16.113,31.250,23.926,15.137,13.184,0
1610547934.985,-63.477,36.133,23.438,-24.414,9.277,0
1610547934.989,-27.344,31.738,19.531,6.348,45.410,0
1610547934.992,80.566,22.461,21.973,69.336,57.129,0
1610547934.996,121.094,23.926,29.785,80.566,52.246,0
1610547935.000,31.250,34.180,36.133,33.203,101.562,0
1610547935.004,-62.012,34.180,37.109,-19.531,53.711,0
1610547935.008,-41.016,28.320,34.180,-7.324,-11.719,0
1610547935.009,69.824,26.367,32.715,43.457,45.410,0
1610547935.013,124.023,28.320,32.715,64.941,40.039,0
1610547935.017,44.922,29.297,27.832,28.809,5.859,0
1610547935.021,-56.641,29.785,21.973,-23.438,22.461,0
1610547935.025,-45.898,31.738,26.855,-10.742,-1.465,0
1610547935.029,58.594,24.902,33.203,45.898,-55.664,0
1610547935.033,125.488,20.020,31.250,65.918,5.859,0
1610547935.036,62.988,25.391,31.738,29.785,51.270,0
1610547935.040,-51.270,27.344,38.086,-21.973,-17.090,0
1610547935.044,-57.617,26.367,37.598,-20.508,29.297,0
1610547935.048,47.363,26.855,37.109,33.691,41.016,0
1610547935.052,132.812,28.809,41.992,74.219,-32.715,0
1610547935.054,72.266,26.855,38.086,44.922,59.082,0
1610547935.058,-32.715,27.832,34.180,-9.766,74.707,0
1610547935.062,-49.316,31.250,29.785,-11.230,14.160,0
1610547935.066,41.016,31.738,24.902,38.086,26.367,0
1610547935.070,140.137,31.250,30.273,73.242,55.176,0
1610547935.074,95.703,26.855,29.785,51.270,104.492,0
1610547935.078,-30.273,22.949,26.367,-16.113,46.875,0
1610547935.081,-72.266,27.344,28.320,-39.062,15.625,0
1610547935.085,19.531,33.203,31.250,18.066,64.941,0
1610547935.089,126.465,30.762,25.391,66.406,53.223,0
1610547935.093,101.074,28.320,36.133,56.152,60.059,0
1610547935.097,-7.812,31.250,44.922,7.812,12.695,1
1610547935.099,-55.664,30.273,39.062,-13.184,-14.160,0
1610547935.103,10.742,31.250,35.645,15.625,0.977,0
1610547935.107,111.328,32.227,26.367,55.664,-15.137,0
1610547935.111,108.398,31.250,32.715,52.734,52.246,0
1610547935.115,1.465,33.691,38.574,0.488,67.871,0
1610547935.119,-63.477,33.203,28.809,-29.297,34.668,0
1610547935.123,-15.625,26.855,23.926,0.000,9.277,0
1610547935.126,95.703,28.320,23.926,51.758,44.922,0
1610547935.130,121.582,34.180,21.973,65.430,40.039,0
1610547935.134,10.742,22.949,29.297,14.160,-13.184,0
1610547935.138,-70.801,22.461,30.762,-25.391,21.484,0
1610547935.142,-22.949,34.180,30.273,2.930,45.410,0
1610547935.144,87.402,32.227,31.738,54.688,38.574,0
1610547935.148,123.047,33.203,31.738,70.312,38.086,0
1610547935.152,25.879,28.320,31.738,25.879,14.160,0
1610547935.156,-72.754,20.508,33.691,-22.949,52.246,0
1610547935.160,-40.527,26.855,35.645,-3.906,78.125,0
1610547935.164,79.590,25.391,36.621,62.500,114.258,0
1610547935.168,125.977,20.020,38.086,79.102,49.316,0
1610547935.171,37.109,28.809,34.180,31.738,7.324,0
1610547935.175,-58.594,30.273,32.227,-10.254,13.672,0
1610547935.179,-50.781,26.367,27.344,4.883,28.320,0
1610547935.183,59.570,29.785,22.461,59.570,65.918,0
1610547935.187,129.395,27.832,28.809,77.637,2.930,0
1610547935.191,51.758,25.879,36.621,39.551,-13.184,0
1610547935.195,-53.711,30.762,33.691,-9.766,0.977,0
1610547935.199,-56.152,28.320,30.273,-5.371,-42.480,0
1610547935.203,42.969,24.414,34.180,49.805,-32.715,0
1610547935.207,119.629,23.438,35.645,75.195,1.953,0
1610547935.211,61.035,19.531,33.691,37.109,3.906,0
1610547935.215,-46.875,24.414,35.156,-15.625,48.340,0
1610547935.218,-64.453,32.227,31.738,-18.066,60.547,0
1610547935.222,23.926,32.227,20.508,38.086,18.066,0
1610547935.226,119.629,29.297,12.207,74.219,68.359,0
1610547935.230,81.543,31.250,20.020,43.945,76.172,0
1610547935.234,-37.109,32.715,36.133,-5.371,0.000,0
1610547935.249,-71.289,28.320,38.086,-17.578,-26.855,0
1610547935.253,12.695,27.344,22.949,15.625,9.277,0
1610547935.257,118.164,28.320,28.809,63.477,24.902,0
1610547935.261,96.680,30.273,39.551,55.176,-7.812,0
1610547935.265,-19.043,24.414,35.156,1.465,1.953,0
1610547935.269,-64.941,22.949,33.691,-8.789,-4.395,0
1610547935.273,4.395,29.785,24.902,25.879,4.883,0
1610547935.276,115.723,31.738,22.949,75.684,23.926,0
1610547935.280,114.746,27.832,33.203,73.242,-12.695,0
1610547935.284,-1.953,30.273,36.621,21.973,-30.273,0
1610547935.288,-67.383,33.691,32.227,-4.883,28.320,0
1610547935.292,-6.348,33.203,33.203,14.160,6.836,0
1610547935.294,99.609,33.203,30.762,56.152,-23.926,0
1610547935.298,111.816,32.227,28.320,62.500,7.812,0
1610547935.302,1.953,28.809,38.086,11.230,21.973,0
1610547935.306,-73.730,27.344,36.133,-28.809,37.598,0
1610547935.310,-29.785,25.879,30.762,1.465,28.320,0
1610547935.314,81.543,23.926,32.227,57.129,49.805,0
1610547935.318,121.094,27.344,30.273,69.824,64.453,0
1610547935.321,20.996,30.762,23.438,13.672,57.129,0
1610547935.325,-73.730,28.809,21.484,-40.527,44.922,0
1610547935.329,-35.645,27.832,28.320,-11.230,58.594,0
1610547935.333,79.102,25.879,25.391,49.805,49.316,0
1610547935.337,132.812,32.715,20.996,75.684,47.363,0
1610547935.339,43.457,36.621,20.996,35.156,49.805,0
1610547935.343,-61.035,33.691,25.879,-23.926,32.715,0
1610547935.347,-48.340,31.738,33.203,-20.508,39.062,0
1610547935.351,61.523,24.414,34.180,36.621,54.688,0
1610547935.355,129.395,22.949,36.133,65.918,62.988,0
1610547935.359,54.688,27.344,34.668,37.598,61.035,0
1610547935.363,-51.270,27.344,30.273,-13.184,71.289,0
1610547935.366,-59.082,25.391,30.762,-19.043,87.402,0
1610547935.370,46.875,25.391,27.344,37.109,41.016,0
1610547935.374,137.695,29.785,29.297,71.777,46.387,0
1610547935.378,78.125,32.715,22.949,44.922,77.637,0
1610547935.382,-39.062,26.367,15.625,-8.789,14.160,0
1610547935.384,-58.594,22.461,20.508,-22.949,30.762,0
1610547935.388,39.062,25.879,24.414,32.715,40.527,0
1610547935.392,135.742,31.250,18.066,73.730,1.465,0
1610547935.396,89.355,32.227,19.531,49.316,59.082,0
1610547935.400,-28.809,27.832,29.785,-0.488,35.156,0
1610547935.404,-61.035,29.297,25.879,-19.043,-7.324,0
1610547935.408,22.949,30.273,24.902,27.344,-12.695,0
1610547935.411,122.559,28.320,32.227,72.754,36.133,0
1610547935.415,102.051,27.344,35.156,51.758,44.922,0
1610547935.419,-14.160,30.762,30.762,-4.395,16.602,0
1610547935.423,-71.777,34.668,25.879,-21.973,24.414,0
1610547935.427,1.953,34.668,25.879,25.391,-12.207,0
1610547935.429,109.375,28.809,33.203,73.730,-20.508,0
1610547935.433,103.516,26.855,36.133,66.406,-2.441,0
1610547935.437,-3.418,34.180,36.133,17.090,31.250,0
1610547935.441,-64.941,36.133,31.250,-16.602,78.613,0
1610547935.445,-8.301,33.691,22.461,14.648,66.406,0
1610547935.449,102.539,30.273,19.531,59.082,28.809,0
1610547935.453,115.234,30.273,27.344,54.199,54.199,0
1610547935.456,8.789,33.203,43.457,7.812,47.852,0
1610547935.460,-65.430,31.250,45.898,-27.832,30.762,0
1610547935.464,-23.438,28.809,41.504,8.789,6.348,0
1610547935.468,90.820,26.855,31.250,72.266,1.465,0
1610547935.472,127.441,27.832,25.391,68.359,35.645,0
1610547935.474,25.391,32.227,32.227,13.184,65.918,0
1610547935.478,-67.383,30.273,29.785,-24.902,61.035,0
1610547935.482,-39.551,28.320,21.484,0.488,103.027,0
1610547935.486,77.148,32.227,25.391,62.988,130.859,0
1610547935.490,130.371,32.715,17.578,83.008,-7.324,0
1610547935.494,39.551,29.785,20.508,36.133,-58.105,0
1610547935.498,-61.035,29.785,39.551,-29.297,36.133,0
1610547935.501,-41.016,31.738,43.457,-26.367,-0.977,0
1610547935.505,72.754,33.203,44.922,34.668,24.414,0
1610547935.509,137.695,32.227,42.480,64.941,32.715,0
1610547935.513,59.570,30.762,33.691,31.250,40.039,0
1610547935.517,-39.551,37.109,24.902,-17.090,31.738,0
1610547935.519,-31.738,37.109,26.367,-11.719,-32.227,0
1610547935.523,59.570,27.832,26.367,44.922,2.441,0
1610547935.527,132.324,25.391,23.926,81.055,49.805,0
1610547935.531,62.500,30.762,28.320,45.898,52.734,0
1610547935.535,-52.734,32.227,29.785,-6.348,60.547,0
1610547935.539,-64.453,27.344,28.320,-0.977,38.574,0
1610547935.543,31.250,25.879,21.484,41.504,-30.762,0
1610547935.546,123.535,27.344,21.973,67.383,-23.438,0
1610547935.550,73.730,26.367,36.621,39.551,-3.418,0
1610547935.554,-45.898,25.391,35.645,-15.625,10.254,0
1610547935.558,-65.430,26.367,35.156,-24.414,7.812,0
1610547935.562,21.973,28.320,34.668,29.297,48.828,0
1610547935.579,119.141,28.809,26.855,78.125,83.496,0
1610547935.583,95.215,32.227,33.203,57.129,41.504,0
1610547935.587,-22.949,33.691,35.156,0.000,-10.742,0
1610547935.591,-66.895,29.785,31.738,-16.602,-17.090,0
1610547935.595,10.742,24.902,34.180,24.902,35.156,0
1610547935.599,124.512,22.949,33.691,70.312,84.473,0
1610547935.603,115.723,26.855,38.574,64.941,53.711,0
1610547935.606,-1.953,27.344,32.715,9.766,32.227,0
1610547935.610,-65.430,24.414,21.973,-19.043,49.316,0
1610547935.614,-16.113,21.973,32.715,22.949,39.062,0
1610547935.618,100.586,22.461,38.086,79.102,-20.020,0
1610547935.622,111.328,24.414,32.227,72.754,9.766,0
1610547935.624,3.906,28.320,35.156,9.766,103.516,0
1610547935.628,-64.941,29.297,34.668,-29.297,51.758,0
1610547935.632,-27.832,26.855,27.832,10.742,31.250,0
1610547935.636,89.355,27.832,29.785,62.500,80.078,0
1610547935.640,118.652,31.250,37.109,61.035,47.852,0
1610547935.644,17.090,28.809,34.668,19.043,53.711,0
1610547935.648,-63.477,24.414,31.250,-17.578,15.625,0
1610547935.651,-34.668,24.414,32.715,-2.441,-33.203,0
1610547935.655,81.055,27.344,32.715,54.199,48.340,0
1610547935.659,127.441,31.738,32.715,66.406,54.199,0
1610547935.663,38.086,35.645,30.273,30.273,5.371,0
1610547935.667,-49.316,32.715,30.273,-6.836,20.508,0
1610547935.669,-35.156,27.832,28.809,-7.324,19.043,0
1610547935.673,71.777,25.391,30.273,42.480,31.738,0
1610547935.677,136.719,21.484,25.879,65.430,18.555,0
1610547935.681,55.664,21.484,22.461,27.832,25.391,0
1610547935.685,-52.734,27.344,31.738,-10.742,67.383,0
1610547935.689,-46.875,28.809,30.762,4.395,38.574,0
1610547935.693,65.430,34.180,20.508,53.223,-7.324,0
1610547935.696,139.648,37.109,31.738,83.008,59.082,0
1610547935.700,68.359,31.250,45.410,46.875,55.176,0
1610547935.704,-41.504,31.738,40.039,-19.043,-0.488,0
1610547935.708,-53.711,30.273,35.645,-14.160,-26.855,0
1610547935.712,38.574,28.320,34.180,42.480,-6.348,0
1610547935.716,127.441,29.785,33.203,82.031,70.801,0
1610547935.720,82.520,30.273,39.062,47.852,17.090,0
1610547935.724,-26.367,30.762,29.785,-18.555,-19.043,0
1610547935.728,-61.035,28.809,20.508,-18.066,22.461,0
1610547935.732,25.391,28.809,28.809,35.645,33.203,0
1610547935.736,133.789,33.691,32.227,85.938,46.387,0
1610547935.740,98.145,33.691,37.598,67.383,68.848,0
1610547935.743,-24.414,28.320,39.062,1.953,30.273,0
1610547935.747,-64.941,29.297,25.879,-31.738,16.113,0
1610547935.751,10.742,31.738,25.879,12.207,-10.254,0
1610547935.755,119.141,29.785,31.250,75.684,23.438,0
1610547935.759,101.562,28.809,25.391,58.105,20.996,0
1610547935.759,-13.672,27.832,18.066,6.836,-44.922,0
1610547935.763,-63.477,27.832,15.625,-17.578,-28.809,0
1610547935.767,0.977,30.762,22.461,12.207,-38.086,0
1610547935.771,109.375,30.762,32.715,73.730,0.977,0
1610547935.775,113.281,24.902,34.180,74.219,13.184,0
1610547935.779,4.883,27.832,35.645,11.230,14.648,0
1610547935.783,-61.035,29.785,31.250,-25.391,14.160,0
1610547935.786,-7.812,28.809,25.391,6.348,-22.949,0
1610547935.790,100.586,28.809,26.855,60.547,0.000,0
1610547935.794,123.047,30.762,30.762,63.477,54.199,0
1610547935.798,19.043,30.762,32.715,11.230,3.906,0
1610547935.802,-62.988,25.879,30.273,-15.625,-36.133,0
1610547935.804,-20.020,27.832,27.344,16.113,40.527,0
1610547935.808,88.379,29.297,21.973,65.430,36.621,0
1610547935.812,124.023,29.785,18.066,71.777,26.855,0
1610547935.816,37.109,34.668,26.855,23.438,44.922,0
1610547935.820,-47.363,34.180,31.738,-23.438,49.316,0
1610547935.824,-34.668,31.738,34.668,-6.836,55.176,0
1610547935.828,70.312,29.297,40.039,53.223,84.961,0
1610547935.831,130.371,24.414,37.598,72.754,81.055,0
1610547935.835,49.316,24.414,29.297,40.039,37.109,0
1610547935.839,-51.270,34.180,20.020,-4.395,-10.254,0
1610547935.843,-42.969,37.109,24.902,0.488,14.648,0
1610547935.847,61.523,34.180,26.367,51.270,43.945,0
1610547935.849,132.324,32.227,26.367,68.359,95.703,0
1610547935.853,64.941,29.297,30.762,40.527,81.543,0
1610547935.857,-47.363,26.367,33.691,-9.277,25.391,0
1610547935.861,-54.199,24.902,34.180,-10.742,26.855,0
1610547935.865,51.270,25.879,36.621,42.480,-36.133,0
1610547935.869,133.789,27.832,45.410,79.590,25.391,0
1610547935.873,70.801,32.227,43.945,55.176,57.129,0
1610547935.876,-46.387,30.762,34.668,-10.742,10.742,0
1610547935.880,-61.523,30.762,31.250,-20.508,-0.977,0
1610547935.884,29.785,32.715,25.879,39.062,18.555,0
1610547935.888,127.930,32.715,23.926,87.891,54.199,0
1610547935.892,89.355,33.691,30.273,64.941,45.410,0
1610547935.894,-26.367,33.203,34.180,-6.348,31.250,0
1610547935.898,-59.570,31.250,24.902,-30.762,5.859,0
1610547935.902,12.207,27.832,17.578,21.973,61.035,0
1610547935.906,117.676,24.902,21.973,79.102,48.828,0
1610547935.910,106.445,24.902,31.738,65.430,58.105,0
1610547935.914,-11.230,24.414,43.945,8.789,26.855,0
1610547935.918,-70.801,20.020,41.504,-24.902,32.715,0
1610547935.921,-8.301,25.391,36.133,9.766,67.871,0
1610547935.925,102.539,28.320,37.109,64.453,18.555,0
1610547935.929,106.445,28.809,34.180,68.359,43.457,0
1610547935.933,-7.812,34.180,26.855,27.832,36.133,0
1610547935.937,-71.777,32.227,33.691,-2.930,1.465,0
1610547935.940,-11.719,31.738,41.992,21.484,-21.484,0
1610547935.944,100.586,33.691,37.109,67.383,37.598,0
1610547935.948,117.188,27.832,34.180,63.965,35.645,0
1610547935.952,10.742,27.344,35.156,1.465,-34.180,0
1610547935.956,-68.359,27.344,34.180,-32.227,-17.578,0
1610547935.960,-20.996,29.785,41.504,7.324,3.906,0
1610547935.964,93.750,30.762,40.527,61.035,16.113,0
1610547935.967,124.023,28.809,35.156,70.801,37.109,0
1610547935.971,26.367,29.297,36.621,31.250,74.707,0
1610547935.975,-62.012,25.879,34.180,-22.949,85.449,0
1610547935.979,-36.621,23.926,30.273,-10.742,36.133,0
1610547935.983,78.125,30.273,27.832,50.781,33.203,0
1610547935.999,134.277,37.598,24.902,71.777,61.035,0
1610547936.003,43.457,36.133,33.203,29.297,56.641,0
1610547936.007,-52.734,32.227,37.598,-10.254,55.664,0
1610547936.011,-35.645,31.738,31.738,2.930,49.805,0
1610547936.015,76.660,29.785,34.180,49.805,81.055,0
1610547936.019,139.160,31.738,42.480,69.336,33.203,0
1610547936.023,52.734,34.668,37.109,31.250,-1.465,0
1610547936.026,-54.199,33.203,26.855,-19.043,16.602,0
1610547936.030,-57.617,30.762,37.598,-20.996,67.383,0
1610547936.034,44.922,29.785,42.480,39.551,64.941,0
1610547936.038,137.695,34.668,39.551,87.891,58.105,0
1610547936.042,85.449,35.645,42.969,56.152,-5.371,0
1610547936.044,-37.598,30.762,42.969,-10.742,-23.438,0
1610547936.048,-62.988,28.809,35.645,-13.184,7.324,0
1610547936.052,31.250,29.785,27.344,46.387,-37.109,0
1610547936.056,128.906,30.273,19.531,92.773,-10.254,0
1610547936.060,89.355,29.297,26.367,54.688,37.109,0
1610547936.064,-24.902,35.645,43.457,-9.766,45.898,0
1610547936.068,-64.453,38.086,45.898,-29.297,43.457,0
1610547936.071,11.719,33.203,41.016,17.090,18.555,0
1610547936.075,123.535,31.738,39.551,77.148,25.879,0
1610547936.079,98.145,35.156,37.109,62.988,60.547,0
1610547936.083,-19.043,35.645,36.133,7.812,34.180,0
1610547936.087,-66.406,34.180,34.668,-16.113,41.992,0
1610547936.089,-0.488,35.156,28.320,22.461,33.203,0
1610547936.093,107.422,31.250,29.785,72.754,-8.789,0
1610547936.097,106.934,28.320,28.320,69.336,48.340,0
1610547936.101,-6.348,30.273,24.902,21.484,67.871,0
1610547936.105,-76.172,27.344,28.809,-21.484,7.324,0
1610547936.109,-13.672,28.320,38.574,14.648,20.996,0
1610547936.113,109.375,27.832,38.086,76.660,59.082,0
1610547936.116,124.512,24.414,27.832,76.172,55.664,0
1610547936.120,9.766,32.227,32.715,23.438,50.781,0
1610547936.124,-71.289,34.668,27.832,-26.855,63.477,0
1610547936.128,-21.973,35.156,27.344,12.695,-1.953,0
1610547936.132,89.844,34.180,28.809,69.336,-29.297,0
1610547936.134,128.418,34.668,15.137,78.125,4.395,0
1610547936.138,29.785,34.180,20.020,39.062,-2.441,0
1610547936.142,-63.965,28.809,30.273,-21.973,-0.488,0
1610547936.146,-37.109,26.855,32.715,-14.160,21.484,0
1610547936.150,78.125,25.879,39.062,46.387,97.168,0
1610547936.154,136.230,28.809,38.574,67.383,77.148,0
1610547936.158,49.805,31.738,30.762,29.785,49.316,0
1610547936.161,-52.246,29.785,27.344,-21.484,56.152,0
1610547936.165,-38.574,28.809,21.973,-5.371,-7.812,0
1610547936.169,66.406,25.391,18.555,58.105,-25.391,0
1610547936.173,129.883,19.531,29.297,84.473,19.531,0
1610547936.177,49.316,19.531,32.227,46.875,-4.883,0
1610547936.180,-58.594,28.320,31.738,-7.324,-10.742,0
1610547936.184,-50.293,32.227,30.273,-5.371,4.395,0
1610547936.188,55.176,26.855,24.902,47.852,3.418,0
1610547936.192,130.859,23.926,29.297,75.195,19.043,0
1610547936.196,69.336,26.855,43.457,40.039,83.984,0
1610547936.200,-43.945,28.809,46.387,-12.207,25.391,0
1610547936.204,-62.988,29.785,35.156,-8.301,15.625,0
1610547936.207,35.156,33.203,37.598,55.664,80.566,0
1610547936.211,128.906,34.180,36.133,79.590,70.801,0
1610547936.215,83.008,31.250,28.320,40.527,17.578,0
1610547936.219,-28.809,29.297,25.391,-11.230,-28.809,0
1610547936.223,-62.500,31.738,28.320,-28.320,18.066,0
1610547936.225,18.555,32.715,36.621,23.438,20.508,0
1610547936.229,122.070,28.809,33.691,73.242,-32.715,0
1610547936.233,100.098,27.832,31.250,60.059,0.000,0
1610547936.237,-14.648,30.762,36.133,4.395,75.684,0
1610547936.241,-63.965,30.273,34.668,-21.484,62.500,0
1610547936.245,3.418,25.879,34.668,19.531,20.508,0
1610547936.249,111.328,28.320,39.062,75.195,40.039,0
1610547936.252,106.934,32.227,40.039,67.383,16.113,0
1610547936.256,-8.301,31.738,34.668,8.301,61.523,0
1610547936.260,-65.430,34.668,31.738,-19.043,92.773,0
1610547936.264,-12.695,32.715,36.133,22.461,-26.367,0
1610547936.268,95.215,28.320,31.250,69.824,-36.621,0
1610547936.270,121.582,30.273,31.738,63.965,22.949,0
1610547936.274,13.184,36.133,37.598,9.277,69.336,0
1610547936.278,-74.707,35.645,29.297,-30.762,113.281,0
1610547936.282,-27.344,33.203,31.738,12.695,67.871,0
1610547936.286,96.680,35.645,37.109,74.707,45.898,0
1610547936.290,127.441,36.621,38.086,73.242,60.547,0
1610547936.294,18.555,33.691,35.645,18.555,23.926,0
1610547936.297,-63.477,30.273,32.227,-18.066,42.480,0
1610547936.301,-29.297,31.250,37.109,5.371,11.230,0
1610547936.305,74.219,26.367,34.180,53.223,29.785,0
1610547936.309,125.977,24.414,32.227,71.289,107.910,0
1610547936.313,42.480,30.762,29.297,30.273,53.711,0
1610547936.329,-61.035,35.645,25.879,-23.438,19.043,0
1610547936.333,-44.922,36.621,29.297,-10.254,39.551,0
1610547936.337,64.941,31.250,36.133,53.223,17.578,0
1610547936.341,127.930,27.832,32.715,68.359,13.184,0
1610547936.345,54.199,30.762,26.367,26.855,1.953,0
1610547936.349,-50.781,31.738,31.738,-17.578,-51.270,0
1610547936.353,-46.875,33.203,39.551,-7.812,-7.812,0
1610547936.356,58.105,31.250,41.504,53.711,23.926,0
1610547936.360,137.695,28.809,48.828,78.613,11.719,0
1610547936.364,68.848,26.367,51.758,36.133,43.945,0
1610547936.368,-45.410,22.461,42.969,-9.766,19.531,0
1610547936.372,-55.176,26.367,38.086,-7.324,20.020,0
1610547936.374,38.574,32.715,31.738,39.551,48.340,0
1610547936.378,138.184,34.180,30.762,84.473,76.172,0
1610547936.382,101.074,37.598,32.715,69.336,78.125,0
1610547936.386,-20.020,38.086,38.574,5.859,66.895,0
1610547936.390,-52.734,37.598,43.945,-20.996,39.551,0
1610547936.394,33.203,33.691,33.203,31.738,23.926,0
1610547936.398,135.742,30.273,31.738,83.008,33.691,0
1610547936.401,102.051,34.180,43.457,66.406,-5.371,0
1610547936.405,-20.508,30.762,46.875,-0.977,-20.508,0
1610547936.409,-59.082,27.344,48.340,-25.391,-4.883,0
1610547936.413,16.602,28.809,44.434,13.672,-27.832,0
1610547936.417,114.746,29.785,30.762,64.453,18.066,0
1610547936.419,104.980,29.785,30.273,67.383,84.473,0
1610547936.423,-7.324,32.227,39.062,14.160,79.102,0
1610547936.427,-71.777,37.598,46.875,-17.090,40.039,0
1610547936.431,-9.277,34.180,36.621,15.625,21.973,0
1610547936.435,104.492,27.344,20.508,55.176,24.902,0
1610547936.439,112.793,28.320,34.180,51.270,35.156,0
1610547936.443,3.906,30.762,39.062,7.324,37.109,0
1610547936.446,-68.848,27.344,32.227,-22.949,11.230,0
1610547936.450,-19.043,23.438,29.785,2.441,18.066,0
1610547936.454,95.215,28.809,26.367,54.199,77.148,0
1610547936.458,125.000,37.109,32.227,65.430,45.898,0
1610547936.462,21.973,35.156,27.344,13.672,29.297,0
1610547936.464,-63.477,31.250,25.391,-24.414,0.000,0
1610547936.468,-25.879,32.715,36.133,9.277,-33.691,0
1610547936.472,86.426,35.645,31.738,59.570,20.508,0
1610547936.476,122.070,32.227,26.855,66.406,67.871,0
1610547936.480,25.879,29.785,36.133,25.879,4.883,0
1610547936.484,-64.453,27.832,36.621,-13.184,-17.578,0
1610547936.488,-47.852,24.414,33.203,2.441,31.250,0
1610547936.491,58.105,21.484,28.320,50.293,23.438,0
1610547936.495,121.582,20.996,22.949,66.895,38.574,0
1610547936.499,42.480,25.391,28.320,32.715,9.277,0
1610547936.503,-56.152,28.320,26.855,-13.184,-6.836,0
1610547936.507,-41.992,31.738,25.391,-9.766,9.277,0
1610547936.509,61.035,36.133,29.785,41.504,-2.441,0
1610547936.513,134.277,40.527,39.551,73.730,2.930,0
1610547936.517,69.824,43.457,41.504,44.434,0.488,0
1610547936.521,-39.062,41.992,33.203,0.000,25.391,0
1610547936.525,-55.176,35.156,20.508,0.488,58.594,0
1610547936.529,37.109,35.645,14.648,44.922,69.336,0
1610547936.533,130.371,37.109,27.344,73.730,46.387,0
1610547936.536,84.473,30.762,44.922,44.922,22.949,0
1610547936.540,-38.086,34.668,39.551,-13.672,34.668,0
1610547936.544,-63.965,38.574,28.809,-24.414,10.254,0
1610547936.548,24.414,35.156,31.738,31.738,32.227,0
1610547936.552,124.023,34.180,29.785,80.078,69.824,0
1610547936.555,95.215,29.297,25.391,56.641,33.691,0
1610547936.559,-19.531,30.273,32.227,-1.465,-1.953,0
1610547936.563,-54.688,38.574,39.551,-15.625,-3.418,0
1610547936.567,26.367,38.086,42.969,41.504,76.660,0
1610547936.571,137.207,34.668,31.250,92.773,87.402,0
1610547936.575,110.352,29.297,28.320,62.012,53.711,0
1610547936.579,-11.719,29.785,33.203,-0.488,32.715,0
1610547936.582,-57.129,38.574,30.762,-19.043,12.695,0
1610547936.586,5.859,40.039,32.715,27.832,23.926,0
1610547936.590,114.746,35.156,31.738,78.613,46.387,0
1610547936.594,132.812,31.250,26.367,69.336,89.844,0
1610547936.598,21.973,30.762,16.602,11.230,78.613,0
1610547936.600,-54.688,33.691,25.879,-11.719,79.102,0
1610547936.604,-3.906,32.227,40.527,25.879,17.090,0
1610547936.608,107.422,28.320,37.598,73.730,-18.066,0
1610547936.612,129.395,30.273,38.086,83.496,30.762,0
1610547936.616,24.414,30.762,38.086,30.273,1.465,0
1610547936.620,-57.129,28.809,30.762,-20.996,-26.855,0
1610547936.624,-22.461,31.738,30.762,5.371,5.859,0
1610547936.627,92.285,33.691,31.738,63.965,19.531,0
1610547936.631,142.090,37.598,37.598,87.402,31.738,0
1610547936.635,45.410,39.062,37.109,41.016,5.859,0
1610547936.639,-57.129,33.203,22.461,-19.043,37.598,0
1610547936.643,-32.227,28.809,19.043,-1.953,71.289,0
1610547936.645,76.172,31.250,31.738,61.523,60.059,0
1610547936.649,126.465,28.320,43.457,77.148,66.406,0
1610547936.653,42.480,23.926,42.480,39.062,83.984,0
1610547936.657,-52.734,23.926,34.180,-8.789,105.469,0
1610547936.661,-39.062,31.738,31.738,-12.207,60.059,0
1610547936.665,63.965,37.109,34.668,39.551,31.250,0
1610547936.669,135.742,31.738,29.297,66.406,43.945,0
1610547936.672,58.105,25.879,28.809,29.785,29.297,0
1610547936.676,-52.734,28.320,23.926,-25.391,20.020,0
1610547936.680,-60.547,29.297,13.672,-23.438,-50.293,0
1610547936.684,41.504,30.762,25.391,33.203,-33.203,0
1610547936.688,134.277,35.156,36.133,87.402,16.113,0
1610547936.704,80.078,32.227,36.133,62.988,11.230,0
1610547936.708,-34.668,29.297,40.527,-10.742,28.809,0
1610547936.712,-58.105,34.180,38.086,-17.090,-0.488,0
1610547936.716,25.391,29.785,31.250,30.273,4.883,0
1610547936.720,122.070,26.855,32.715,59.082,27.832,0
1610547936.724,88.867,36.133,39.062,46.875,45.410,0
1610547936.728,-32.227,38.086,31.738,-6.836,12.695,0
1610547936.731,-73.242,35.645,23.438,-28.809,31.250,0
1610547936.735,10.742,29.297,18.555,23.438,45.898,0
1610547936.739,120.605,28.809,16.602,76.172,54.199,0
1610547936.743,100.098,31.250,28.809,71.289,66.895,0
1610547936.747,-19.043,21.484,38.574,5.859,9.277,0
1610547936.749,-65.918,23.926,43.945,-35.645,32.227,0
1610547936.753,-1.953,32.227,48.340,6.348,23.438,0
1610547936.757,105.957,31.738,41.016,60.059,44.434,0
1610547936.761,111.328,33.203,41.016,68.359,28.320,0
1610547936.765,-1.465,32.715,39.062,11.719,4.883,0
1610547936.769,-66.895,31.250,30.762,-27.832,12.695,0
1610547936.773,-13.184,26.367,31.738,9.277,-2.930,0
1610547936.776,101.074,22.949,35.156,63.477,5.371,0
1610547936.780,117.188,24.414,36.621,71.777,48.828,0
1610547936.784,7.812,29.297,36.133,21.484,72.266,0
1610547936.788,-68.848,29.785,31.250,-22.949,59.570,0
1610547936.792,-32.715,24.902,27.832,-6.348,55.176,0
1610547936.794,80.078,26.855,24.414,48.340,38.574,0
1610547936.798,123.047,27.832,24.414,66.406,60.059,0
1610547936.802,31.738,23.438,31.250,24.902,85.938,0
1610547936.806,-56.641,26.367,33.203,-17.578,47.363,0
1610547936.810,-29.297,34.668,34.180,2.441,-16.113,0
1610547936.814,78.613,34.668,34.668,52.734,17.090,0
1610547936.818,138.672,34.668,36.133,61.035,51.758,0
1610547936.821,56.152,32.715,40.039,18.066,24.414,0
1610547936.825,-58.594,29.297,35.156,-27.832,-1.465,0
1610547936.829,-57.617,28.809,22.461,-13.184,38.574,0
1610547936.833,50.293,23.926,24.902,41.992,53.223,0
1610547936.837,126.465,25.391,34.180,71.777,59.570,0
1610547936.839,51.758,32.227,44.434,39.062,51.270,0
1610547936.843,-57.617,32.227,45.410,-16.602,45.410,0
1610547936.847,-57.129,33.203,34.180,-7.324,22.461,0
1610547936.851,44.922,32.715,26.367,51.270,8.301,0
1610547936.855,125.000,28.320,23.926,70.312,26.855,0
1610547936.859,69.336,28.809,33.203,33.691,15.137,0
1610547936.863,-43.457,28.809,40.039,-9.766,-20.508,0
1610547936.866,-63.477,30.762,30.762,1.953,28.809,0
1610547936.870,32.715,32.227,16.113,44.434,30.762,0
1610547936.874,128.906,29.785,14.160,66.895,-8.789,0
1610547936.878,85.449,33.691,32.227,60.059,15.137,0
1610547936.882,-27.344,34.180,45.410,13.184,52.734,0
1610547936.884,-55.664,25.879,37.598,-21.484,12.207,0
1610547936.888,25.391,28.320,33.203,21.973,40.527,0
1610547936.892,124.023,34.668,41.992,79.102,103.027,0
1610547936.896,96.191,33.691,43.945,59.570,96.680,0
1610547936.900,-21.484,31.738,39.062,-3.418,120.605,0
1610547936.904,-69.824,31.250,38.574,-24.414,38.574,0
1610547936.908,-0.488,28.809,39.062,20.508,2.441,0
1610547936.911,108.887,28.320,34.180,69.824,68.359,0
1610547936.915,106.934,32.227,33.203,60.547,0.977,0
1610547936.919,0.977,34.180,37.109,14.160,-31.250,0
1610547936.923,-58.594,30.273,29.297,-24.414,79.102,0
1610547936.927,-9.277,30.762,19.531,13.672,77.637,0
1610547936.929,95.703,34.668,28.320,76.172,27.832,0
1610547936.933,113.281,33.691,37.109,69.824,91.797,0
1610547936.937,8.301,32.227,37.598,16.602,56.641,0
1610547936.941,-76.660,31.738,42.480,-28.809,-7.324,0
1610547936.945,-38.574,26.367,41.504,-0.977,-11.230,0
1610547936.949,83.984,26.367,37.598,68.848,10.742,0
1610547936.953,124.023,34.180,31.738,71.289,64.941,0
1610547936.956,23.926,35.156,25.391,7.812,-0.488,0
1610547936.960,-57.617,32.227,26.855,-22.461,-15.137,0
1610547936.964,-21.973,32.715,35.645,5.859,23.438,0
1610547936.968,82.520,28.320,31.738,57.617,11.719,0
1610547936.972,133.789,27.832,17.090,72.266,85.938,0
1610547936.974,50.293,29.785,31.250,27.344,27.344,0
1610547936.978,-54.199,32.715,43.457,-6.836,-21.973,0
1610547936.982,-45.410,32.715,34.180,-1.465,25.879,0
1610547936.986,61.035,29.785,37.109,49.316,23.926,0
1610547936.990,126.465,26.855,41.992,76.660,82.520,0
1610547936.994,54.688,26.855,36.133,33.691,46.387,0
1610547936.998,-46.875,29.297,33.691,-15.625,-53.711,0
1610547937.001,-49.316,29.785,35.156,-8.789,-24.414,0
1610547937.005,48.828,29.785,35.156,44.922,21.484,0
1610547937.009,125.000,29.297,31.250,69.824,27.344,0
1610547937.013,65.918,26.855,29.785,42.969,17.578,0
1610547937.017,-35.645,28.809,25.879,-6.836,6.348,0
1610547937.019,-55.664,30.762,21.484,-16.113,17.090,0
1610547937.023,29.297,32.227,32.715,40.527,74.219,0
1610547937.027,126.465,32.227,41.504,81.055,86.426,0
1610547937.031,86.914,33.203,47.852,51.270,39.551,0
1610547937.035,-27.832,32.227,44.434,-14.160,-7.324,0
1610547937.039,-62.500,27.832,25.879,-30.273,-14.648,0
1610547937.043,20.996,31.738,19.043,24.902,55.664,0
1610547937.046,122.070,31.738,27.832,78.613,70.801,0
1610547937.050,97.656,30.762,29.297,62.500,1.953,0
1610547937.054,-11.230,27.832,30.762,2.441,29.785,0
1610547937.058,-65.430,19.043,24.902,-23.926,33.203,0
1610547937.062,5.371,26.855,27.344,23.438,-57.617,0
1610547937.079,124.023,38.574,38.086,80.566,-0.488,0
1610547937.083,115.723,36.133,43.945,80.078,30.273,0
1610547937.087,-6.348,33.691,47.363,25.879,41.992,0
1610547937.091,-70.801,34.180,37.109,-16.113,62.988,0
1610547937.095,-10.254,29.785,29.785,15.137,22.949,0
1610547937.099,99.121,31.250,29.785,65.918,22.949,0
1610547937.103,114.258,28.809,34.668,62.500,14.648,0
1610547937.106,5.859,26.855,40.527,5.859,-38.574,0
1610547937.110,-71.777,29.297,38.086,-36.621,-49.805,0
1610547937.114,-20.020,30.762,33.203,-2.930,30.273,0
1610547937.118,97.168,28.320,24.414,57.129,78.613,0
1610547937.122,115.723,25.879,33.691,67.383,48.340,0
1610547937.124,16.602,29.785,43.945,21.484,41.504,0
1610547937.128,-66.895,25.391,40.039,-14.160,60.059,0
1610547937.132,-25.879,24.902,42.969,14.648,56.152,0
1610547937.136,95.703,33.691,47.363,67.383,17.090,0
1610547937.140,135.254,32.227,41.992,73.242,14.648,0
1610547937.144,35.645,27.344,35.156,35.156,52.246,0
1610547937.148,-64.941,28.320,38.574,-12.207,40.039,0
1610547937.151,-51.270,31.738,45.410,-19.531,26.855,0
1610547937.155,59.082,28.320,39.551,36.133,54.199,0
1610547937.159,127.930,26.367,30.273,61.523,75.684,0
1610547937.163,50.781,30.273,32.715,26.855,39.062,0
1610547937.167,-56.641,30.762,32.227,-21.973,24.414,0
1610547937.170,-49.805,32.227,28.320,-8.789,61.035,0
1610547937.174,56.641,33.691,30.273,49.316,44.922,0
1610547937.178,133.789,36.621,39.551,80.566,35.645,0
1610547937.182,71.289,35.156,48.828,47.852,10.742,0
1610547937.186,-46.387,29.297,43.945,-20.996,-7.812,0
1610547937.190,-63.965,25.879,37.598,-22.461,-3.906,0
1610547937.194,30.273,27.344,39.062,32.227,35.156,0
1610547937.197,128.418,29.297,33.691,74.219,45.410,0
1610547937.201,86.914,28.320,24.414,52.246,70.312,0
1610547937.205,-26.367,27.832,24.414,-12.695,52.246,0
1610547937.209,-50.293,27.832,28.320,-18.066,-35.645,0
1610547937.213,35.156,33.203,30.273,36.621,-5.371,0
1610547937.214,130.371,37.598,31.250,74.707,14.648,0
1610547937.218,102.051,38.574,33.691,57.129,-33.203,0
1610547937.222,-16.602,35.156,44.434,6.836,20.996,0
1610547937.226,-54.199,34.180,41.016,-11.230,51.270,0
1610547937.230,24.414,33.203,36.133,30.273,52.246,0
1610547937.234,119.629,31.738,41.504,74.707,-6.836,0
1610547937.238,107.422,35.156,32.715,62.988,-66.406,0
1610547937.241,-11.230,31.250,22.949,11.230,-64.941,0
1610547937.245,-70.312,28.809,31.250,-22.949,21.973,0
1610547937.249,-3.906,31.738,31.738,0.977,68.359,0
1610547937.253,106.934,36.133,26.367,55.664,57.617,0
1610547937.257,119.629,40.039,38.574,62.500,63.477,0
1610547937.259,9.277,34.668,41.992,9.277,13.672,0
1610547937.263,-62.500,33.691,30.273,-30.273,-55.176,0
1610547937.267,-15.137,35.156,28.320,3.906,-9.766,0
1610547937.271,94.238,31.250,25.879,68.848,65.918,0
1610547937.275,122.070,30.273,28.809,80.078,59.082,0
1610547937.279,21.484,30.273,34.180,18.555,73.242,0
1610547937.283,-58.105,27.344,35.156,-30.273,66.406,0
1610547937.286,-24.414,29.785,34.668,-2.930,22.949,0
1610547937.290,87.402,30.762,29.785,58.594,36.621,0
1610547937.294,133.789,27.344,27.832,79.102,26.367,0
1610547937.298,44.434,29.297,34.180,36.621,54.688,0
1610547937.302,-43.945,32.715,36.621,-7.812,43.457,0
1610547937.304,-29.297,35.645,30.273,5.371,6.348,0
1610547937.308,74.219,35.156,34.668,56.641,44.434,0
1610547937.312,134.766,34.180,45.410,76.660,-12.695,0
1610547937.316,51.270,33.203,38.574,29.297,-62.500,0
1610547937.320,-54.199,29.297,35.645,-32.715,-34.668,0
1610547937.324,-50.781,23.438,41.016,-17.578,9.766,0
1610547937.328,59.082,22.949,39.062,56.152,-37.598,0
1610547937.331,132.324,24.414,26.855,82.031,-19.043,0
1610547937.335,58.105,30.273,26.367,38.086,42.969,0
1610547937.339,-49.316,32.715,35.156,-5.859,-3.906,0
1610547937.343,-65.430,20.996,26.855,-7.324,38.086,0
1610547937.347,28.809,19.043,20.996,31.250,30.762,0
1610547937.349,129.395,23.926,38.574,71.777,39.062,0
1610547937.353,77.148,24.902,45.898,50.293,80.078,0
1610547937.357,-46.875,27.832,44.434,-16.602,22.461,0
1610547937.361,-70.801,27.344,38.574,-30.762,-5.371,0
1610547937.365,17.578,25.391,26.367,22.461,8.301,0
1610547937.369,114.258,23.438,28.809,63.477,17.578,0
1610547937.373,83.008,23.438,30.762,50.293,67.383,0
1610547937.376,-33.691,23.926,24.414,-2.930,93.262,0
1610547937.380,-67.383,25.391,20.996,-16.602,72.754,0
1610547937.384,17.090,27.832,19.531,34.180,44.922,0
1610547937.388,122.070,31.250,26.367,73.242,52.734,0
1610547937.392,107.422,33.203,37.109,66.406,36.621,0
1610547937.395,-5.859,34.180,32.227,8.301,39.551,0
1610547937.399,-56.152,36.621,26.367,-22.461,-12.207,0
1610547937.403,3.418,32.715,34.180,19.043,34.180,0
1610547937.407,111.328,34.668,38.086,75.684,75.195,0
1610547937.411,122.070,30.273,33.691,75.195,-13.184,0
1610547937.415,10.254,27.832,30.762,19.531,40.527,0
1610547937.419,-66.895,35.156,17.578,-20.020,60.547,0
1610547937.422,-19.043,36.133,7.324,7.812,4.395,0
1610547937.426,106.934,36.621,21.973,71.777,30.762,0
1610547937.430,132.812,36.133,35.156,86.426,40.527,0
1610547937.434,17.578,33.691,36.621,35.156,41.016,0
1610547937.438,-64.941,33.203,29.785,-12.207,26.855,0
1610547937.455,-25.391,31.738,23.926,3.906,43.457,0
1610547937.459,86.914,31.250,21.973,53.223,43.457,0
1610547937.463,125.000,32.715,26.855,66.895,39.551,0
1610547937.467,32.227,35.156,31.250,16.113,11.230,0
1610547937.471,-51.270,36.621,27.344,-33.203,14.648,0
1610547937.475,-25.391,29.785,20.996,-4.883,30.762,0
1610547937.479,78.613,27.344,30.762,52.734,53.223,0
1610547937.482,133.789,31.250,32.715,78.613,125.977,0
1610547937.486,47.363,34.668,25.391,33.691,21.973,0
1610547937.490,-58.105,31.738,26.855,-15.137,-91.797,0
1610547937.494,-57.617,25.879,33.203,-3.418,-54.688,0
1610547937.498,41.504,25.391,38.574,45.410,11.719,0
1610547937.499,123.047,29.297,30.273,68.848,2.441,0
1610547937.503,62.500,30.273,27.344,32.715,-10.742,0
1610547937.507,-43.457,33.203,31.250,-8.789,23.438,0
1610547937.511,-48.340,35.645,25.879,-0.488,60.059,0
1610547937.515,43.945,35.645,29.297,40.527,90.820,0
1610547937.519,124.512,29.785,33.203,62.988,39.551,0
1610547937.523,71.777,23.438,28.809,31.738,10.254,0
1610547937.526,-33.691,23.438,28.320,-13.672,31.738,0
1610547937.530,-54.688,28.809,20.996,-20.020,40.039,0
1610547937.534,26.855,36.133,18.066,15.137,-27.344,0
1610547937.538,125.000,35.645,29.297,61.523,21.973,0
1610547937.542,91.797,31.738,35.645,47.852,49.316,0
1610547937.544,-24.902,28.320,29.297,-6.348,9.766,0
1610547937.548,-64.453,26.855,22.461,-21.484,9.277,0
1610547937.552,16.113,34.668,25.879,26.367,-7.812,0
1610547937.556,118.652,35.645,31.250,83.496,50.781,0
1610547937.560,100.098,34.668,30.273,74.219,34.668,0
1610547937.564,-7.812,38.086,21.973,15.137,-10.254,0
1610547937.568,-65.430,30.762,11.230,-23.926,-7.812,0
1610547937.571,5.859,25.879,11.230,25.879,19.531,0
1610547937.575,117.188,29.297,25.879,84.473,76.660,0
1610547937.579,116.699,33.691,40.039,65.430,141.113,0
1610547937.583,5.859,35.156,44.922,10.254,116.699,0
1610547937.587,-65.918,33.691,38.574,-20.996,59.082,0
1610547937.589,-16.602,32.227,32.715,9.277,86.426,0
1610547937.593,101.074,34.180,38.086,62.988,131.348,0
1610547937.597,128.418,37.109,40.527,74.707,114.746,0
1610547937.601,21.973,37.109,35.156,26.367,43.457,0
1610547937.605,-57.617,32.227,32.715,-7.324,23.438,0
1610547937.609,-18.066,34.180,29.785,23.438,-6.348,0
1610547937.613,87.891,34.668,13.672,62.988,-4.883,0
1610547937.616,126.953,34.668,19.043,57.129,21.973,0
1610547937.620,33.691,39.062,33.203,13.184,5.859,0
1610547937.624,-59.082,38.574,28.320,-22.949,53.711,0
1610547937.628,-27.344,40.039,25.879,-5.371,65.430,0
1610547937.632,82.520,33.691,31.250,48.340,58.105,0
1610547937.635,135.742,29.297,36.133,72.754,41.504,0
1610547937.639,54.688,33.203,37.109,40.039,7.324,0
1610547937.643,-48.340,30.273,32.715,-7.324,-11.230,0
1610547937.647,-41.992,31.738,38.086,-5.371,-22.949,0
1610547937.651,62.012,31.738,38.574,45.898,35.156,0
1610547937.655,128.906,26.855,29.297,70.312,66.895,0
1610547937.659,55.664,27.832,33.203,36.133,47.363,0
1610547937.662,-52.734,25.391,30.273,-8.789,17.090,0
1610547937.666,-47.852,25.391,19.531,-4.883,0.488,0
1610547937.670,53.223,31.250,27.832,59.570,-4.883,0
1610547937.674,128.418,32.715,34.668,97.168,80.566,0
1610547937.678,69.336,30.762,19.531,52.734,71.289,0
1610547937.679,-42.480,33.691,17.090,-18.066,14.160,0
1610547937.683,-60.547,37.109,28.809,-34.180,26.855,0
1610547937.687,33.691,35.645,33.203,28.320,31.250,0
1610547937.691,134.766,33.691,37.598,87.891,90.820,0
1610547937.695,87.402,30.273,36.133,60.059,51.270,0
1610547937.699,-28.809,26.855,29.785,-6.348,-44.922,0
1610547937.703,-56.152,29.785,22.949,-15.625,-43.457,0
1610547937.706,16.113,32.227,22.949,25.879,-3.906,0
1610547937.710,121.582,35.156,28.320,60.547,29.785,0
1610547937.714,110.352,35.645,31.250,49.805,19.531,0
1610547937.718,-5.859,33.691,32.227,7.324,36.621,0
1610547937.722,-57.617,36.621,26.367,-21.484,18.066,0
1610547937.724,10.254,39.551,17.090,5.859,-6.348,0
1610547937.728,118.164,35.156,26.855,62.012,-1.465,0
1610547937.732,118.652,34.668,37.598,71.777,9.766,0
1610547937.736,10.742,34.180,29.297,14.648,-5.859,0
1610547937.740,-67.383,29.785,26.855,-22.461,-36.133,0
1610547937.744,-20.508,29.297,32.715,11.719,16.602,0
1610547937.748,97.656,27.832,27.344,55.664,55.176,0
1610547937.751,118.164,31.738,26.367,59.570,37.598,0
1610547937.755,7.812,32.715,30.273,17.578,39.062,0
1610547937.759,-68.359,28.809,26.367,-20.508,-13.184,0
1610547937.763,-20.508,31.250,24.414,-1.465,43.457,0
1610547937.767,96.191,35.156,27.832,57.129,49.316,0
1610547937.769,130.859,36.133,29.297,74.219,11.719,0
1610547937.773,30.762,37.598,31.738,24.902,78.125,0
1610547937.777,-62.988,32.227,29.297,-25.391,44.922,0
1610547937.781,-37.598,28.809,22.461,-7.812,19.043,0
1610547937.785,73.242,30.273,29.297,60.547,12.695,0
1610547937.789,131.836,31.738,36.621,92.285,-7.812,0
1610547937.793,43.945,33.203,22.461,41.016,61.523,0
1610547937.796,-60.547,29.297,23.926,-19.531,77.148,0
1610547937.800,-45.898,27.832,40.527,-10.742,-11.230,0
1610547937.804,57.617,28.320,42.480,39.551,-9.277,0
1610547937.808,123.535,29.297,40.527,61.523,34.180,0
1610547937.812,52.734,31.738,41.016,32.227,2.441,0
1610547937.829,-51.270,27.344,32.715,-9.766,0.488,0
1610547937.833,-56.152,21.484,25.391,-7.812,31.738,0
1610547937.837,45.410,29.785,28.320,42.969,34.668,0
1610547937.841,137.695,38.574,31.250,85.938,24.414,0
1610547937.845,75.195,37.109,28.809,52.734,-16.113,0
1610547937.849,-46.387,36.621,34.180,-0.977,28.320,0
1610547937.853,-52.246,33.691,40.527,-10.254,98.145,0
1610547937.856,42.480,30.762,36.621,25.879,46.875,0
1610547937.860,122.559,31.738,34.668,67.383,-57.129,0
1610547937.864,79.102,30.762,31.738,48.828,-21.973,0
1610547937.868,-35.645,26.367,34.180,-10.254,69.336,0
1610547937.872,-65.918,30.273,33.203,-21.973,54.688,0
1610547937.874,19.043,31.250,25.879,33.691,31.738,0
1610547937.878,126.953,28.320,32.227,80.566,36.133,0
1610547937.882,101.562,30.762,38.086,68.848,49.805,0
1610547937.886,-21.484,35.645,34.180,13.184,44.434,0
1610547937.890,-64.453,35.156,32.715,-18.066,11.230,0
1610547937.894,8.789,28.809,29.785,12.207,-27.832,0
1610547937.898,107.422,30.273,28.320,53.711,-12.207,0
1610547937.901,104.492,37.598,32.227,57.129,37.109,0
1610547937.905,0.488,35.156,31.738,6.348,33.203,0
1610547937.909,-66.406,33.203,25.391,-41.992,30.273,0
1610547937.913,-18.555,34.180,22.461,1.465,53.223,0
1610547937.917,92.285,30.762,24.414,59.570,30.273,0
1610547937.919,107.422,32.227,29.785,57.129,58.594,0
1610547937.923,5.859,32.715,32.227,12.695,51.758,0
1610547937.927,-70.312,28.809,31.250,-28.320,15.137,0
1610547937.931,-25.391,31.738,30.273,-0.977,46.387,0
1610547937.935,85.449,32.227,26.367,58.594,74.707,0
1610547937.939,111.816,26.367,24.414,66.895,35.645,0
1610547937.943,20.020,28.320,27.832,33.691,7.324,0
1610547937.946,-61.523,29.785,36.133,-10.254,19.043,0
1610547937.950,-33.203,28.809,35.156,-8.789,41.016,0
1610547937.954,71.289,31.250,28.809,58.594,61.035,0
1610547937.958,116.699,29.785,34.668,89.355,49.316,0
1610547937.962,35.645,28.320,34.668,22.949,-15.625,0
1610547937.965,-54.688,29.297,24.414,-36.133,-10.254,0
1610547937.969,-43.457,30.762,25.391,-12.207,5.371,0
1610547937.973,62.012,31.738,35.156,40.039,1.953,0
1610547937.977,132.812,33.691,40.039,66.895,56.152,0
1610547937.981,57.129,31.738,29.297,37.109,49.316,0
1610547937.985,-54.199,30.273,19.043,-17.578,38.086,0
1610547937.989,-57.129,31.250,26.367,-13.672,-0.977,0
1610547937.992,49.805,32.715,39.551,48.340,-18.555,0
1610547937.996,126.953,33.691,36.621,76.172,27.832,0
1610547938.000,56.641,31.250,24.902,37.109,33.691,0
1610547938.004,-49.805,26.367,27.832,-14.160,-7.324,0
1610547938.008,-62.500,25.391,36.621,-11.230,-38.574,0
1610547938.010,32.227,25.879,31.250,42.969,15.137,0
1610547938.014,125.000,28.320,32.715,72.266,74.219,0
1610547938.018,80.566,31.250,45.410,47.363,69.336,0
1610547938.022,-29.297,28.809,40.039,5.859,32.227,0
1610547938.026,-59.570,27.344,33.203,-12.207,11.719,0
1610547938.030,21.484,26.855,34.668,21.973,8.301,0
1610547938.034,123.047,24.414,33.203,67.383,50.781,0
1610547938.037,98.145,32.715,29.785,53.711,82.031,0
1610547938.041,-13.672,36.133,27.832,-3.906,56.641,0
1610547938.045,-64.941,35.645,24.902,-21.484,18.555,0
1610547938.049,6.836,36.133,20.020,22.949,50.293,0
1610547938.053,123.535,35.645,26.367,76.660,58.594,0
1610547938.054,113.281,35.645,33.691,78.125,50.293,0
1610547938.058,-7.324,31.250,33.691,20.508,61.523,0
1610547938.062,-64.941,28.809,37.109,-20.996,52.246,0
1610547938.066,-6.348,25.879,32.227,12.695,24.414,0
1610547938.070,102.539,26.367,24.902,70.801,9.766,0
1610547938.074,117.676,28.809,33.203,67.871,53.711,0
1610547938.078,9.766,32.227,36.133,17.578,26.367,0
1610547938.081,-68.848,29.785,31.250,-28.809,-15.137,0
1610547938.085,-18.555,25.391,30.762,-7.812,21.484,0
1610547938.089,98.145,26.367,34.668,60.059,80.566,0
1610547938.093,124.512,25.391,31.250,77.148,88.379,0
1610547938.097,21.973,25.391,21.973,21.973,47.363,0
1610547938.101,-61.035,29.785,22.949,-29.297,-33.691,0
1610547938.105,-21.973,35.645,36.621,7.812,-17.578,0
1610547938.109,84.961,32.715,41.016,66.406,39.551,0
1610547938.113,123.535,31.738,36.621,65.430,-1.465,0
1610547938.117,32.715,31.738,29.785,19.531,-0.977,0
1610547938.121,-67.383,29.297,17.578,-19.043,19.531,0
1610547938.125,-42.480,30.762,17.578,-3.906,18.066,0
1610547938.128,74.707,33.203,25.391,51.270,10.254,0
1610547938.132,140.625,32.715,30.273,80.566,39.551,0
1610547938.136,61.523,34.180,28.320,42.480,97.656,0
1610547938.140,-43.457,34.180,29.297,-13.672,65.918,0
1610547938.144,-35.645,29.785,33.691,-9.766,26.855,0
1610547938.144,59.082,31.250,28.809,38.574,45.898,0
1610547938.148,128.906,31.738,32.715,72.754,64.453,0
1610547938.152,61.523,28.809,39.551,54.688,34.668,0
1610547938.156,-55.176,32.227,39.062,-3.418,1.953,0
1610547938.160,-62.012,33.203,33.203,-5.371,40.527,0
1610547938.164,38.086,31.738,29.297,43.945,11.719,0
1610547938.168,120.117,32.227,40.527,58.105,39.551,0
1610547938.171,69.336,29.785,45.898,31.250,40.039,0
1610547938.175,-38.574,30.762,35.156,-16.113,3.418,0
1610547938.179,-67.383,29.785,25.879,-19.531,22.949,0
1610547938.183,16.113,29.297,27.832,36.133,4.883,0
1610547938.187,122.070,33.203,25.879,73.730,51.758,0
1610547938.204,94.727,30.273,19.043,51.758,30.762,0
1610547938.208,-20.996,29.785,26.855,-7.812,-29.297,0
1610547938.212,-61.035,35.645,35.645,-21.973,-5.859,0
1610547938.216,13.672,28.809,30.273,27.344,19.043,0
1610547938.220,122.559,25.879,26.367,72.266,40.039,0
1610547938.224,114.258,38.086,30.762,61.523,106.934,0
1610547938.228,-2.930,37.109,34.668,11.230,65.430,0
1610547938.231,-63.965,27.832,29.297,-15.137,6.836,0
1610547938.235,-2.930,27.832,20.508,20.508,22.461,0
1610547938.239,104.492,27.832,29.785,69.824,77.637,0
1610547938.243,112.305,25.879,41.504,65.430,100.586,0
1610547938.247,10.742,30.273,39.062,17.090,62.988,0
1610547938.249,-55.176,34.180,29.785,-7.812,-20.996,0
1610547938.253,-17.578,30.273,15.625,20.020,-41.016,0
1610547938.257,88.867,28.320,18.555,71.289,-11.719,0
1610547938.261,113.770,29.297,31.738,65.430,1.953,0
1610547938.265,10.254,30.273,29.785,3.418,18.066,0
1610547938.269,-72.266,28.809,24.902,-29.297,81.055,0
1610547938.273,-35.156,27.832,25.879,2.441,51.270,0
1610547938.276,76.172,25.391,36.133,58.105,67.383,0
1610547938.280,128.418,22.461,44.922,75.195,79.102,0
1610547938.284,47.363,30.273,42.480,28.809,55.176,0
1610547938.288,-52.734,39.062,35.156,-27.832,105.469,0
1610547938.292,-39.551,37.109,40.039,-14.648,70.801,0
1610547938.295,71.777,32.715,34.668,47.363,2.930,0
1610547938.299,134.766,34.180,18.555,74.219,50.781,0
1610547938.303,54.688,32.715,22.949,39.062,54.688,0
1610547938.307,-46.875,31.250,28.320,-5.859,-43.945,0
1610547938.311,-43.945,28.809,30.273,1.465,-61.035,0
1610547938.315,58.594,24.414,34.668,52.246,-4.395,0
1610547938.319,129.883,28.809,35.156,77.148,5.859,0
1610547938.322,63.965,31.738,32.715,40.527,7.812,0
1610547938.326,-44.434,28.809,26.855,-10.742,46.387,0
1610547938.330,-55.664,28.809,28.809,-15.137,5.859,0
1610547938.334,42.969,34.668,35.645,37.109,24.414,0
1610547938.338,125.488,37.109,36.133,82.520,58.594,0
1610547938.340,76.660,33.203,38.086,62.500,-16.113,0
1610547938.344,-33.203,36.133,36.621,2.441,17.090,0
1610547938.348,-59.082,36.621,26.367,-13.672,0.000,0
1610547938.352,24.902,32.227,19.531,27.344,-17.578,0
1610547938.356,130.371,33.203,29.785,68.359,19.043,0
1610547938.360,107.422,32.227,39.551,50.293,-4.883,0
1610547938.364,-19.531,25.879,41.504,-16.113,-34.668,0
1610547938.367,-69.824,24.902,40.039,-33.203,-8.789,0
1610547938.371,3.906,27.344,39.062,15.137,58.594,0
1610547938.375,111.328,24.414,41.504,71.777,97.656,0
1610547938.379,111.328,28.809,38.574,81.055,66.895,0
1610547938.383,-9.766,35.645,30.273,17.090,11.230,0
1610547938.385,-76.172,36.621,31.738,-27.344,10.742,0
1610547938.389,-0.488,33.203,30.762,12.207,14.648,0
1610547938.393,112.793,35.645,24.414,64.941,102.051,0
1610547938.397,116.211,41.504,24.414,55.176,91.309,0
1610547938.401,0.977,34.180,30.762,3.418,6.836,0
1610547938.405,-69.336,26.367,32.227,-24.414,20.996,0
1610547938.409,-9.766,27.344,29.297,16.602,35.645,0
1610547938.412,94.238,23.438,34.668,81.055,39.062,0
1610547938.416,113.281,20.508,38.574,66.895,101.562,0
1610547938.420,11.230,24.414,39.062,3.418,85.449,0
1610547938.424,-69.336,25.879,36.621,-30.762,21.973,0
1610547938.428,-33.203,27.832,31.738,-3.906,56.152,0
1610547938.430,82.031,30.762,30.762,57.617,82.520,0
1610547938.434,131.836,32.227,22.949,88.379,20.020,0
1610547938.438,33.691,29.297,8.301,38.086,45.898,0
