timestamps,TP9,AF7,AF8,TP10,Right AUX,Marker0
1610546873.412,272.949,34.668,300.781,870.605,-54.688,0
1610546873.416,-118.652,41.016,4.395,-192.383,-61.523,0
1610546873.420,-313.477,44.922,-214.844,-1000.000,-83.496,0
1610546873.424,-134.766,42.969,-100.098,-387.695,-36.621,0
1610546873.428,248.047,36.621,205.078,758.789,-57.617,0
1610546873.432,327.637,33.203,301.758,941.406,-84.473,0
1610546873.436,-50.293,39.551,81.055,-28.320,-11.719,0
1610546873.439,-308.105,42.969,-204.102,-990.234,-16.113,0
1610546873.443,-166.504,35.645,-269.531,-555.664,-99.121,0
1610546873.447,205.566,35.156,69.336,631.836,-115.723,0
1610546873.451,325.684,40.527,403.320,-988.281,-42.969,0
1610546873.455,-15.137,43.457,156.738,112.305,-12.207,0
1610546873.457,-300.781,42.969,-272.461,-937.988,-93.750,0
1610546873.461,-208.984,37.598,-231.934,-674.805,-105.469,0
1610546873.465,144.531,32.715,176.758,492.676,-34.180,0
1610546873.469,346.680,32.715,336.914,-937.988,-47.852,0
1610546873.473,45.898,39.551,97.168,269.043,-114.746,0
1610546873.477,-294.922,44.434,-218.750,-858.398,-104.980,0
1610546873.481,-246.094,39.062,-208.984,-761.719,6.348,0
1610546873.484,111.816,32.715,71.777,369.141,28.320,0
1610546873.488,354.980,28.809,248.535,-926.758,-48.828,0
1610546873.492,90.332,37.598,229.004,395.508,-8.301,0
1610546873.496,-267.090,42.480,-94.727,-762.207,-9.277,0
1610546873.500,-263.672,37.598,-282.227,-846.191,-71.289,0
1610546873.503,58.594,37.598,18.066,220.215,-51.758,0
1610546873.507,346.191,38.086,348.633,-928.711,-67.871,0
1610546873.511,143.066,41.992,270.996,579.590,-62.500,0
1610546873.515,-232.422,44.922,-146.973,-614.258,-80.566,0
1610546873.519,-273.438,41.992,-295.410,-896.484,-98.633,0
1610546873.523,6.348,37.598,6.836,108.887,-63.477,0
1610546873.527,321.777,34.180,317.383,-964.355,-31.738,0
1610546873.530,188.965,37.598,213.379,656.738,-55.176,0
1610546873.534,-203.125,46.875,-105.957,-526.367,-59.082,0
1610546873.538,-302.246,48.340,-185.059,-981.445,-65.918,0
1610546873.542,-29.297,42.480,20.996,-86.914,-25.879,0
1610546873.546,316.895,42.969,311.035,958.496,-19.531,0
1610546873.547,234.863,44.922,311.035,750.977,-118.164,0
1610546873.551,-156.738,48.828,14.648,-397.461,-127.441,0
1610546873.555,-293.457,52.246,-246.582,-1000.000,-83.008,0
1610546873.559,-60.059,52.246,-77.637,-234.375,-20.508,0
1610546873.563,303.223,47.363,278.320,865.723,-34.668,0
1610546873.567,286.621,46.875,307.617,846.191,-42.480,0
1610546873.571,-96.191,49.316,-21.973,-237.793,-54.688,0
1610546873.574,-283.691,48.340,-384.277,-1000.000,-94.727,0
1610546873.578,-104.004,49.316,-180.176,-412.598,-64.941,0
1610546873.582,277.832,43.945,270.020,751.953,-72.754,0
1610546873.586,325.684,42.480,343.262,911.621,-95.215,0
1610546873.590,-58.105,50.293,83.984,-100.098,-92.285,0
1610546873.592,-291.992,54.688,-203.125,-996.094,-106.934,0
1610546873.596,-142.578,52.246,-149.902,-538.086,-125.488,0
1610546873.600,230.469,47.852,179.688,649.414,-78.613,0
1610546873.604,343.750,44.434,356.445,979.492,-37.109,0
1610546873.608,-4.395,52.734,149.414,49.805,-11.230,0
1610546873.612,-284.668,59.570,-213.867,-942.871,-27.832,0
1610546873.616,-174.805,51.270,-280.762,-653.809,-47.852,0
1610546873.619,195.312,45.898,83.496,525.391,-19.531,0
1610546873.623,371.094,48.340,391.113,-976.562,-59.570,0
1610546873.627,62.500,52.246,158.691,190.430,-66.895,0
1610546873.631,-252.441,58.105,-205.078,-858.398,-34.180,0
1610546873.635,-192.871,57.129,-198.730,-765.137,-54.688,0
1610546873.637,151.367,52.246,140.137,359.863,-38.574,0
1610546873.641,382.812,47.363,344.238,-961.914,-40.039,0
1610546873.645,112.793,49.805,175.781,283.691,-37.109,0
1610546873.649,-248.047,53.711,-152.832,-812.012,-90.820,0
1610546873.653,-221.680,54.199,-219.238,-855.469,-100.098,0
1610546873.657,116.211,50.781,13.184,169.434,-35.645,0
1610546873.661,389.160,47.363,210.449,981.445,-54.688,0
1610546873.664,161.621,54.199,218.262,372.070,-66.895,0
1610546873.668,-205.566,62.012,-47.363,-731.934,-49.316,0
1610546873.672,-227.051,56.641,-245.605,-933.594,-37.598,0
1610546873.676,53.223,46.875,14.160,-36.621,-23.438,0
1610546873.680,372.559,42.480,330.078,905.273,-8.301,0
1610546873.683,226.562,45.410,253.906,475.586,-35.156,0
1610546873.687,-179.688,48.828,-116.699,-646.973,-65.918,0
1610546873.691,-252.930,51.758,-298.828,-1000.000,-89.844,0
1610546873.695,15.625,50.293,-19.043,-240.723,-90.820,0
1610546873.699,354.980,41.992,288.086,807.617,-85.449,0
1610546873.703,261.230,42.480,249.023,551.758,-59.570,0
1610546873.707,-135.254,49.805,-69.336,-566.895,-40.527,0
1610546873.710,-262.695,54.199,-224.609,-1000.000,-33.203,0
1610546873.714,-22.461,53.711,-45.410,-414.551,-62.500,0
1610546873.718,337.891,47.852,184.570,691.406,-63.477,0
1610546873.722,304.688,55.176,265.625,622.070,-48.828,0
1610546873.726,-92.773,64.453,67.871,-480.957,-85.938,0
1610546873.742,-274.902,55.664,-216.309,-1000.000,-85.938,0
1610546873.746,-72.266,49.316,-89.355,-538.574,-6.836,0
1610546873.750,312.012,45.410,229.004,577.637,-41.016,0
1610546873.754,337.891,42.969,332.031,694.824,-89.844,0
1610546873.758,-46.387,48.828,55.176,-384.766,-123.047,0
1610546873.762,-257.812,51.758,-368.652,-1000.000,-195.312,0
1610546873.766,-106.445,53.223,-204.590,-649.414,-139.648,0
1610546873.769,262.207,50.293,268.555,451.660,-49.805,0
1610546873.773,348.633,47.363,360.352,818.848,-6.836,0
1610546873.777,-15.625,52.246,110.840,-184.570,29.297,0
1610546873.781,-283.203,52.246,-167.969,-1000.000,-22.461,0
1610546873.785,-176.758,50.781,-143.555,-687.988,-48.828,0
1610546873.787,194.336,49.805,136.230,445.312,-56.641,0
1610546873.791,360.840,49.805,331.543,957.520,-93.262,0
1610546873.795,28.809,53.711,155.273,35.645,-97.168,0
1610546873.799,-282.715,51.758,-199.707,-948.242,-90.332,0
1610546873.803,-195.801,49.316,-232.422,-770.020,-88.867,0
1610546873.807,155.273,46.875,73.730,312.500,-54.199,0
1610546873.811,374.023,45.898,320.801,965.820,-45.898,0
1610546873.814,100.586,51.758,176.758,169.434,-43.945,0
1610546873.818,-247.559,49.805,-235.840,-872.070,-54.199,0
1610546873.822,-221.680,48.340,-309.570,-853.027,-63.477,0
1610546873.826,102.051,49.805,114.746,165.039,-47.363,0
1610546873.830,362.305,43.945,383.789,-993.652,-41.016,0
1610546873.832,128.418,46.875,222.656,415.039,-69.336,0
1610546873.836,-255.859,53.711,-96.191,-725.586,-67.871,0
1610546873.840,-264.160,56.641,-194.336,-877.441,-27.832,0
1610546873.844,58.594,52.246,26.367,157.227,-51.270,0
1610546873.848,357.422,49.805,305.176,-942.383,-64.453,0
1610546873.852,185.547,52.246,247.559,653.809,-74.707,0
1610546873.856,-208.496,54.688,-63.965,-527.344,-25.391,0
1610546873.859,-281.738,49.805,-251.953,-936.035,-7.812,0
1610546873.863,4.395,41.504,-156.250,-2.441,-48.828,0
1610546873.867,336.426,42.969,253.906,982.910,-39.062,0
1610546873.871,222.168,47.852,379.395,703.125,-7.324,0
1610546873.875,-174.316,51.270,-29.785,-462.402,-48.828,0
1610546873.878,-287.598,50.293,-269.043,-1000.000,-70.312,0
1610546873.882,-50.293,42.480,-41.504,-208.496,-27.832,0
1610546873.886,287.598,34.180,264.648,881.836,-78.125,0
1610546873.890,232.422,37.109,292.480,824.707,-112.305,0
1610546873.894,-164.062,47.852,28.809,-276.367,-52.246,0
1610546873.898,-324.219,50.293,-253.906,-994.141,-12.207,0
1610546873.902,-114.258,47.363,-104.492,-269.043,-43.457,0
1610546873.905,265.625,40.039,173.340,833.496,-88.379,0
1610546873.909,282.227,41.016,256.348,896.484,-86.426,0
1610546873.913,-116.211,51.270,120.605,-119.629,-49.316,0
1610546873.917,-322.266,49.316,-232.422,-994.629,-99.121,0
1610546873.921,-142.578,45.410,-187.500,-437.500,-135.742,0
1610546873.924,229.492,42.969,215.332,728.516,-71.289,0
1610546873.928,308.105,41.016,386.230,967.285,-17.090,0
1610546873.932,-56.641,44.922,106.934,41.504,-4.883,0
1610546873.936,-314.941,44.434,-255.371,-950.684,-10.742,0
1610546873.940,-193.359,41.016,-183.105,-565.918,-45.898,0
1610546873.944,175.781,38.574,152.832,626.465,-65.918,0
1610546873.948,330.566,33.691,286.621,-965.820,-61.035,0
1610546873.951,-1.465,37.109,52.246,215.332,-30.762,0
1610546873.955,-311.523,42.480,-214.844,-870.117,-66.895,0
1610546873.959,-227.539,42.480,-203.613,-678.223,-188.965,0
1610546873.963,135.742,40.527,108.398,504.395,-108.398,0
1610546873.967,342.285,38.086,326.172,-931.152,-62.500,0
1610546873.968,57.617,41.992,161.621,333.496,-157.227,0
1610546873.972,-274.902,43.457,-164.062,-798.340,-104.492,0
1610546873.976,-231.934,37.109,-256.348,-758.301,-45.410,0
1610546873.980,109.375,33.691,40.527,382.324,-58.105,0
1610546873.984,358.398,38.086,321.289,-909.668,-101.074,0
1610546873.988,112.305,43.945,205.078,501.465,-82.520,0
1610546873.992,-254.395,45.898,-226.074,-680.176,-62.500,0
1610546873.995,-269.531,51.270,-337.891,-837.891,-34.180,0
1610546873.999,38.086,48.340,83.008,256.348,2.930,0
1610546874.003,344.238,39.551,339.844,-923.828,-42.969,0
1610546874.007,166.504,44.922,242.676,644.043,-69.336,0
1610546874.011,-225.098,50.781,-78.125,-533.203,-64.453,0
1610546874.012,-285.645,46.387,-244.629,-891.602,-87.891,0
1610546874.016,2.441,42.480,-18.555,128.418,-89.844,0
1610546874.020,323.730,36.621,287.109,-964.355,-20.508,0
1610546874.024,188.477,37.598,271.484,714.844,-52.246,0
1610546874.028,-208.008,40.039,-61.035,-441.895,-98.633,0
1610546874.032,-307.129,32.715,-318.359,-976.074,-81.055,0
1610546874.036,-42.480,28.320,-221.191,-86.914,-71.289,0
1610546874.039,317.383,29.297,203.125,943.848,-30.273,0
1610546874.043,239.746,34.668,358.887,804.688,-18.066,0
1610546874.047,-168.457,39.062,-22.461,-312.988,-44.434,0
1610546874.051,-318.848,38.086,-316.406,-1000.000,-130.371,0
1610546874.055,-105.957,36.621,-100.098,-216.309,-117.676,0
1610546874.072,270.508,37.109,244.629,875.000,-106.934,0
1610546874.076,273.926,36.621,291.504,888.184,-113.281,0
1610546874.080,-129.883,35.645,20.508,-149.414,-80.566,0
1610546874.084,-338.379,34.180,-239.746,-992.188,-99.609,0
1610546874.088,-147.949,33.203,-108.398,-353.027,-41.504,0
1610546874.092,228.516,30.273,162.109,771.973,-31.250,0
1610546874.096,286.621,30.762,296.875,945.801,-12.695,0
1610546874.099,-74.219,37.109,109.375,-26.367,-14.160,0
1610546874.103,-324.219,33.691,-223.145,-993.164,-46.875,0
1610546874.107,-181.152,30.762,-254.395,-538.574,-36.621,0
1610546874.111,200.684,34.180,100.586,642.090,-47.852,0
1610546874.115,322.754,37.598,390.137,-992.676,-81.055,0
1610546874.117,-27.344,41.016,152.832,123.047,-66.895,0
1610546874.121,-308.594,42.480,-221.191,-925.781,-75.195,0
1610546874.125,-207.031,45.898,-191.895,-653.809,-85.938,0
1610546874.129,145.996,39.551,169.434,519.043,-18.555,0
1610546874.133,339.355,32.715,332.520,-937.012,-21.484,0
1610546874.137,35.156,37.598,96.680,287.109,-77.148,0
1610546874.141,-302.734,38.574,-217.285,-841.797,-80.566,0
1610546874.144,-249.023,34.668,-211.426,-749.512,-80.078,0
1610546874.148,103.027,25.391,45.410,391.113,-96.680,0
1610546874.152,346.680,20.996,222.168,-915.527,-105.957,0
1610546874.156,81.055,31.738,222.656,440.918,-24.902,0
1610546874.160,-280.273,34.668,-91.309,-729.492,-3.418,0
1610546874.162,-278.320,29.297,-293.457,-820.801,-83.496,0
1610546874.166,43.945,28.320,20.996,266.113,-30.273,0
1610546874.170,332.031,27.832,351.074,-926.758,-45.898,0
1610546874.174,122.559,31.250,245.605,551.270,-90.820,0
1610546874.178,-256.348,38.086,-107.910,-622.559,-38.086,0
1610546874.182,-302.246,31.250,-308.105,-913.086,-62.500,0
1610546874.186,-8.789,25.391,-71.777,78.125,-118.164,0
1610546874.189,322.266,29.297,311.523,-974.609,-70.312,0
1610546874.193,186.523,30.762,202.148,674.316,-26.367,0
1610546874.197,-214.844,35.645,-146.484,-498.047,-30.273,0
1610546874.201,-319.824,40.527,-218.262,-957.031,-60.547,0
1610546874.205,-43.945,37.109,-37.109,-42.969,-92.285,0
1610546874.208,309.570,35.645,278.809,965.820,-57.617,0
1610546874.212,226.074,39.062,308.594,772.949,-44.434,0
1610546874.216,-168.945,43.945,-37.598,-345.215,-79.590,0
1610546874.220,-303.711,41.992,-277.344,-970.703,-42.969,0
1610546874.224,-70.312,40.039,-104.492,-179.199,-0.488,0
1610546874.228,286.133,41.992,237.793,883.789,-17.090,0
1610546874.232,262.695,40.527,312.500,851.074,-26.855,0
1610546874.235,-128.418,39.551,-1.465,-205.078,-33.691,0
1610546874.239,-319.336,39.551,-322.754,-979.492,-22.949,0
1610546874.243,-119.141,42.480,-125.977,-313.965,-76.660,0
1610546874.247,255.859,41.992,278.809,797.852,-69.336,0
1610546874.251,287.598,42.480,337.891,931.152,-14.160,0
1610546874.253,-86.426,45.410,54.199,-27.344,-87.402,0
1610546874.257,-321.777,45.898,-208.008,-947.754,-80.566,0
1610546874.261,-181.152,45.410,-147.949,-451.172,-40.039,0
1610546874.265,194.824,41.504,162.598,695.801,-43.457,0
1610546874.269,309.082,41.504,304.199,995.605,-47.852,0
1610546874.273,-47.363,46.387,76.172,132.324,-55.176,0
1610546874.277,-316.406,49.316,-227.539,-884.277,-45.410,0
1610546874.280,-205.566,44.434,-267.578,-540.039,-58.105,0
1610546874.284,159.180,37.598,88.867,611.328,39.062,0
1610546874.288,336.914,35.156,382.812,-949.707,-26.367,0
1610546874.292,20.508,38.574,197.266,299.316,-102.051,0
1610546874.296,-295.898,41.504,-178.711,-807.617,-90.332,0
1610546874.297,-229.980,41.016,-214.355,-681.641,-128.418,0
1610546874.301,125.977,37.109,131.348,463.867,-74.707,0
1610546874.305,351.562,33.203,347.168,-912.598,16.113,0
1610546874.309,79.590,41.992,166.992,444.336,-11.230,0
1610546874.313,-271.973,50.781,-161.133,-727.539,-50.293,0
1610546874.317,-256.348,43.945,-261.719,-780.273,-13.672,0
1610546874.321,66.406,34.668,0.000,340.332,-26.367,0
1610546874.324,338.867,31.250,181.152,-912.598,-56.152,0
1610546874.328,115.234,38.574,148.438,575.684,-85.449,0
1610546874.332,-263.672,43.945,-60.059,-600.586,-70.801,0
1610546874.336,-280.273,41.504,-250.488,-848.633,-33.203,0
1610546874.340,23.438,38.086,-23.926,189.941,-75.684,0
1610546874.343,333.984,35.645,305.664,-950.684,-90.332,0
1610546874.347,183.594,41.992,271.973,667.480,-49.805,0
1610546874.351,-214.844,47.363,-97.168,-508.301,-58.594,0
1610546874.355,-297.363,45.410,-299.316,-950.684,-107.422,0
1610546874.359,-18.066,39.551,-51.270,-25.879,-101.074,0
1610546874.363,328.125,34.180,258.301,971.680,-53.711,0
1610546874.367,229.980,37.598,181.641,756.836,-44.434,0
1610546874.370,-187.012,42.969,-123.535,-388.672,-73.242,0
1610546874.374,-322.266,42.969,-242.676,-995.117,-96.191,0
1610546874.378,-74.219,41.504,-56.641,-156.250,-56.152,0
1610546874.382,297.363,38.086,199.219,908.203,-103.027,0
1610546874.386,269.043,42.969,264.648,852.539,-109.863,0
1610546874.389,-126.465,52.734,41.992,-201.660,-76.172,0
1610546874.393,-302.734,48.340,-257.812,-944.824,-88.379,0
1610546874.397,-105.957,40.527,-173.340,-245.605,-106.934,0
1610546874.401,269.043,41.992,219.238,823.242,-90.820,0
1610546874.405,306.152,43.457,368.164,917.480,-20.996,0
1610546874.409,-82.520,45.898,42.969,-62.988,-1.465,0
1610546874.413,-315.430,44.922,-338.867,-987.793,-32.227,0
1610546874.416,-157.227,41.992,-185.059,-494.629,-108.887,0
1610546874.420,209.473,40.527,225.586,679.199,-117.188,0
1610546874.424,324.219,41.504,309.570,969.238,-110.840,0
1610546874.428,-25.879,49.316,120.117,52.734,-52.734,0
1610546874.432,-305.664,54.199,-155.762,-937.012,-12.207,0
1610546874.449,-186.035,47.852,-163.574,-587.402,-73.242,0
1610546874.453,181.152,40.527,120.117,581.543,-78.613,0
1610546874.457,339.844,41.504,314.453,-957.520,-82.520,0
1610546874.461,17.090,45.898,159.180,242.676,-123.047,0
1610546874.465,-296.875,43.945,-165.039,-844.727,-98.633,0
1610546874.469,-224.121,38.086,-291.504,-667.969,-90.332,0
1610546874.473,129.883,36.133,31.250,474.609,-65.430,0
1610546874.476,349.609,34.180,398.438,-923.340,-26.855,0
1610546874.480,67.383,37.598,228.027,381.348,-66.895,0
1610546874.484,-284.668,40.527,-161.133,-764.160,-53.711,0
1610546874.488,-249.512,38.574,-234.863,-801.270,-48.828,0
1610546874.492,93.750,30.273,75.684,299.805,-86.914,0
1610546874.492,354.492,26.367,317.383,-920.410,-92.773,0
1610546874.496,110.840,34.180,214.355,518.066,-31.738,0
1610546874.500,-272.461,39.551,-101.562,-658.691,0.000,0
1610546874.504,-290.039,39.062,-233.398,-862.305,-22.949,0
1610546874.508,33.203,33.691,-40.527,192.383,-108.887,0
1610546874.512,345.215,28.320,211.426,-935.059,-131.836,0
1610546874.516,167.480,34.668,233.398,643.555,-56.641,0
1610546874.519,-230.957,46.387,-57.617,-531.250,-61.523,0
1610546874.523,-288.086,43.945,-311.523,-934.082,-90.820,0
1610546874.527,0.488,35.645,-186.035,18.555,-95.215,0
1610546874.531,324.219,30.762,238.281,996.094,-80.566,0
1610546874.535,204.102,28.809,303.223,724.121,-94.727,0
1610546874.537,-202.637,33.203,-60.547,-422.852,-44.922,0
1610546874.541,-319.336,37.109,-274.902,-989.258,-1.465,0
1610546874.545,-68.359,32.715,-57.617,-143.555,6.836,0
1610546874.549,287.109,24.902,260.742,920.898,-22.949,0
1610546874.553,233.887,26.367,268.555,827.637,-56.152,0
1610546874.557,-164.551,30.273,-42.969,-253.418,-23.438,0
1610546874.561,-326.660,28.320,-291.504,-986.328,-9.766,0
1610546874.564,-115.234,23.926,-124.512,-269.531,11.719,0
1610546874.568,266.113,19.531,157.715,839.355,62.988,0
1610546874.572,278.809,22.461,217.285,885.742,24.902,0
1610546874.576,-126.953,33.691,75.684,-129.395,-6.348,0
1610546874.580,-339.844,35.156,-227.539,-1000.000,-40.527,0
1610546874.582,-163.574,29.297,-193.848,-463.379,-86.914,0
1610546874.586,210.938,26.367,185.547,721.191,-45.410,0
1610546874.590,296.875,24.414,323.242,952.637,-52.734,0
1610546874.594,-61.035,27.832,36.621,9.277,-89.355,0
1610546874.598,-315.918,28.809,-291.992,-963.867,-107.910,0
1610546874.602,-181.641,25.391,-228.516,-589.844,-58.594,0
1610546874.606,190.430,25.879,122.559,601.074,-25.879,0
1610546874.609,337.891,24.902,294.434,-976.074,-45.410,0
1610546874.613,-2.441,26.855,24.414,172.852,-76.172,0
1610546874.617,-310.059,28.809,-228.516,-887.695,-93.750,0
1610546874.621,-224.609,25.391,-208.008,-679.199,-122.070,0
1610546874.625,141.113,20.996,42.969,485.352,-132.324,0
1610546874.627,347.656,24.902,293.457,-934.082,-37.109,0
1610546874.631,44.434,32.715,195.312,328.613,-34.668,0
1610546874.635,-295.898,33.203,-165.039,-796.875,-71.777,0
1610546874.639,-268.555,27.832,-274.902,-778.809,-109.375,0
1610546874.643,83.496,21.973,46.875,347.656,-77.637,0
1610546874.647,349.121,14.160,287.109,-917.480,-38.574,99
1610546874.651,99.609,17.090,194.824,466.309,-56.152,0
1610546874.654,-266.113,22.461,-182.617,-700.684,-34.668,0
1610546874.658,-283.691,21.973,-333.496,-861.328,-72.266,0
1610546874.662,24.902,21.973,66.895,184.570,-79.102,0
1610546874.666,337.891,21.973,351.074,-945.801,-25.879,0
1610546874.670,146.973,27.832,237.305,573.242,-47.852,0
1610546874.674,-239.746,29.297,-102.051,-614.746,-86.426,0
1610546874.678,-293.945,28.320,-250.488,-934.082,-70.801,0
1610546874.682,-5.371,25.879,-4.883,19.531,0.977,0
1610546874.686,330.566,21.973,240.234,994.629,-71.777,0
1610546874.690,194.336,28.809,242.188,688.965,-157.227,0
1610546874.694,-206.543,36.133,-63.965,-492.188,-105.957,0
1610546874.698,-314.941,33.691,-298.828,-984.863,-55.664,0
1610546874.701,-50.781,26.855,-154.297,-126.465,-90.820,0
1610546874.705,305.176,30.762,258.789,916.016,-100.098,0
1610546874.709,224.609,34.180,364.746,779.785,-47.852,0
1610546874.713,-181.152,33.203,-9.766,-359.863,-41.016,0
1610546874.717,-330.078,33.203,-251.953,-1000.000,-42.480,0
1610546874.717,-99.609,31.250,-61.035,-264.648,-43.457,0
1610546874.721,270.508,27.344,245.605,834.473,-69.824,0
1610546874.725,266.602,29.785,303.223,870.605,-63.477,0
1610546874.729,-120.117,35.156,21.484,-178.223,-25.879,0
1610546874.733,-318.848,36.133,-254.395,-996.582,-39.062,0
1610546874.737,-128.906,35.645,-135.254,-396.484,-58.594,0
1610546874.741,243.164,33.691,137.207,748.535,-22.461,0
1610546874.744,307.617,34.180,233.887,935.059,-12.207,0
1610546874.748,-62.988,41.992,120.605,-39.551,-24.414,0
1610546874.752,-312.988,46.387,-160.156,-967.773,-30.273,0
1610546874.756,-169.434,41.504,-137.207,-520.996,-8.789,0
1610546874.760,204.102,36.621,212.402,644.531,20.508,0
1610546874.763,332.031,38.574,364.746,999.512,-25.391,0
1610546874.767,-12.207,44.434,123.535,126.953,-43.457,0
1610546874.771,-294.434,42.480,-245.117,-904.297,-123.047,0
1610546874.775,-199.219,42.480,-208.984,-641.602,-166.992,0
1610546874.779,164.551,42.480,152.832,526.367,-71.777,0
1610546874.783,364.746,39.062,300.293,-945.312,-52.734,0
1610546874.787,56.152,46.875,32.715,286.621,-50.781,0
1610546874.790,-275.879,52.246,-231.934,-822.266,-59.082,0
1610546874.794,-227.051,50.781,-157.715,-740.234,-64.941,0
1610546874.798,112.305,49.805,90.332,397.461,-42.480,0
1610546874.802,356.445,46.875,310.547,-920.410,-42.480,0
1610546874.806,104.980,51.270,204.102,446.289,-117.188,0
1610546874.822,-258.789,55.664,-110.840,-708.496,-67.871,0
1610546874.826,-248.535,51.270,-233.398,-807.129,-25.391,0
1610546874.830,83.984,49.316,38.086,274.414,-21.484,0
1610546874.834,358.398,50.293,326.660,-929.199,-20.996,0
1610546874.838,145.508,53.223,253.906,571.289,-23.438,0
1610546874.842,-232.910,55.664,-181.641,-606.934,-50.781,0
1610546874.846,-274.414,53.711,-344.238,-893.066,-93.262,0
1610546874.849,17.090,48.828,25.391,106.445,-82.031,0
1610546874.853,345.215,44.922,309.082,-976.562,-73.242,0
1610546874.857,197.754,48.828,226.562,690.430,-79.102,0
1610546874.861,-201.172,50.781,-65.918,-472.656,-92.773,0
1610546874.865,-277.344,51.758,-206.055,-935.547,-81.543,0
1610546874.867,-21.973,47.852,-17.090,-25.391,-53.223,0
1610546874.871,313.477,40.527,251.465,965.332,-56.152,0
1610546874.875,234.863,42.969,297.852,773.438,-70.312,0
1610546874.879,-157.227,50.293,31.738,-345.215,-83.496,0
1610546874.883,-299.805,48.340,-223.145,-966.309,-40.527,0
1610546874.887,-73.242,38.086,-110.840,-177.246,-23.926,0
1610546874.891,287.109,36.133,204.590,876.465,-78.125,0
1610546874.894,261.719,40.527,324.219,852.051,-97.656,0
1610546874.898,-131.348,40.527,7.324,-190.430,-115.234,0
1610546874.902,-310.059,42.480,-335.938,-973.633,-122.559,0
1610546874.906,-120.117,45.410,-108.887,-341.309,-87.891,0
1610546874.910,254.883,39.062,270.508,778.320,-72.754,0
1610546874.912,310.059,35.645,322.754,918.945,-58.105,0
1610546874.916,-76.660,39.062,75.195,-63.965,-37.109,0
1610546874.920,-322.266,39.551,-189.453,-983.887,-38.574,0
1610546874.924,-169.922,36.621,-145.996,-544.434,-96.191,0
1610546874.928,228.516,37.109,135.254,634.277,-44.434,0
1610546874.932,345.215,44.434,276.367,953.125,15.137,0
1610546874.936,-27.344,44.922,76.660,23.438,-38.086,0
1610546874.939,-311.035,45.410,-187.988,-947.754,-28.809,0
1610546874.943,-201.172,45.410,-249.023,-640.625,-57.129,0
1610546874.947,174.316,44.434,42.969,525.391,-87.402,0
1610546874.951,344.238,46.875,387.207,-942.871,-34.668,0
1610546874.955,36.621,50.293,189.941,295.410,-59.570,0
1610546874.957,-273.438,54.688,-165.039,-804.199,-42.480,0
1610546874.961,-212.891,56.152,-173.340,-663.086,-21.484,0
1610546874.965,152.344,50.293,135.742,465.332,-20.508,0
1610546874.969,389.648,43.945,294.434,-921.875,-54.199,0
1610546874.973,105.957,47.852,130.371,410.645,-95.215,0
1610546874.977,-267.578,53.223,-149.414,-740.723,-50.781,0
1610546874.981,-258.789,49.316,-236.816,-820.312,-63.477,0
1610546874.984,82.520,41.504,19.043,233.398,-60.547,0
1610546874.988,359.863,41.504,254.395,-964.355,-5.859,0
1610546874.992,138.672,46.387,240.234,516.113,-49.805,0
1610546874.996,-250.977,46.875,-35.156,-654.785,-50.293,0
1610546875.000,-278.320,44.922,-239.746,-867.676,-72.266,0
1610546875.002,37.598,41.504,6.348,135.742,-68.848,0
1610546875.006,343.262,38.574,345.215,-978.027,-18.555,0
1610546875.010,171.387,40.527,312.500,665.527,38.574,0
1610546875.014,-222.168,41.992,-56.641,-512.207,3.906,0
1610546875.018,-297.852,38.086,-269.531,-928.711,-87.402,0
1610546875.022,-20.508,33.691,-56.152,-15.137,-58.594,0
1610546875.026,315.918,32.227,250.977,951.660,-44.434,0
1610546875.029,205.078,30.273,184.570,751.465,-105.957,0
1610546875.033,-194.824,29.297,-109.375,-395.508,-66.406,0
1610546875.037,-322.266,32.227,-190.918,-988.281,-35.156,0
1610546875.041,-75.195,29.785,-39.551,-186.523,-100.098,0
1610546875.045,289.062,28.809,242.676,868.164,-118.652,0
1610546875.047,252.930,34.668,337.402,836.914,-69.336,0
1610546875.051,-145.996,41.992,62.988,-240.234,-50.293,0
1610546875.055,-327.637,42.480,-242.676,-981.445,-80.566,0
1610546875.059,-124.512,36.133,-142.090,-325.195,-85.938,0
1610546875.063,254.883,32.715,205.078,775.391,-87.891,0
1610546875.067,292.969,32.227,285.645,901.367,-79.102,0
1610546875.071,-85.938,37.598,0.488,-101.562,-91.309,0
1610546875.074,-307.617,37.598,-328.125,-974.121,-123.535,0
1610546875.078,-157.715,37.598,-160.156,-479.980,-81.543,0
1610546875.082,217.773,39.062,225.098,667.969,-46.387,0
1610546875.086,328.125,35.156,316.895,973.145,-2.441,0
1610546875.090,-25.391,38.086,90.332,43.457,22.949,0
1610546875.092,-308.594,41.016,-177.246,-938.477,-52.734,0
1610546875.096,-199.219,35.645,-143.066,-599.121,-35.645,0
1610546875.100,174.316,31.738,140.625,555.176,-7.812,0
1610546875.104,333.984,31.738,342.285,-973.145,0.000,0
1610546875.108,2.930,36.133,168.945,208.008,-17.090,0
1610546875.112,-312.988,37.109,-198.730,-856.934,-72.266,0
1610546875.116,-218.750,32.715,-279.297,-688.965,-26.855,0
1610546875.119,150.391,32.227,34.668,450.684,1.465,0
1610546875.123,363.281,34.180,354.980,-936.523,-83.496,0
1610546875.127,73.242,38.086,218.262,367.188,-70.801,0
1610546875.131,-282.715,43.945,-150.879,-759.766,-69.824,0
1610546875.135,-257.812,42.969,-263.184,-805.664,-142.090,0
1610546875.139,81.055,33.691,38.086,290.527,-109.863,0
1610546875.143,346.191,31.738,316.895,-934.082,-65.430,0
1610546875.147,108.398,36.621,191.895,487.793,-39.551,0
1610546875.151,-261.230,37.109,-108.887,-676.758,-41.504,0
1610546875.155,-272.949,33.203,-231.934,-889.160,-105.469,0
1610546875.159,43.945,26.855,-34.180,139.648,-90.820,0
1610546875.163,347.168,25.391,196.777,-959.473,-43.457,0
1610546875.166,155.762,35.156,226.074,616.699,-62.500,0
1610546875.170,-236.328,41.992,-25.391,-558.105,-86.426,0
1610546875.174,-290.527,38.574,-253.418,-917.480,-100.586,0
1610546875.178,-3.906,32.227,-19.531,56.152,-56.641,0
1610546875.182,331.543,32.227,338.379,-991.699,10.254,0
1610546875.197,214.355,40.039,299.316,722.168,-29.297,0
1610546875.201,-195.312,40.527,-52.734,-426.758,-55.176,0
1610546875.205,-308.105,32.715,-291.504,-1000.000,-69.824,0
1610546875.209,-49.805,29.785,-116.211,-189.941,-92.285,0
1610546875.213,315.918,35.645,260.742,885.742,-53.223,2
1610546875.217,269.043,38.574,245.605,816.406,-4.395,0
1610546875.221,-134.277,42.480,-100.098,-289.551,-33.203,0
1610546875.224,-314.453,45.898,-203.125,-1000.000,-61.523,0
1610546875.228,-105.469,42.480,-33.691,-307.129,-47.363,0
1610546875.232,269.531,39.551,250.000,806.152,-12.695,0
1610546875.236,285.156,44.922,326.660,875.000,-49.805,0
1610546875.240,-91.797,51.270,74.707,-159.668,-71.289,0
1610546875.242,-302.734,51.758,-208.008,-991.699,-14.160,0
1610546875.246,-136.719,48.828,-162.598,-439.941,-60.547,0
1610546875.250,233.398,45.898,173.340,707.031,-100.586,0
1610546875.254,308.105,45.898,329.102,949.219,-70.801,0
1610546875.258,-55.664,47.852,92.285,3.418,4.395,0
1610546875.262,-294.922,49.805,-263.184,-958.984,-43.945,0
1610546875.266,-162.109,50.293,-224.609,-578.613,-101.074,0
1610546875.269,206.055,45.898,143.066,595.703,-43.945,0
1610546875.273,353.516,43.945,331.055,-987.305,-6.836,0
1610546875.277,10.254,50.293,35.645,154.297,-1.953,0
1610546875.281,-307.129,54.199,-210.449,-895.508,-1.465,0
1610546875.285,-220.215,52.246,-124.512,-693.359,-40.527,0
1610546875.287,155.273,47.363,119.141,461.914,-51.270,0
1610546875.291,354.004,42.480,333.008,-949.707,-39.551,0
1610546875.295,60.059,47.363,212.891,305.176,-28.809,0
1610546875.299,-270.996,52.734,-132.324,-803.711,-68.848,0
1610546875.303,-238.770,47.363,-225.098,-769.043,-83.008,0
1610546875.307,97.168,42.969,41.992,342.285,-64.453,0
1610546875.311,362.793,42.969,287.598,-930.176,-79.102,0
1610546875.314,117.676,49.805,242.676,448.730,-33.691,0
1610546875.318,-255.859,51.270,-166.992,-712.891,-55.176,0
1610546875.322,-258.789,47.852,-341.797,-861.816,-109.375,0
1610546875.326,55.664,45.898,65.918,164.062,-75.684,0
1610546875.330,351.074,42.969,353.516,-963.867,-36.621,0
1610546875.332,157.227,44.922,230.957,568.848,-86.914,0
1610546875.336,-242.188,48.340,-60.059,-610.352,-69.824,0
1610546875.340,-291.992,47.363,-215.332,-930.176,-83.984,0
1610546875.344,8.301,44.922,-39.551,13.184,-152.344,0
1610546875.348,333.496,39.062,270.996,989.258,-64.453,0
1610546875.352,202.637,40.527,258.301,690.430,-18.555,0
1610546875.356,-187.500,46.875,-52.734,-483.887,-69.824,0
1610546875.359,-283.691,43.457,-245.605,-982.910,-63.477,0
1610546875.363,-21.973,40.527,-119.141,-136.719,-29.785,0
1610546875.367,321.777,40.039,257.324,906.738,-65.430,0
1610546875.371,254.883,42.969,349.609,778.809,-88.379,0
1610546875.375,-146.973,45.410,8.301,-338.379,-45.898,0
1610546875.377,-313.477,44.434,-239.746,-996.582,-6.348,0
1610546875.381,-92.285,40.039,-59.570,-270.508,-19.043,0
1610546875.385,268.066,33.203,267.090,828.613,-12.695,0
1610546875.389,267.578,38.086,298.340,856.445,55.176,0
1610546875.393,-113.770,44.922,21.973,-211.426,48.340,0
1610546875.397,-320.801,44.434,-260.742,-1000.000,-59.082,0
1610546875.401,-145.508,39.551,-142.578,-429.688,-38.574,0
1610546875.404,229.980,31.250,137.207,725.098,-16.602,0
1610546875.408,295.410,33.203,237.305,906.250,-48.340,0
1610546875.412,-78.125,42.480,129.883,-95.215,-25.391,0
1610546875.416,-321.777,43.457,-198.730,-988.281,-91.309,0
1610546875.420,-185.059,41.992,-180.664,-573.730,-98.633,0
1610546875.422,190.430,37.598,172.363,604.492,-37.598,0
1610546875.426,322.754,37.598,358.398,982.910,-33.691,0
1610546875.430,-24.414,39.551,110.352,92.285,-50.293,0
1610546875.434,-315.918,40.039,-239.258,-907.227,-102.051,0
1610546875.438,-213.867,40.527,-165.527,-677.734,-61.523,0
1610546875.442,155.273,33.691,126.953,482.910,-39.062,0
1610546875.446,344.238,35.645,280.273,-978.027,-66.406,0
1610546875.449,41.992,41.504,85.449,217.285,-51.758,0
1610546875.453,-299.316,39.551,-161.621,-845.215,-61.035,0
1610546875.457,-250.000,36.133,-159.180,-770.020,-89.355,0
1610546875.461,102.051,32.715,66.895,346.680,-75.195,0
1610546875.465,339.844,32.715,309.082,-951.172,-34.668,0
1610546875.467,75.684,40.039,234.863,389.160,-7.324,0
1610546875.471,-284.668,43.457,-83.984,-730.469,24.414,0
1610546875.475,-279.785,38.086,-244.141,-844.238,-0.977,0
1610546875.479,47.363,34.180,-5.859,204.590,-53.711,0
1610546875.483,327.637,33.203,314.941,-971.680,-12.207,0
1610546875.487,128.906,33.691,215.332,477.539,-13.184,0
1610546875.491,-246.094,36.621,-190.430,-659.180,-56.152,0
1610546875.494,-291.992,37.598,-348.633,-938.477,-72.266,0
1610546875.498,1.465,37.598,10.254,-18.555,-39.551,0
1610546875.502,330.078,35.645,325.684,936.523,0.488,0
1610546875.506,179.688,34.668,247.559,559.082,-0.488,0
1610546875.510,-223.145,32.715,-58.594,-569.336,-34.180,0
1610546875.513,-314.453,31.250,-238.770,-981.445,-89.844,0
1610546875.517,-43.945,31.738,-56.152,-119.141,-71.289,0
1610546875.521,301.758,25.879,220.703,926.270,-92.285,0
1610546875.525,217.285,30.762,279.297,765.625,-96.680,0
1610546875.529,-171.387,39.062,13.672,-359.375,-80.078,0
1610546875.533,-309.082,34.180,-271.973,-978.027,-79.590,0
1610546875.537,-80.566,32.227,-183.105,-225.586,-62.988,0
1610546875.540,275.391,30.762,219.238,844.238,-11.230,0
1610546875.544,259.277,30.762,324.219,809.082,-54.199,0
1610546875.548,-129.883,38.574,-6.348,-273.438,-107.422,0
1610546875.552,-315.430,39.551,-256.836,-1000.000,-68.359,0
1610546875.556,-122.559,39.551,-79.590,-411.621,-36.621,0
1610546875.572,247.559,37.109,234.863,745.605,-29.785,0
1610546875.576,290.527,34.668,298.828,913.574,-66.406,0
1610546875.580,-91.309,37.109,81.055,-78.125,-47.852,0
1610546875.584,-329.102,36.133,-166.504,-968.262,0.977,0
1610546875.588,-181.641,32.715,-113.281,-487.305,16.602,0
1610546875.592,200.684,26.367,107.422,669.922,20.020,0
1610546875.596,323.242,26.855,219.727,975.586,-72.754,0
1610546875.599,-35.645,36.133,126.465,76.660,-125.488,0
1610546875.603,-320.801,39.551,-159.668,-920.410,-91.797,0
1610546875.607,-209.961,37.109,-200.684,-612.305,-90.332,0
1610546875.611,162.109,31.738,131.348,548.828,-41.992,0
1610546875.615,346.680,33.691,343.750,-955.078,-41.016,0
1610546875.617,31.738,41.504,181.641,270.996,-31.738,0
1610546875.621,-292.969,41.504,-182.617,-830.566,-80.566,0
1610546875.625,-225.098,43.945,-201.172,-701.172,-124.512,0
1610546875.629,124.512,43.457,142.578,438.965,-49.805,0
1610546875.633,351.074,42.480,321.777,-927.734,-46.875,0
1610546875.637,82.520,44.434,161.133,417.480,-33.691,0
1610546875.641,-275.879,44.922,-127.930,-738.281,-16.113,0
1610546875.644,-258.301,41.992,-165.527,-786.621,0.977,0
1610546875.648,76.660,35.156,28.320,295.410,-13.672,0
1610546875.652,345.703,29.297,200.195,-933.105,-26.855,0
1610546875.656,125.488,32.227,201.660,542.969,-90.332,0
1610546875.660,-250.488,36.621,-70.801,-633.301,-130.859,0
1610546875.663,-283.691,32.227,-235.840,-864.746,-73.730,0
1610546875.667,24.902,30.273,-17.578,132.812,-16.602,0
1610546875.671,339.844,31.250,255.859,-978.516,-74.707,0
1610546875.675,176.758,35.645,284.180,660.645,-65.918,0
1610546875.679,-211.426,41.016,-51.758,-508.789,37.109,0
1610546875.683,-294.922,38.086,-295.898,-930.664,2.441,0
1610546875.687,-32.715,33.203,-18.066,-10.254,21.973,0
1610546875.690,303.223,34.180,329.102,969.238,27.832,0
1610546875.694,212.891,38.574,224.609,765.625,-12.695,0
1610546875.698,-178.223,43.457,-100.098,-371.094,-53.223,0
1610546875.702,-302.246,48.340,-202.148,-970.215,-96.680,0
1610546875.706,-63.477,44.922,-46.875,-160.156,-55.664,0
1610546875.707,302.734,37.109,230.957,889.648,-41.992,0
1610546875.711,274.414,41.504,299.805,835.938,-82.031,0
1610546875.715,-134.277,50.781,67.383,-237.793,-50.293,0
1610546875.719,-314.453,46.875,-207.031,-976.562,-36.133,0
1610546875.723,-115.723,41.016,-108.398,-299.316,-0.977,0
1610546875.727,270.508,36.621,190.918,802.734,-19.531,0
1610546875.731,306.641,37.109,285.156,907.715,-56.152,0
1610546875.734,-87.402,44.922,48.340,-83.008,-37.598,0
1610546875.738,-298.828,47.363,-336.914,-961.426,-70.801,0
1610546875.742,-141.113,44.922,-215.820,-466.309,-102.539,0
1610546875.746,218.262,42.480,235.840,684.082,-58.105,0
1610546875.750,318.848,40.039,304.199,971.191,-106.934,0
1610546875.753,-29.785,49.316,101.562,59.082,-80.566,0
1610546875.757,-303.223,52.734,-152.344,-923.828,-23.926,0
1610546875.761,-185.547,45.898,-166.016,-573.242,-100.098,0
1610546875.765,193.359,42.480,133.301,590.820,-103.027,0
1610546875.769,349.121,43.457,332.520,-964.844,-72.754,0
1610546875.773,19.043,46.875,135.254,234.375,-101.562,0
1610546875.777,-296.387,47.852,-137.695,-841.309,-61.035,0
1610546875.780,-217.773,43.945,-201.660,-654.785,4.883,0
1610546875.784,139.648,39.062,12.695,486.816,-62.988,0
1610546875.788,346.680,44.434,365.723,-930.664,-61.523,0
1610546875.792,72.754,51.270,257.812,384.766,-23.926,0
1610546875.796,-269.531,53.711,-136.230,-757.324,-94.238,0
1610546875.797,-240.234,54.199,-204.102,-778.809,-126.465,0
1610546875.801,94.238,45.898,114.746,332.520,-35.645,0
1610546875.805,357.422,40.039,329.590,-922.852,-26.855,0
1610546875.809,123.047,47.852,201.660,506.836,-72.754,0
1610546875.813,-251.953,47.852,-91.309,-665.527,-58.594,0
1610546875.817,-267.090,42.480,-250.000,-847.168,-103.027,0
1610546875.821,34.180,43.945,-5.859,201.660,-38.086,0
1610546875.824,338.867,40.527,235.840,-949.219,26.367,0
1610546875.828,167.969,45.410,240.234,629.883,-30.273,0
1610546875.832,-220.703,55.176,5.371,-540.527,-38.086,0
1610546875.836,-288.086,52.734,-254.395,-912.109,-80.078,0
1610546875.840,-4.395,47.852,-39.551,38.574,-56.641,0
1610546875.842,331.055,42.969,328.125,986.816,-11.719,0
1610546875.846,211.914,42.480,321.289,734.375,-3.418,0
1610546875.850,-187.500,47.852,-19.043,-400.391,-31.738,0
1610546875.854,-305.664,46.387,-221.191,-950.195,-48.340,0
1610546875.858,-58.594,38.574,-32.715,-112.305,-58.105,0
1610546875.862,295.898,34.668,221.680,914.551,-73.242,0
1610546875.866,243.652,38.574,204.590,818.848,-63.477,0
1610546875.869,-146.973,44.434,-31.738,-267.578,-24.902,0
1610546875.873,-304.199,43.457,-173.340,-986.328,-44.922,0
1610546875.877,-94.238,37.598,-50.293,-267.578,-48.340,0
1610546875.881,270.020,32.227,210.938,829.590,-61.523,0
1610546875.885,278.809,35.156,308.594,889.160,-70.801,0
1610546875.889,-101.562,44.922,108.887,-121.582,16.113,0
1610546875.893,-301.270,45.410,-234.375,-968.262,-53.711,0
1610546875.897,-133.301,39.062,-183.105,-395.508,-85.938,0
1610546875.901,229.004,33.203,190.918,730.469,-34.668,0
1610546875.905,307.129,36.133,373.047,963.379,18.066,0
1610546875.909,-42.969,41.992,105.469,32.715,23.926,0
1610546875.913,-305.664,37.598,-296.387,-944.336,-77.148,0
1610546875.916,-188.965,38.574,-146.973,-530.762,-30.762,0
1610546875.920,188.965,40.039,226.074,622.559,-26.367,0
1610546875.924,335.449,37.598,301.270,-978.027,-121.582,0
1610546875.928,-1.953,44.434,122.559,178.711,-128.906,0
1610546875.932,-294.922,47.363,-157.715,-884.277,-163.574,0
1610546875.948,-205.566,41.504,-149.902,-645.996,-106.445,0
1610546875.952,144.531,38.086,113.770,496.094,-45.898,0
1610546875.956,339.355,38.574,311.523,-939.941,-32.227,0
1610546875.960,57.129,43.945,188.477,315.430,-61.523,0
1610546875.964,-268.555,46.875,-146.484,-815.430,-95.703,0
1610546875.968,-226.074,46.875,-289.062,-744.141,-99.121,0
1610546875.972,110.352,48.340,-14.160,372.070,-79.102,0
1610546875.975,350.586,49.316,355.957,-921.387,-12.695,0
1610546875.979,101.562,50.781,253.906,475.098,-48.340,0
1610546875.983,-260.742,49.316,-161.133,-697.266,-98.633,0
1610546875.987,-271.484,50.293,-228.516,-819.824,-52.246,0
1610546875.991,44.922,46.875,99.121,239.258,-23.926,0
1610546875.993,336.914,40.039,321.289,-937.012,-50.781,0
1610546875.997,152.832,48.340,251.953,598.145,-22.461,0
1610546876.001,-224.609,56.152,-41.992,-588.379,-21.973,0
1610546876.005,-281.738,53.223,-196.777,-898.926,-69.824,0
1610546876.009,7.812,46.875,4.883,84.473,-30.762,0
1610546876.013,332.520,43.945,253.418,-983.887,35.645,0
1610546876.017,198.730,49.316,227.051,698.242,0.000,0
1610546876.020,-198.242,52.734,-34.668,-457.031,-48.340,0
1610546876.024,-300.293,49.805,-224.609,-929.688,-39.062,0
1610546876.028,-30.273,46.875,-175.293,-55.664,-94.238,0
1610546876.032,321.777,49.316,198.242,943.359,-99.609,0
1610546876.036,234.863,50.781,356.445,789.062,-42.969,0
1610546876.037,-158.691,51.270,15.625,-319.824,-53.223,0
1610546876.041,-308.105,50.293,-218.262,-965.820,-42.969,0
1610546876.045,-94.727,46.875,-62.012,-227.051,-41.992,0
1610546876.049,270.508,43.945,220.215,844.238,-95.703,0
1610546876.053,278.320,44.434,284.668,857.910,-76.660,0
1610546876.057,-117.188,47.852,17.578,-188.965,-55.664,0
1610546876.061,-328.125,52.246,-258.789,-968.750,-104.980,0
1610546876.064,-143.555,49.805,-111.328,-370.117,-145.020,0
1610546876.068,231.934,41.992,147.461,750.488,-91.797,0
1610546876.072,301.758,44.434,232.422,930.176,-25.879,0
1610546876.076,-70.312,51.758,110.352,-40.039,-41.504,0
1610546876.080,-308.594,51.758,-187.988,-956.055,-114.258,0
1610546876.083,-169.922,50.293,-164.062,-523.926,-89.355,0
1610546876.087,194.824,47.852,196.289,638.672,29.785,0
1610546876.091,330.078,51.758,370.117,972.656,35.156,0
1610546876.095,-10.254,56.641,108.398,58.594,-46.875,0
1610546876.099,-302.246,51.758,-234.375,-929.199,-111.328,0
1610546876.103,-207.520,49.316,-227.539,-688.477,-95.703,0
1610546876.107,149.414,47.363,89.844,471.680,-29.785,0
1610546876.110,343.750,44.922,273.926,-977.539,-46.875,0
1610546876.114,42.969,47.363,58.594,243.652,-75.195,0
1610546876.118,-289.551,51.270,-182.617,-822.266,-74.219,0
1610546876.122,-246.582,50.781,-153.320,-722.168,-95.215,0
1610546876.126,104.004,43.945,95.703,411.621,-41.504,0
1610546876.129,351.562,40.527,306.152,-930.176,-23.926,0
1610546876.133,98.145,49.316,230.469,444.824,19.043,0
1610546876.137,-258.301,53.223,-50.293,-699.707,54.199,0
1610546876.141,-256.836,47.852,-229.004,-823.730,-17.578,0
1610546876.145,67.383,48.828,-4.883,242.676,-58.105,0
1610546876.149,351.562,49.316,294.922,-947.754,2.930,0
1610546876.153,144.043,50.293,243.652,537.598,4.883,0
1610546876.156,-233.887,52.246,-121.582,-625.977,-41.992,0
1610546876.160,-268.066,47.852,-286.621,-894.531,-17.578,0
1610546876.164,17.578,47.852,45.410,84.961,-20.996,0
1610546876.168,332.031,50.293,308.105,-988.770,-26.855,0
1610546876.172,195.312,52.246,244.629,682.129,-58.594,0
1610546876.172,-199.707,53.711,-29.297,-481.445,-50.781,0
1610546876.176,-291.992,49.805,-209.961,-928.223,-76.660,0
1610546876.180,-29.785,45.898,-31.250,-27.344,-65.430,0
1610546876.184,314.453,41.504,249.512,953.125,11.230,0
1610546876.188,241.699,43.457,247.559,781.738,-43.945,0
1610546876.192,-154.297,53.223,-23.438,-336.426,-79.590,0
1610546876.196,-297.363,51.270,-242.188,-968.750,-55.176,0
1610546876.199,-68.359,42.969,-173.340,-189.453,-48.340,0
1610546876.203,280.762,41.504,196.777,864.258,-7.812,0
1610546876.207,266.602,45.410,372.559,860.840,-41.504,0
1610546876.211,-105.469,51.758,73.242,-172.852,-52.734,0
1610546876.215,-303.223,51.758,-194.824,-943.848,-47.852,0
1610546876.217,-116.699,49.316,-56.152,-291.992,-39.551,0
1610546876.221,245.117,46.875,249.512,798.828,3.906,0
1610546876.225,295.410,49.316,312.500,926.758,2.930,0
1610546876.229,-62.500,55.664,80.566,-34.180,-66.406,0
1610546876.233,-299.805,59.082,-180.664,-934.082,-94.727,0
1610546876.237,-146.484,56.641,-161.133,-452.148,-90.820,0
1610546876.241,219.238,51.270,90.820,682.617,-44.922,0
1610546876.244,319.336,51.758,231.934,982.910,-3.418,0
1610546876.248,-20.508,59.082,163.574,105.469,-9.766,0
1610546876.252,-296.875,58.105,-95.215,-894.531,0.488,0
1610546876.256,-193.848,52.246,-150.391,-591.309,-64.453,0
1610546876.260,171.875,47.363,165.039,557.617,-38.574,0
1610546876.263,344.727,49.805,366.699,-963.379,7.324,0
1610546876.267,26.855,52.734,171.387,251.953,-34.668,0
1610546876.271,-291.992,51.758,-169.434,-833.496,-80.566,0
1610546876.275,-226.562,48.828,-186.523,-699.707,-98.633,0
1610546876.279,118.164,42.480,119.141,428.711,-35.156,0
1610546876.283,341.309,37.598,295.410,-932.617,41.016,0
1610546876.287,78.613,41.992,93.750,404.297,9.277,0
1610546876.290,-265.137,51.758,-161.133,-745.117,-69.824,0
1610546876.294,-242.188,55.176,-167.969,-789.062,-82.031,0
1610546876.298,86.426,51.758,31.250,307.617,-31.738,0
1610546876.302,355.957,49.805,254.883,-925.293,-27.344,0
1610546876.306,136.719,53.711,236.328,540.039,-59.082,0
1610546876.322,-240.234,55.664,-62.988,-631.348,-50.293,0
1610546876.326,-272.949,53.223,-240.723,-865.723,-42.969,0
1610546876.330,35.156,47.852,-10.742,137.695,-13.184,0
1610546876.334,352.051,48.340,276.855,-973.145,-45.410,0
1610546876.338,173.340,51.270,267.578,647.461,-62.988,0
1610546876.342,-219.238,48.828,-92.285,-527.344,-15.625,0
1610546876.346,-275.391,50.293,-281.250,-930.664,-41.016,0
1610546876.349,-13.672,50.293,13.672,-8.789,-64.453,0
1610546876.353,321.289,49.316,308.594,971.680,-4.395,0
1610546876.357,237.305,53.711,254.883,753.906,-24.414,0
1610546876.361,-169.434,55.664,-3.418,-384.277,-21.973,0
1610546876.365,-291.992,54.199,-181.641,-972.168,-57.129,0
1610546876.367,-47.852,50.781,-76.660,-157.227,-102.051,0
1610546876.371,293.457,41.504,206.543,895.020,-58.105,0
1610546876.375,251.465,43.457,303.223,827.148,-52.734,0
1610546876.379,-136.230,47.363,56.152,-252.441,-89.844,0
1610546876.383,-310.059,43.945,-211.426,-995.605,-75.684,0
1610546876.387,-107.422,42.480,-152.832,-334.473,-101.074,0
1610546876.391,259.766,39.551,174.316,789.551,-94.238,0
1610546876.394,282.715,40.039,351.562,902.344,-28.320,0
1610546876.398,-95.703,44.922,84.473,-97.168,-21.484,0
1610546876.402,-302.246,43.457,-276.367,-976.074,-16.113,0
1610546876.406,-150.391,39.551,-129.395,-473.145,-22.949,0
1610546876.410,205.566,36.133,229.980,691.895,-25.879,0
1610546876.412,303.711,33.203,322.754,969.238,30.273,0
1610546876.416,-50.293,35.156,119.629,41.504,23.926,0
1610546876.420,-313.477,38.086,-171.387,-949.219,-59.570,0
1610546876.424,-192.871,39.062,-184.082,-610.840,-109.375,0
1610546876.428,173.828,34.668,87.891,571.777,-48.828,0
1610546876.432,333.008,35.156,265.137,-974.121,11.719,0
1610546876.436,15.625,43.457,142.578,201.660,-58.105,0
1610546876.439,-288.086,46.875,-116.699,-864.746,-107.910,0
1610546876.443,-214.844,43.945,-236.816,-690.430,-121.094,0
1610546876.447,138.184,41.504,25.879,458.496,-103.516,0
1610546876.451,352.051,39.551,361.816,-935.547,-69.824,0
1610546876.455,66.406,38.574,210.938,366.211,-119.141,0
1610546876.457,-277.344,42.480,-128.418,-766.602,-142.578,0
1610546876.461,-247.559,42.969,-168.945,-765.625,-91.309,0
1610546876.465,93.750,41.504,114.746,348.145,-41.504,0
1610546876.469,357.910,42.969,314.941,-922.852,-35.645,0
1610546876.473,127.930,48.828,198.242,506.836,-53.711,0
1610546876.477,-235.352,50.781,-100.098,-661.133,-52.734,0
1610546876.481,-258.301,47.852,-223.633,-849.121,-62.500,0
1610546876.484,51.758,44.434,30.273,199.219,-28.809,0
1610546876.488,342.285,41.504,226.562,-949.707,40.039,0
1610546876.492,160.645,52.246,234.375,643.555,41.992,0
1610546876.496,-205.078,61.035,49.316,-523.438,-9.277,0
1610546876.500,-279.297,51.270,-186.523,-905.273,-51.270,0
1610546876.502,-7.812,46.387,-5.371,45.410,-55.176,0
1610546876.506,321.289,46.387,302.246,985.840,-30.273,0
1610546876.510,213.379,51.758,304.199,739.258,8.789,0
1610546876.514,-169.922,56.641,2.441,-399.414,-17.578,0
1610546876.518,-290.039,52.734,-207.520,-956.543,-66.895,0
1610546876.522,-46.875,46.875,-68.848,-117.676,-74.707,0
1610546876.526,296.875,45.410,254.883,909.668,0.488,0
1610546876.529,259.766,47.363,253.418,807.129,22.461,0
1610546876.533,-114.258,51.270,-58.105,-303.711,-77.637,0
1610546876.537,-301.758,55.664,-179.199,-997.559,-75.195,0
1610546876.541,-104.980,54.688,-24.902,-269.531,-31.738,0
1610546876.545,265.625,50.293,216.797,814.941,-41.992,0
1610546876.548,282.715,55.664,318.359,892.578,-7.324,0
1610546876.552,-84.473,59.570,126.465,-136.230,-40.527,0
1610546876.556,-294.922,53.711,-198.242,-984.375,-146.484,0
1610546876.560,-128.906,51.270,-127.441,-404.785,-136.719,0
1610546876.564,247.070,46.875,206.543,721.680,-24.902,0
1610546876.568,322.266,43.457,311.035,945.801,71.777,0
1610546876.572,-39.062,46.387,77.148,1.465,34.668,0
1610546876.575,-290.527,45.410,-277.344,-944.824,-77.637,0
1610546876.579,-180.176,40.527,-167.480,-525.879,-104.004,0
1610546876.583,184.082,37.598,222.168,626.953,20.020,0
1610546876.587,312.500,37.598,309.570,-979.492,115.234,0
1610546876.591,-21.484,42.969,111.816,173.340,2.441,0
1610546876.594,-291.504,46.387,-166.016,-884.766,-98.633,0
1610546876.598,-216.797,44.434,-159.668,-655.273,-129.883,0
1610546876.602,131.836,39.062,81.543,490.234,-91.797,0
1610546876.606,325.195,35.645,291.992,-941.406,117.188,0
1610546876.610,44.434,44.434,224.121,319.824,105.957,0
1610546876.614,-272.949,49.316,-128.906,-794.434,-80.566,0
1610546876.618,-240.723,45.410,-254.883,-733.887,-91.309,0
1610546876.621,102.051,43.945,11.230,373.535,-60.547,0
1610546876.625,353.027,46.387,348.633,-927.734,133.301,0
1610546876.629,110.352,50.781,270.020,469.238,185.059,0
1610546876.633,-228.516,56.641,-93.262,-690.918,-49.316,0
1610546876.637,-249.023,55.176,-205.566,-827.637,-133.301,0
1610546876.637,42.480,50.781,57.617,223.145,-87.402,0
1610546876.641,347.168,48.828,297.852,-945.801,135.742,0
1610546876.645,168.945,52.246,215.332,586.914,213.867,0
1610546876.649,-208.496,55.664,-94.727,-591.797,-64.453,0
1610546876.653,-277.344,55.176,-208.008,-902.344,-141.113,0
1610546876.657,6.348,52.246,-25.391,70.312,-107.422,0
1610546876.661,341.797,52.246,152.832,-995.605,110.352,0
1610546876.664,208.496,55.664,190.430,701.660,207.031,0
1610546876.668,-186.035,55.664,31.250,-445.312,-71.777,0
1610546876.672,-281.738,52.734,-193.848,-932.129,-156.738,0
1610546876.676,-26.855,49.805,-40.527,-60.547,-160.645,0
1610546876.680,307.617,47.852,298.828,940.430,115.723,0
1610546876.697,234.863,47.363,309.570,777.344,280.762,0
1610546876.701,-149.902,48.340,10.742,-330.566,26.855,0
1610546876.705,-300.293,45.898,-218.262,-996.094,-108.398,0
1610546876.709,-83.496,45.898,-88.867,-281.738,-207.520,0
1610546876.713,277.344,47.363,230.957,819.336,24.902,0
1610546876.717,281.738,46.387,241.211,851.074,303.711,0
1610546876.721,-91.309,50.293,-36.133,-206.055,21.973,0
1610546876.724,-293.457,53.711,-203.613,-1000.000,-189.453,0
1610546876.728,-128.906,49.316,-87.402,-404.785,-205.566,0
1610546876.732,238.281,42.480,113.770,738.770,-37.109,0
1610546876.736,305.176,47.363,238.281,943.848,279.297,0
1610546876.740,-43.945,52.734,128.906,11.719,46.387,0
1610546876.742,-283.203,49.316,-168.457,-895.508,-223.633,0
1610546876.746,-160.645,47.363,-134.277,-454.590,-222.168,0
1610546876.750,206.543,42.480,165.527,666.992,-32.715,0
1610546876.754,319.336,43.945,316.895,989.258,359.375,0
1610546876.758,-4.395,50.781,111.816,118.164,142.578,0
1610546876.762,-279.785,48.340,-214.355,-903.320,-197.266,0
1610546876.766,-194.336,43.457,-211.914,-663.086,-254.395,0
1610546876.769,154.297,41.504,131.348,495.605,-91.797,0
1610546876.773,337.402,37.598,303.711,-973.145,363.770,0
1610546876.777,52.734,47.363,51.758,261.230,243.164,0
1610546876.781,-264.648,57.129,-175.781,-818.848,-168.457,0
1610546876.785,-221.191,49.805,-113.770,-723.145,-250.000,0
1610546876.787,116.211,45.898,116.211,406.738,-87.402,0
1610546876.791,351.074,49.805,312.988,-925.781,363.281,0
1610546876.795,92.285,52.246,226.074,445.312,316.895,0
1610546876.799,-261.719,52.246,-87.402,-708.008,-166.504,0
1610546876.803,-252.441,45.898,-217.285,-802.246,-304.688,0
1610546876.807,74.219,45.410,13.184,270.020,-173.340,0
1610546876.811,346.680,45.898,283.203,-935.059,332.031,0
1610546876.814,152.832,48.828,278.320,587.402,411.133,0
1610546876.818,-217.285,48.828,-96.191,-592.773,-78.125,0
1610546876.822,-266.602,47.363,-281.738,-882.812,-290.039,0
1610546876.826,26.855,47.363,62.500,124.512,-218.262,0
1610546876.830,330.078,41.992,312.500,-973.633,311.523,0
1610546876.832,173.340,46.875,216.797,696.777,460.938,0
1610546876.836,-204.590,53.223,-14.160,-452.148,-47.852,0
1610546876.840,-274.902,50.293,-166.504,-915.527,-306.641,0
1610546876.844,-15.625,43.945,-27.344,-10.254,-275.879,0
1610546876.848,313.965,39.551,263.672,964.844,268.066,0
1610546876.852,229.004,41.016,257.324,785.156,557.617,0
1610546876.856,-164.062,47.363,-0.977,-325.195,68.848,0
1610546876.859,-302.246,47.852,-214.844,-956.543,-277.344,0
1610546876.863,-67.871,39.062,-182.617,-194.824,-322.754,0
1610546876.867,282.227,36.621,187.988,845.215,149.902,0
1610546876.871,257.812,40.039,341.797,842.285,578.125,0
1610546876.875,-112.305,45.410,30.762,-218.750,110.352,0
1610546876.878,-296.387,51.270,-217.773,-970.215,-327.637,0
1610546876.882,-123.047,50.293,-66.406,-322.266,-324.707,0
1610546876.886,241.699,39.551,211.426,766.602,115.723,0
1610546876.890,292.480,38.574,255.371,923.828,600.586,0
1610546876.894,-63.965,45.898,71.777,-38.574,234.863,0
1610546876.898,-293.457,44.434,-184.082,-935.059,-271.973,0
1610546876.902,-155.273,39.551,-136.719,-465.820,-380.371,0
1610546876.905,222.168,35.156,120.117,665.039,30.762,0
1610546876.909,330.566,39.062,236.328,989.258,590.820,0
1610546876.913,-13.184,49.805,172.852,105.469,312.012,0
1610546876.917,-277.344,52.734,-130.859,-890.137,-288.086,0
1610546876.921,-187.500,46.875,-165.039,-585.938,-453.613,0
1610546876.922,166.016,42.969,122.559,544.434,-77.637,0
1610546876.926,339.355,44.922,319.336,-966.797,566.895,0
1610546876.930,33.203,48.340,172.852,245.605,411.621,0
1610546876.934,-275.879,48.828,-146.973,-836.914,-228.027,0
1610546876.938,-217.285,46.875,-185.547,-723.633,-489.746,0
1610546876.942,122.070,43.945,62.500,403.809,-135.742,0
1610546876.946,345.703,41.016,261.230,-930.664,562.012,0
1610546876.949,88.867,43.945,104.492,414.551,484.863,0
1610546876.953,-253.906,45.410,-146.484,-729.980,-174.316,0
1610546876.957,-239.258,43.457,-152.832,-786.133,-521.484,0
1610546876.961,80.566,42.969,74.707,311.523,-205.078,0
1610546876.965,343.750,41.016,313.477,-922.363,546.387,0
1610546876.967,127.441,48.828,275.391,552.246,632.812,0
1610546876.971,-236.328,56.152,-21.484,-607.910,-32.227,0
1610546876.975,-267.578,45.898,-193.848,-875.488,-461.914,0
1610546876.979,13.672,39.551,31.738,126.465,-195.312,0
1610546876.983,324.219,41.016,311.523,-968.750,537.109,0
1610546876.987,189.941,41.992,262.207,658.203,735.840,0
1610546876.991,-193.848,38.574,-130.371,-532.227,32.227,0
1610546876.994,-276.855,37.598,-321.777,-922.363,-530.273,0
1610546876.998,-22.949,36.621,-2.930,131.348,-336.914,0
1610546877.002,300.781,34.668,329.102,-951.660,439.453,0
1610546877.006,223.145,40.039,272.461,786.133,736.816,0
1610546877.010,-154.785,44.434,7.324,-294.922,116.211,0
1610546877.012,-284.668,41.504,-176.758,-930.664,-493.652,0
1610546877.016,-58.594,39.062,-57.129,-100.586,-415.527,0
1610546877.020,287.109,39.062,223.633,918.457,320.801,0
1610546877.024,250.977,41.016,313.477,850.586,766.113,0
1610546877.028,-130.371,42.480,84.473,-199.219,255.371,0
1610546877.032,-295.410,39.551,-225.098,-959.961,-446.777,0
1610546877.036,-107.422,36.133,-206.055,-301.270,-481.445,0
1610546877.039,254.883,37.598,170.410,794.434,238.281,0
1610546877.043,274.902,39.551,369.629,905.762,819.824,0
1610546877.047,-90.820,43.945,70.312,-98.633,361.816,0
1610546877.051,-291.504,46.387,-228.027,-972.168,-422.852,0
1610546877.055,-139.160,43.945,-126.465,-440.430,-516.602,0
1610546877.059,220.703,43.457,219.727,704.102,186.523,0
1610546877.063,312.500,39.551,300.293,978.027,793.945,0
1610546877.067,-36.133,40.527,72.754,69.336,444.336,0
1610546877.071,-298.340,40.527,-149.902,-933.594,-320.801,0
1610546877.075,-172.852,33.691,-125.977,-591.797,-508.301,0
1610546877.079,183.594,23.926,60.547,579.102,78.125,0
1610546877.083,325.684,26.367,213.379,-981.934,731.934,0
1610546877.086,9.277,36.133,169.434,192.871,544.922,0
1610546877.090,-291.016,36.133,-109.375,-868.652,-206.055,0
1610546877.094,-221.680,30.762,-211.914,-705.566,-562.988,0
1610546877.098,129.883,29.785,79.590,444.824,-31.738,0
1610546877.102,339.355,31.738,339.355,-937.988,744.141,0
1610546877.119,66.895,33.203,199.707,358.398,659.180,0
1610546877.123,-256.836,38.086,-133.301,-768.555,-143.066,0
1610546877.127,-234.375,44.922,-228.027,-779.785,-601.562,0
1610546877.131,80.078,41.992,82.520,312.012,-107.422,0
1610546877.135,336.426,33.691,335.449,-932.617,722.656,0
1610546877.139,119.141,41.504,157.227,499.512,719.727,0
1610546877.143,-242.188,46.875,-139.160,-678.711,-67.871,0
1610546877.146,-264.160,47.363,-162.109,-850.098,-567.871,0
1610546877.150,46.875,44.434,30.762,185.059,-194.824,0
1610546877.154,349.121,41.016,213.867,-959.961,590.332,0
1610546877.158,183.105,47.363,267.578,624.023,776.367,0
1610546877.162,-196.289,49.316,-7.812,-556.152,73.242,0
1610546877.162,-276.855,43.945,-244.629,-913.574,-573.730,0
1610546877.166,-2.930,41.016,-28.320,38.086,-295.410,0
1610546877.170,336.914,40.527,290.527,984.863,565.918,0
1610546877.174,227.539,46.387,277.832,731.445,849.121,0
1610546877.178,-166.504,49.805,-26.855,-423.340,196.777,0
1610546877.182,-278.320,47.363,-261.719,-963.379,-502.441,0
1610546877.186,-39.551,44.434,-97.168,-117.188,-381.348,0
1610546877.189,296.875,43.457,255.371,903.809,422.852,0
1610546877.193,247.070,46.387,248.047,819.824,823.730,0
1610546877.197,-132.812,50.293,-81.543,-276.855,238.281,0
1610546877.201,-296.387,50.781,-196.289,-982.910,-500.000,0
1610546877.205,-94.727,46.387,-35.645,-246.582,-453.613,0
1610546877.208,263.184,43.457,235.840,837.402,336.426,0
1610546877.212,273.926,47.852,339.355,893.066,848.145,0
1610546877.216,-94.727,48.828,118.652,-115.234,392.578,0
1610546877.220,-286.621,47.852,-196.777,-959.961,-421.875,0
1610546877.224,-123.047,46.387,-138.672,-410.645,-514.160,0
1610546877.228,227.539,41.992,154.297,718.262,234.863,0
1610546877.232,301.270,40.527,251.953,933.105,805.664,0
1610546877.235,-47.852,44.922,56.641,-18.066,446.289,0
1610546877.239,-293.457,48.340,-301.270,-952.637,-389.648,0
1610546877.243,-175.781,49.805,-206.543,-545.898,-593.750,0
1610546877.247,180.664,46.875,211.914,616.699,125.488,0
1610546877.251,322.266,43.945,319.336,-975.098,807.129,0
1610546877.253,-14.648,48.340,161.133,196.777,597.656,0
1610546877.257,-304.688,46.875,-135.742,-846.191,-239.258,0
1610546877.261,-216.309,39.062,-155.762,-608.887,-553.711,0
1610546877.265,133.301,32.715,114.258,520.508,73.242,0
1610546877.269,341.309,32.227,281.738,-946.289,800.293,0
1610546877.273,55.176,38.086,133.301,309.082,660.645,0
1610546877.277,-268.555,41.992,-156.250,-798.828,-147.461,0
1610546877.280,-221.680,35.645,-266.113,-781.738,-602.051,0
1610546877.284,100.586,29.297,-13.184,305.176,-121.582,0
1610546877.288,339.355,33.691,334.473,-967.773,688.965,0
1610546877.292,109.863,42.969,211.914,413.574,684.570,0
1610546877.296,-242.676,46.387,-161.133,-720.215,-132.812,0
1610546877.298,-250.000,43.457,-197.754,-844.238,-632.324,0
1610546877.302,59.082,42.969,87.402,196.289,-184.570,0
1610546877.306,344.238,41.504,296.387,-951.172,635.742,0
1610546877.310,156.250,42.969,217.285,606.445,746.582,0
1610546877.314,-221.680,47.363,-69.824,-567.871,-2.441,0
1610546877.318,-271.973,46.875,-228.516,-870.605,-593.750,0
1610546877.322,9.766,39.551,-23.926,99.121,-272.949,0
1610546877.325,333.984,35.645,213.379,-994.141,568.848,0
1610546877.329,205.078,44.922,252.441,689.941,810.547,0
1610546877.333,-187.988,48.340,40.527,-465.332,145.508,0
1610546877.337,-289.062,43.945,-209.961,-964.355,-558.105,0
1610546877.341,-37.598,41.504,-48.828,-127.441,-382.324,0
1610546877.343,292.969,36.621,296.875,900.879,488.281,0
1610546877.347,232.910,39.062,295.410,771.484,848.145,0
1610546877.351,-143.066,44.922,-41.992,-331.543,217.285,0
1610546877.355,-290.527,46.387,-234.863,-973.145,-541.992,0
1610546877.359,-83.984,46.387,-40.527,-217.773,-459.961,0
1610546877.363,261.230,39.551,220.215,852.539,355.957,0
1610546877.367,268.555,35.156,217.773,870.605,809.082,0
1610546877.370,-108.398,40.039,-5.859,-163.086,297.852,0
1610546877.374,-314.941,41.504,-163.574,-972.168,-481.445,0
1610546877.378,-138.672,38.574,-88.379,-362.305,-535.156,0
1610546877.382,229.980,36.133,214.844,759.277,253.906,0
1610546877.386,294.922,31.250,343.750,934.570,854.004,0
1610546877.388,-62.012,33.691,135.742,-16.113,467.773,0
1610546877.392,-298.828,34.668,-179.688,-938.477,-374.023,0
1610546877.396,-165.527,32.715,-161.133,-507.812,-554.688,0
1610546877.400,186.035,26.855,170.898,642.578,180.176,0
1610546877.404,309.082,20.996,290.527,996.582,820.801,0
1610546877.408,-24.902,26.367,104.980,140.625,540.039,0
1610546877.412,-296.875,33.203,-269.043,-879.395,-318.359,0
1610546877.415,-194.336,38.086,-244.141,-612.305,-632.324,0
1610546877.419,142.090,37.109,190.918,537.109,51.758,0
1610546877.423,323.730,34.180,307.617,-942.383,777.344,0
1610546877.427,33.691,41.992,150.879,312.988,617.188,0
1610546877.431,-277.344,46.875,-104.492,-798.340,-182.617,0
1610546877.448,-223.633,42.969,-172.363,-715.820,-587.402,0
1610546877.452,100.586,35.645,55.664,387.695,-55.176,0
1610546877.456,332.031,34.180,275.879,-947.266,738.281,0
1610546877.460,91.309,40.527,217.773,413.086,725.098,0
1610546877.464,-252.441,40.039,-112.793,-740.234,-104.980,0
1610546877.468,-251.953,36.621,-302.734,-812.500,-645.020,0
1610546877.472,54.199,33.691,-24.414,234.863,-168.945,0
1610546877.475,317.383,31.738,301.758,-965.820,677.246,0
1610546877.479,119.141,36.621,268.555,582.520,784.668,0
1610546877.483,-235.840,35.645,-111.816,-600.586,12.207,0
1610546877.487,-277.344,33.203,-285.156,-885.742,-609.375,0
1610546877.491,0.000,34.668,41.992,85.938,-247.070,0
1610546877.493,311.035,24.414,298.828,993.164,610.840,0
1610546877.497,171.875,23.438,257.812,683.105,833.008,0
1610546877.501,-212.891,32.227,-24.414,-489.258,137.207,0
1610546877.505,-308.594,31.738,-217.773,-943.848,-550.781,0
1610546877.509,-49.316,27.832,-60.059,-66.406,-340.332,0
1610546877.513,290.039,27.344,192.871,924.805,483.398,0
1610546877.517,215.332,34.180,227.051,765.625,822.266,0
1610546877.520,-164.551,41.504,13.184,-370.117,232.910,0
1610546877.524,-293.457,41.992,-231.934,-997.559,-527.344,0
1610546877.528,-63.965,36.621,-178.223,-242.676,-454.102,0
1610546877.532,274.902,34.180,192.383,833.008,396.484,0
1610546877.536,247.559,41.016,346.191,854.980,863.770,0
1610546877.537,-122.070,42.969,25.879,-201.660,310.059,0
1610546877.541,-306.641,39.551,-248.535,-964.355,-487.305,0
1610546877.545,-126.953,41.992,-59.570,-332.520,-474.609,0
1610546877.549,234.863,40.527,240.723,760.742,324.219,0
1610546877.553,285.156,36.621,301.270,929.199,873.535,0
1610546877.557,-76.172,42.969,72.754,-41.504,457.031,0
1610546877.561,-304.688,46.875,-194.336,-954.102,-352.539,0
1610546877.564,-157.227,41.504,-124.512,-493.652,-507.812,0
1610546877.568,201.172,39.551,124.023,652.344,209.473,0
1610546877.572,306.641,41.504,243.652,984.375,846.680,0
1610546877.576,-31.738,45.898,161.133,82.520,547.363,0
1610546877.580,-297.852,45.898,-152.832,-920.898,-303.223,0
1610546877.584,-193.359,44.434,-169.922,-627.441,-557.617,0
1610546877.588,158.203,41.016,126.953,527.832,111.328,0
1610546877.592,314.941,37.598,311.035,-964.355,818.359,0
1610546877.596,20.020,43.945,154.297,248.047,630.371,0
1610546877.600,-272.461,47.852,-161.621,-832.520,-197.266,0
1610546877.604,-208.496,42.480,-210.449,-723.633,-570.801,0
1610546877.608,130.859,39.551,89.844,411.621,4.883,0
1610546877.611,346.680,42.480,322.266,-926.270,797.363,0
1610546877.615,86.914,44.434,112.305,393.555,693.359,0
1610546877.619,-260.254,44.922,-132.324,-758.789,-123.535,0
1610546877.623,-239.258,43.945,-138.184,-806.152,-571.289,0
1610546877.627,80.566,38.086,51.758,291.992,-106.445,0
1610546877.627,327.637,37.598,301.758,-929.688,730.469,0
1610546877.631,113.281,43.945,248.535,526.855,779.297,0
1610546877.635,-240.234,44.434,-83.008,-643.066,-33.691,0
1610546877.639,-272.461,37.598,-256.348,-885.742,-619.141,0
1610546877.643,18.066,34.180,-35.645,122.070,-247.559,0
1610546877.647,327.148,37.598,243.164,-973.145,598.145,0
1610546877.651,181.641,45.898,252.930,650.879,796.387,0
1610546877.654,-199.219,50.781,-73.242,-520.020,81.543,0
1610546877.658,-272.949,47.852,-315.918,-943.848,-595.703,0
1610546877.662,-18.066,41.992,6.836,-31.738,-304.688,0
1610546877.666,302.734,36.133,310.547,962.402,550.781,0
1610546877.670,222.656,40.527,271.973,743.652,836.914,0
1610546877.672,-162.598,45.898,18.555,-396.973,205.566,0
1610546877.676,-297.852,47.852,-185.059,-987.793,-515.137,0
1610546877.680,-54.688,42.969,-59.570,-186.523,-387.207,0
1610546877.684,292.480,38.086,218.262,878.906,438.965,0
1610546877.688,248.535,45.410,306.641,828.613,877.441,0
1610546877.692,-116.699,51.270,24.902,-247.070,311.523,0
1610546877.696,-283.691,51.758,-232.422,-983.887,-471.191,0
1610546877.699,-94.238,50.293,-183.594,-311.035,-470.703,0
1610546877.703,267.090,45.410,145.508,792.480,309.570,0
1610546877.707,297.363,47.363,365.234,901.367,880.371,0
1610546877.711,-66.895,52.246,73.242,-101.562,416.504,0
1610546877.715,-281.738,49.805,-229.980,-985.352,-427.734,0
1610546877.717,-139.160,44.922,-111.328,-468.750,-528.320,0
1610546877.721,211.914,40.527,226.562,692.383,269.043,0
1610546877.725,307.617,38.086,305.664,967.285,885.254,0
1610546877.729,-41.016,44.434,99.609,51.270,518.555,0
1610546877.733,-305.176,46.387,-168.945,-933.105,-328.125,0
1610546877.737,-187.988,45.410,-172.363,-580.566,-572.754,0
1610546877.741,168.457,41.504,84.961,591.797,123.047,0
1610546877.744,311.523,38.086,255.859,-978.027,828.125,0
1610546877.748,-2.441,43.945,217.285,200.684,635.742,0
1610546877.752,-290.039,43.945,-108.887,-863.770,-191.406,0
1610546877.756,-218.750,40.527,-219.238,-693.359,-576.172,0
1610546877.760,119.629,37.598,100.098,448.242,14.648,0
1610546877.763,332.031,36.133,340.820,-938.965,798.340,0
1610546877.767,71.289,41.992,209.473,360.352,716.309,0
1610546877.771,-257.812,44.434,-135.742,-771.973,-124.023,0
1610546877.775,-235.840,44.434,-200.195,-780.273,-595.703,0
1610546877.779,83.496,44.434,91.797,308.594,-80.078,0
1610546877.783,339.844,35.156,297.852,-938.965,767.578,0
1610546877.787,116.211,36.621,111.816,468.750,760.254,0
1610546877.790,-244.629,43.945,-118.652,-698.242,-26.367,0
1610546877.794,-259.277,39.062,-153.320,-871.582,-545.898,0
1610546877.798,48.340,36.133,0.488,148.926,-166.504,0
1610546877.802,332.520,37.598,291.504,-966.797,706.543,0
1610546877.806,153.809,42.480,322.754,632.812,915.527,0
1610546877.809,-216.797,44.434,-18.066,-541.504,175.293,0
1610546877.813,-276.367,40.039,-262.207,-891.113,-490.723,0
1610546877.817,4.395,39.062,-51.758,69.824,-222.656,0
1610546877.821,321.289,39.062,295.410,-995.117,633.301,0
1610546877.825,201.660,38.574,301.758,705.078,925.781,0
1610546877.829,-180.176,38.574,-80.566,-459.961,228.027,0
1610546877.833,-288.086,39.062,-303.711,-991.699,-524.414,0
1610546877.836,-46.387,37.109,-35.645,-182.617,-356.934,0
1610546877.840,295.898,34.668,283.691,882.324,516.602,0
1610546877.844,254.883,38.574,251.465,770.020,884.277,0
1610546877.848,-128.906,44.434,-19.531,-362.793,261.230,0
1610546877.852,-280.762,44.434,-180.664,-1000.000,-489.746,0
1610546877.867,-75.195,42.480,-65.918,-324.707,-434.082,0
1610546877.871,273.926,41.504,182.129,795.410,353.027,0
1610546877.875,282.715,43.457,297.363,877.930,878.418,0
1610546877.879,-97.168,46.875,80.566,-159.180,435.547,0
1610546877.883,-300.293,41.992,-239.258,-978.516,-415.039,0
1610546877.887,-138.184,36.621,-178.711,-405.762,-505.371,0
1610546877.891,210.449,38.574,160.156,732.422,280.762,0
1610546877.894,295.410,36.621,359.863,945.312,901.367,0
1610546877.898,-41.016,39.062,135.254,7.324,541.016,0
1610546877.902,-290.039,45.898,-213.379,-932.129,-307.617,0
1610546877.906,-165.527,44.434,-121.094,-557.129,-512.695,0
1610546877.910,193.359,39.551,206.543,604.492,194.824,0
1610546877.913,334.473,39.062,324.219,991.699,883.301,0
1610546877.917,11.719,44.922,154.297,132.324,625.488,0
1610546877.921,-288.574,47.363,-123.047,-883.301,-231.934,0
1610546877.925,-206.055,42.969,-158.203,-670.410,-567.871,0
1610546877.929,147.461,41.016,86.914,481.445,32.715,0
1610546877.933,332.520,40.527,248.535,-958.008,769.043,0
1610546877.937,41.504,44.922,128.418,305.176,634.766,0
1610546877.940,-265.625,48.340,-140.137,-789.062,-194.824,0
1610546877.944,-218.262,44.922,-223.145,-729.980,-600.586,0
1610546877.948,90.820,42.969,14.160,381.836,-66.895,0
1610546877.952,337.891,46.875,326.172,-938.477,727.051,0
1610546877.956,117.188,49.805,284.668,465.820,757.812,0
1610546877.958,-244.141,47.852,-71.289,-684.082,-47.363,0
1610546877.962,-253.418,48.828,-184.082,-836.914,-587.891,0
1610546877.966,58.105,44.434,75.195,215.820,-145.020,0
1610546877.970,339.844,38.086,285.156,-957.520,671.875,0
1610546877.974,155.273,43.457,210.938,586.914,785.156,0
1610546877.978,-219.238,42.480,-84.473,-575.195,49.805,0
1610546877.982,-274.902,41.016,-249.023,-892.578,-564.941,0
1610546877.985,10.254,42.969,-54.688,86.426,-274.414,0
1610546877.989,324.219,38.086,185.059,-991.699,579.102,0
1610546877.993,189.941,42.480,218.262,699.707,837.402,0
1610546877.997,-196.289,49.316,25.391,-443.359,167.969,0
1610546878.001,-290.527,46.387,-230.469,-935.059,-535.645,0
1610546878.002,-34.668,42.480,-97.656,-63.965,-349.609,0
1610546878.006,301.270,38.574,263.184,933.594,515.137,0
1610546878.010,235.352,39.551,301.758,785.645,907.227,0
1610546878.014,-138.672,43.457,-7.324,-321.777,310.547,0
1610546878.018,-285.645,44.434,-227.051,-982.910,-447.266,0
1610546878.022,-65.430,43.945,-127.441,-237.305,-394.531,0
1610546878.026,289.062,39.551,193.359,837.891,423.340,0
1610546878.029,270.996,39.062,231.934,871.582,894.531,0
1610546878.033,-107.910,41.992,-41.504,-155.762,364.258,0
1610546878.037,-305.176,43.945,-176.270,-950.195,-411.133,0
1610546878.041,-127.441,40.527,-88.867,-343.750,-460.449,0
1610546878.045,235.840,35.156,187.500,759.766,324.707,0
1610546878.049,305.664,36.621,287.109,944.824,904.785,0
1610546878.053,-49.805,42.969,94.727,-1.465,482.910,0
1610546878.057,-291.992,45.410,-182.129,-923.828,-353.027,0
1610546878.061,-161.621,41.992,-188.477,-479.980,-549.805,0
1610546878.065,187.500,37.598,150.879,650.391,176.270,0
1610546878.069,321.289,38.086,310.547,999.512,860.840,0
1610546878.073,-16.602,34.180,103.516,137.207,572.754,0
1610546878.076,-295.410,34.668,-229.004,-891.602,-279.297,0
1610546878.080,-193.359,39.062,-199.707,-652.832,-586.426,0
1610546878.084,150.879,35.645,163.574,492.188,68.359,0
1610546878.088,328.613,33.691,301.270,-961.426,812.012,0
1610546878.092,40.039,40.527,128.418,279.297,627.930,0
1610546878.092,-270.020,44.434,-136.719,-817.871,-207.031,0
1610546878.096,-213.867,42.969,-178.223,-703.613,-597.168,0
1610546878.100,118.164,41.992,55.664,416.016,-51.758,0
1610546878.104,350.586,41.504,264.648,-925.293,735.352,0
1610546878.108,112.305,46.387,222.168,460.449,717.773,0
1610546878.112,-229.980,52.734,-96.191,-700.684,-92.285,0
1610546878.116,-229.004,53.223,-267.578,-788.086,-618.652,0
1610546878.119,77.637,49.316,-41.504,278.809,-161.133,0
1610546878.123,337.891,47.363,310.547,-940.918,695.312,0
1610546878.127,139.648,49.316,293.457,570.801,810.059,0
1610546878.131,-218.262,51.758,-62.012,-607.910,25.879,0
1610546878.135,-270.020,49.805,-223.633,-886.230,-596.680,0
1610546878.137,18.066,46.875,12.695,99.609,-244.141,0
1610546878.141,333.008,43.945,280.762,-985.840,625.488,0
1610546878.145,190.918,45.410,228.516,674.316,818.848,0
1610546878.149,-184.570,49.316,-45.898,-490.234,97.656,0
1610546878.153,-279.785,47.363,-215.332,-935.059,-569.824,0
1610546878.157,-29.297,42.480,-58.594,-46.387,-338.379,0
1610546878.161,300.781,34.668,154.785,946.777,500.488,0
1610546878.164,223.633,41.992,222.168,772.461,825.195,0
1610546878.168,-152.832,53.711,55.176,-358.398,199.707,0
1610546878.172,-287.109,47.852,-228.516,-973.633,-559.082,0
1610546878.176,-61.035,42.969,-101.074,-191.406,-452.637,0
1610546878.180,279.785,42.969,260.254,864.258,395.508,0
1610546878.198,254.395,43.945,339.844,853.027,866.699,0
1610546878.202,-119.629,46.875,50.293,-199.707,321.289,0
1610546878.206,-306.152,47.363,-193.359,-964.844,-446.777,0
1610546878.210,-115.723,46.387,-80.566,-318.848,-467.773,0
1610546878.214,253.906,44.434,218.262,785.156,313.477,0
1610546878.218,302.246,39.551,241.699,926.270,860.352,0
1610546878.222,-65.918,44.922,14.160,-46.387,419.922,0
1610546878.225,-296.875,49.316,-145.020,-940.918,-379.395,0
1610546878.229,-147.461,41.992,-120.605,-453.613,-529.297,0
1610546878.233,206.055,38.086,71.289,682.129,172.363,0
1610546878.237,306.641,40.039,259.766,983.887,838.379,0
1610546878.241,-30.762,46.387,204.102,104.980,588.379,0
1610546878.243,-292.480,48.828,-119.629,-892.090,-251.465,0
1610546878.247,-187.012,44.922,-147.461,-581.055,-530.273,0
1610546878.251,167.969,41.504,149.414,572.266,119.141,0
1610546878.255,342.285,41.992,328.613,-965.332,829.102,0
1610546878.259,34.668,46.387,176.270,249.023,656.250,0
1610546878.263,-270.996,52.246,-168.945,-829.102,-189.941,0
1610546878.267,-198.242,48.828,-234.375,-707.520,-585.938,0
1610546878.270,126.953,41.016,72.266,424.316,-12.207,0
1610546878.274,342.773,38.086,290.527,-934.082,768.555,0
1610546878.278,86.426,41.992,113.770,393.555,689.453,0
1610546878.282,-260.742,45.410,-134.277,-750.000,-138.672,0
1610546878.286,-240.723,41.992,-174.316,-793.457,-604.492,0
1610546878.287,80.078,36.133,2.441,301.270,-124.023,0
1610546878.291,336.426,32.227,251.465,-930.176,692.871,0
1610546878.295,107.422,37.598,252.441,533.691,770.996,0
1610546878.299,-253.906,44.922,-57.617,-639.648,-6.348,0
1610546878.303,-260.742,44.922,-217.773,-867.188,-578.125,0
1610546878.307,34.180,41.504,-26.367,151.367,-210.938,0
1610546878.311,326.172,37.109,233.398,-970.215,610.352,0
1610546878.314,166.016,38.086,270.996,645.508,811.035,0
1610546878.318,-212.891,39.551,-83.008,-524.414,100.586,0
1610546878.322,-287.598,38.086,-304.688,-929.688,-579.590,0
1610546878.326,-19.043,40.039,3.906,4.883,-309.082,0
1610546878.330,312.500,39.062,282.227,975.098,547.363,0
1610546878.332,220.215,39.551,264.160,757.812,851.074,0
1610546878.336,-161.133,43.945,-1.465,-367.676,199.707,0
1610546878.340,-292.480,43.945,-226.074,-963.379,-534.180,0
1610546878.344,-67.383,39.551,-73.242,-153.809,-381.348,0
1610546878.348,279.297,33.691,191.895,892.090,437.500,0
1610546878.352,249.512,33.691,241.699,832.031,853.027,0
1610546878.356,-120.117,43.457,23.926,-236.328,308.105,0
1610546878.359,-286.621,46.875,-220.215,-969.238,-479.004,0
1610546878.363,-95.703,39.062,-188.477,-292.969,-494.141,0
1610546878.367,252.930,36.133,172.363,795.898,319.336,0
1610546878.371,276.855,40.039,347.656,907.227,881.836,0
1610546878.375,-96.680,42.969,70.801,-88.867,431.152,0
1610546878.377,-315.918,39.062,-208.984,-958.008,-387.207,0
1610546878.381,-150.391,33.691,-101.562,-411.621,-490.723,0
1610546878.385,211.914,31.738,207.520,714.355,281.250,0
1610546878.389,299.805,33.203,294.922,976.074,895.996,0
1610546878.393,-46.875,35.156,75.195,55.176,517.578,0
1610546878.397,-299.805,34.668,-219.238,-937.988,-333.984,0
1610546878.401,-187.500,35.156,-180.176,-583.496,-561.523,0
1610546878.404,174.805,31.738,60.059,571.289,97.168,0
1610546878.408,343.750,29.785,188.965,999.023,780.762,0
1610546878.412,18.066,40.527,145.020,134.277,555.664,0
1610546878.416,-287.598,44.922,-111.328,-904.785,-269.043,0
1610546878.420,-196.777,41.016,-199.219,-705.078,-646.973,0
1610546878.422,143.066,37.109,74.219,434.570,-77.637,0
1610546878.426,333.984,32.227,316.895,-936.035,728.027,0
1610546878.430,69.336,36.621,210.938,364.258,670.410,0
1610546878.434,-256.348,40.039,-117.188,-762.695,-158.203,0
1610546878.438,-231.934,39.551,-173.828,-719.727,-603.516,0
1610546878.442,93.750,34.668,68.359,374.512,-83.008,0
1610546878.446,345.215,33.203,259.766,-920.898,718.262,0
1610546878.449,117.188,37.598,142.578,489.746,743.164,0
1610546878.453,-241.699,38.086,-143.555,-688.965,-65.918,0
1610546878.457,-260.742,38.086,-170.898,-858.887,-610.840,0
1610546878.461,49.316,38.086,22.949,160.645,-209.473,0
1610546878.465,340.332,36.133,246.094,-966.797,626.465,0
1610546878.467,168.945,40.527,266.602,601.074,781.250,0
1610546878.471,-204.102,41.504,-33.203,-581.055,26.367,0
1610546878.475,-268.066,39.062,-237.793,-904.785,-620.605,0
1610546878.479,2.930,40.039,-31.250,41.016,-328.125,0
1610546878.483,322.754,39.551,272.949,986.816,542.969,0
1610546878.487,211.914,39.551,250.488,729.980,824.219,0
1610546878.491,-172.852,41.992,-84.473,-405.762,143.555,0
1610546878.494,-287.109,41.992,-288.574,-934.570,-581.543,0
1610546878.498,-53.711,40.527,-40.527,-104.492,-417.969,0
1610546878.502,295.410,37.109,255.859,915.527,425.293,0
1610546878.506,242.676,38.574,275.391,807.617,829.590,0
1610546878.510,-145.508,47.852,33.203,-278.320,280.273,0
1610546878.514,-301.270,47.363,-184.570,-963.867,-499.512,0
1610546878.518,-91.797,37.109,-69.824,-262.207,-471.680,0
1610546878.522,269.043,33.691,196.777,826.172,352.051,0
1610546878.526,279.297,37.598,298.828,874.512,852.539,0
1610546878.530,-95.703,41.504,109.375,-125.488,381.836,0
1610546878.534,-303.711,40.527,-191.406,-917.480,-416.504,0
1610546878.538,-137.695,37.598,-210.449,-371.582,-529.785,0
1610546878.541,230.957,37.109,145.508,734.863,219.727,0
1610546878.545,303.223,38.086,390.137,949.219,889.160,0
1610546878.549,-50.293,43.945,127.930,18.066,520.996,0
1610546878.553,-296.387,44.434,-182.129,-914.551,-330.566,0
1610546878.557,-174.316,38.086,-115.234,-526.855,-512.695,0
1610546878.574,186.523,36.133,168.457,618.652,182.129,0
1610546878.578,320.312,36.621,285.156,-998.047,856.934,0
1610546878.582,5.371,39.551,97.656,164.551,582.520,0
1610546878.586,-282.227,45.410,-128.906,-852.051,-238.770,0
1610546878.590,-211.426,38.574,-150.879,-630.371,-564.941,0
1610546878.594,143.066,29.785,19.043,508.301,27.832,0
1610546878.598,341.309,31.250,210.938,-954.102,793.457,0
1610546878.601,54.199,41.504,193.359,312.988,673.340,0
1610546878.605,-265.137,46.875,-91.797,-787.598,-153.809,0
1610546878.609,-233.887,39.551,-250.488,-731.934,-605.469,0
1610546878.613,90.820,30.762,-4.883,379.883,-100.586,0
1610546878.617,333.496,30.273,314.453,-935.547,751.465,0
1610546878.617,92.773,36.621,208.496,462.891,757.324,0
1610546878.621,-252.441,38.086,-122.559,-686.523,-67.871,0
1610546878.625,-251.465,35.645,-219.238,-822.266,-594.727,0
1610546878.629,50.293,37.598,23.926,236.816,-164.551,0
1610546878.633,328.125,34.180,257.812,-945.312,674.805,0
1610546878.637,136.719,32.227,193.359,600.098,808.594,0
1610546878.641,-229.004,34.180,-134.766,-569.336,28.809,0
1610546878.644,-277.832,34.668,-277.832,-899.902,-613.281,0
1610546878.648,0.977,29.785,-33.203,58.594,-269.531,0
1610546878.652,318.359,24.414,149.414,991.699,594.238,0
1610546878.656,187.988,29.785,173.340,679.688,834.473,0
1610546878.660,-195.801,33.203,12.695,-470.215,166.504,0
1610546878.662,-292.480,30.273,-231.445,-936.035,-525.391,0
1610546878.666,-47.363,29.785,-82.520,-73.242,-338.379,0
1610546878.670,289.062,24.414,225.586,926.270,503.418,0
1610546878.674,221.680,26.367,271.484,791.992,887.207,0
1610546878.678,-162.598,35.156,-17.090,-312.012,286.621,0
1610546878.682,-301.270,37.598,-289.551,-954.590,-496.094,0
1610546878.686,-88.379,31.738,-116.211,-208.496,-412.598,0
1610546878.689,256.836,26.855,195.801,843.262,410.645,0
1610546878.693,259.766,31.738,184.570,865.723,855.957,0
1610546878.697,-116.211,35.645,-53.223,-170.898,344.238,0
1610546878.701,-314.941,38.574,-185.059,-974.121,-437.012,0
1610546878.705,-140.625,37.598,-63.965,-373.535,-463.867,0
1610546878.707,223.145,32.715,190.430,747.070,313.965,0
1610546878.711,286.621,30.762,292.480,933.105,870.117,0
1610546878.715,-73.730,36.133,104.004,-20.996,480.469,0
1610546878.719,-308.594,36.133,-178.711,-935.547,-334.473,0
1610546878.723,-168.945,29.785,-162.598,-502.441,-504.395,0
1610546878.727,180.664,26.855,93.750,636.719,205.078,0
1610546878.731,303.223,28.809,288.086,991.699,886.230,0
1610546878.734,-26.855,30.762,146.484,126.953,615.234,0
1610546878.738,-308.594,28.809,-261.719,-879.883,-277.832,0
1610546878.742,-214.844,30.273,-202.637,-619.141,-565.430,0
1610546878.746,139.160,25.879,138.672,516.602,119.141,0
1610546878.750,316.895,21.973,227.051,-955.078,843.262,0
1610546878.752,17.090,28.809,91.309,273.438,657.227,0
1610546878.756,-294.434,32.715,-143.555,-829.102,-179.199,0
1610546878.760,-240.723,32.227,-170.410,-718.262,-542.969,0
1610546878.764,87.402,28.809,50.293,401.855,18.555,0
1610546878.768,317.871,23.926,259.766,-933.105,813.965,0
1610546878.772,79.102,30.762,172.852,437.988,804.688,0
1610546878.776,-266.113,37.598,-119.629,-715.820,-19.043,0
1610546878.779,-247.070,37.598,-258.789,-794.922,-540.527,0
1610546878.783,74.707,31.738,-52.246,271.484,-103.027,0
1610546878.787,330.566,31.738,291.504,-941.895,733.887,0
1610546878.791,136.230,39.551,239.258,576.172,827.637,0
1610546878.795,-225.098,42.969,-94.727,-601.562,43.945,0
1610546878.799,-273.438,44.434,-213.867,-871.094,-543.457,0
1610546878.803,12.207,41.504,-4.395,120.605,-185.547,0
1610546878.807,325.684,39.062,220.215,-983.887,655.273,0
1610546878.811,192.871,44.434,218.750,677.734,872.559,0
1610546878.815,-190.430,49.805,-48.340,-487.305,151.855,0
1610546878.819,-275.391,48.340,-254.395,-934.570,-545.410,0
1610546878.823,-18.066,40.527,-86.426,-42.969,-317.383,0
1610546878.826,317.383,39.062,138.184,944.824,509.766,2
1610546878.830,245.605,49.805,224.609,763.672,854.980,0
1610546878.834,-135.742,56.152,57.129,-349.609,251.953,0
1610546878.838,-272.461,53.711,-203.125,-951.172,-481.445,0
1610546878.842,-57.129,45.898,-80.078,-185.059,-375.000,0
1610546878.842,281.738,41.016,242.188,868.164,467.773,0
1610546878.846,261.230,45.410,305.664,854.492,935.547,0
1610546878.850,-113.281,49.805,30.762,-180.176,400.879,0
1610546878.854,-299.316,49.316,-224.121,-939.941,-408.203,0
1610546878.858,-113.281,44.434,-109.375,-307.129,-425.293,0
1610546878.862,246.582,38.574,160.156,791.504,365.234,0
1610546878.866,295.898,39.062,220.703,918.945,909.668,0
1610546878.869,-67.383,43.457,-18.555,-50.293,467.285,0
1610546878.873,-299.805,48.828,-184.570,-954.590,-346.191,0
1610546878.877,-149.414,48.340,-87.402,-470.703,-463.379,0
1610546878.881,206.543,42.480,174.316,685.547,279.785,0
1610546878.885,312.500,39.551,328.125,985.352,937.012,0
1610546878.888,-21.484,41.504,143.066,108.887,602.051,0
1610546878.892,-283.691,41.504,-164.551,-885.742,-247.559,0
1610546878.896,-179.688,39.551,-185.059,-584.473,-523.926,0
1610546878.900,163.574,34.180,113.281,565.918,124.023,0
1610546878.904,320.801,26.855,299.805,-973.145,861.816,0
1610546878.908,22.461,29.785,125.488,243.652,669.922,0
1610546878.912,-272.949,32.227,-243.164,-829.590,-194.824,0
1610546878.915,-217.285,30.762,-250.488,-713.379,-572.266,0
1610546878.919,105.957,30.273,146.973,429.688,58.594,0
1610546878.923,326.660,29.785,292.969,-937.012,833.496,0
1610546878.927,69.336,31.250,138.672,386.719,754.883,0
1610546878.931,-275.879,35.156,-94.238,-748.047,-40.527,0
1610546878.948,-254.883,33.691,-193.359,-794.434,-540.039,0
1610546878.952,64.453,24.902,20.996,294.434,-63.477,0
1610546878.956,322.266,20.020,255.859,-935.059,772.949,0
1610546878.960,110.352,24.414,218.750,530.273,831.055,0
1610546878.964,-248.047,26.855,-68.359,-639.648,46.875,0
1610546878.968,-267.090,27.344,-286.133,-867.188,-549.316,0
1610546878.972,19.531,26.367,-63.965,127.441,-179.688,0
1610546878.975,300.293,24.414,293.945,-999.023,676.270,0
1610546878.979,152.344,27.344,251.953,586.914,838.379,0
1610546878.983,-216.797,31.250,-104.980,-571.289,86.914,0
1610546878.987,-288.574,31.738,-297.363,-939.453,-600.098,0
1610546878.991,-17.090,32.715,-39.062,-39.062,-340.332,0
1610546878.993,313.477,33.203,259.766,946.289,532.227,0
1610546878.997,219.238,34.668,230.469,756.836,839.844,0
1610546879.001,-164.062,38.086,-32.227,-373.047,180.176,0
1610546879.005,-288.574,37.109,-204.102,-938.477,-542.480,0
1610546879.009,-54.688,36.621,-66.406,-106.934,-400.391,0
1610546879.013,291.016,34.668,189.453,907.715,440.918,0
1610546879.017,254.883,39.062,232.910,835.449,857.910,0
1610546879.020,-121.094,49.805,29.297,-253.906,297.852,0
1610546879.024,-288.574,43.457,-238.770,-989.258,-508.789,0
1610546879.028,-89.355,37.109,-198.242,-305.664,-501.953,0
1610546879.032,260.254,37.598,160.645,783.203,314.941,0
1610546879.036,285.156,40.039,338.867,891.602,884.766,0
1610546879.038,-75.684,41.504,79.590,-120.605,454.102,0
1610546879.042,-287.109,42.969,-220.703,-976.562,-385.254,0
1610546879.046,-144.043,42.969,-127.441,-451.172,-512.695,0
1610546879.050,211.914,37.109,181.641,687.012,244.141,0
1610546879.054,319.824,35.156,258.301,960.938,879.883,0
1610546879.058,-34.668,41.504,27.832,33.203,515.625,0
1610546879.062,-306.641,39.551,-194.336,-932.129,-330.566,0
1610546879.065,-185.059,38.574,-127.441,-559.082,-557.129,0
1610546879.069,168.945,35.645,88.867,588.379,130.859,0
1610546879.073,315.918,29.785,217.773,-983.887,833.984,0
1610546879.077,6.836,36.133,193.848,177.734,640.625,0
1610546879.081,-279.785,39.551,-117.188,-868.652,-214.844,0
1610546879.084,-202.148,37.109,-180.176,-671.387,-569.336,0
1610546879.088,135.254,35.156,123.535,459.473,66.406,0
1610546879.092,342.285,36.133,332.031,-946.777,849.121,0
1610546879.096,71.777,41.992,183.105,344.238,747.070,0
1610546879.100,-262.207,44.922,-149.902,-761.719,-97.168,0
1610546879.104,-231.934,45.410,-223.633,-736.816,-557.129,0
1610546879.108,90.820,45.898,59.082,354.980,-29.297,0
1610546879.111,338.867,44.922,317.871,-927.246,816.895,0
1610546879.115,119.141,47.852,113.281,493.164,790.039,0
1610546879.119,-242.188,49.316,-130.371,-667.480,6.836,0
1610546879.123,-266.602,44.434,-132.812,-832.520,-503.906,0
1610546879.127,51.758,37.109,12.207,184.082,-130.859,0
1610546879.127,338.867,34.180,267.090,-971.191,730.469,0
1610546879.131,149.902,39.062,252.930,593.262,888.184,0
1610546879.135,-215.820,41.016,-41.504,-572.266,152.832,0
1610546879.139,-275.391,39.551,-238.281,-907.227,-497.070,0
1610546879.143,-4.395,39.551,-51.758,24.902,-208.008,0
1610546879.147,316.406,37.109,214.355,975.098,652.832,0
1610546879.151,206.543,37.598,206.543,717.773,912.598,0
1610546879.154,-176.270,36.621,-96.191,-410.156,234.375,0
1610546879.158,-288.574,37.598,-309.570,-918.945,-474.609,0
1610546879.162,-47.363,40.527,-59.082,-97.656,-306.641,0
1610546879.166,288.086,35.156,250.000,905.273,533.691,0
1610546879.170,243.164,32.227,277.344,799.316,942.871,0
1610546879.172,-128.906,35.645,29.785,-288.574,362.793,0
1610546879.176,-293.457,39.551,-188.965,-966.309,-407.715,0
1610546879.180,-93.750,35.156,-95.703,-264.160,-370.117,0
1610546879.184,258.789,33.203,182.617,815.430,453.613,0
1610546879.188,273.926,38.086,290.527,876.953,966.797,0
1610546879.192,-95.215,42.480,47.852,-131.348,481.445,0
1610546879.196,-301.270,43.945,-217.285,-939.453,-338.867,0
1610546879.199,-140.625,37.109,-217.285,-385.254,-466.309,0
1610546879.203,228.027,36.133,116.699,723.633,303.223,0
1610546879.207,309.082,42.480,324.707,940.918,945.312,0
1610546879.211,-39.551,45.410,66.895,5.371,570.312,0
1610546879.215,-279.297,44.922,-220.703,-927.734,-289.551,0
1610546879.217,-166.504,41.016,-127.441,-531.738,-489.258,0
1610546879.221,195.312,34.668,166.992,612.305,224.609,0
1610546879.225,338.867,36.133,280.273,998.047,909.180,0
1610546879.229,7.812,41.992,109.375,162.598,633.301,0
1610546879.233,-276.855,42.480,-156.250,-851.562,-226.074,0
1610546879.237,-193.848,41.504,-198.730,-610.840,-547.363,0
1610546879.241,149.414,39.551,21.973,522.461,69.336,0
1610546879.244,342.285,41.504,211.914,-949.219,810.547,0
1610546879.248,56.152,45.898,194.824,335.449,693.359,0
1610546879.252,-257.812,46.875,-92.285,-754.395,-136.719,0
1610546879.256,-217.285,44.434,-198.730,-710.449,-577.148,0
1610546879.260,99.609,39.551,74.219,381.348,-32.715,0
1610546879.263,349.121,41.504,274.414,-933.594,770.996,0
1610546879.267,108.398,43.945,176.758,469.238,768.066,0
1610546879.271,-252.441,44.434,-116.699,-680.176,-30.273,0
1610546879.275,-237.305,44.922,-216.309,-814.453,-566.406,0
1610546879.279,71.289,43.457,82.520,235.352,-93.750,0
1610546879.283,339.844,40.039,279.785,-947.754,756.348,0
1610546879.287,164.551,40.527,117.676,596.680,809.082,0
1610546879.290,-207.520,46.387,-91.309,-558.594,45.898,0
1610546879.294,-260.254,46.387,-147.949,-856.934,-552.734,0
1610546879.298,23.438,42.480,-0.488,103.027,-243.652,0
1610546879.302,327.637,39.551,273.438,-999.023,645.508,0
1610546879.306,204.102,41.992,309.082,709.961,927.246,0
1610546879.323,-179.688,46.387,7.324,-437.500,218.262,0
1610546879.327,-282.715,47.363,-221.191,-919.922,-479.004,0
1610546879.331,-31.250,46.387,-46.387,-59.570,-261.230,0
1610546879.335,300.293,41.504,230.469,916.504,587.891,0
1610546879.339,229.004,40.039,262.207,789.062,946.777,0
1610546879.343,-146.484,42.969,-32.715,-290.527,323.730,0
1610546879.347,-282.227,44.922,-312.012,-917.969,-466.309,0
1610546879.350,-69.336,46.387,-64.453,-180.176,-363.770,0
1610546879.354,270.020,41.016,278.320,847.656,512.695,0
1610546879.358,266.113,41.504,306.641,875.000,995.605,0
1610546879.362,-100.098,45.898,64.453,-139.648,465.332,0
1610546879.366,-281.250,46.875,-165.039,-922.363,-337.891,0
1610546879.367,-106.445,44.922,-83.984,-337.891,-362.305,0
1610546879.371,246.094,40.039,160.156,738.770,413.086,0
1610546879.375,308.105,41.992,284.668,932.129,987.793,0
1610546879.379,-40.527,50.293,117.188,-11.719,599.609,0
1610546879.383,-270.508,49.805,-202.148,-920.410,-272.949,0
1610546879.387,-146.973,43.945,-214.844,-501.953,-473.633,0
1610546879.391,206.543,41.504,72.266,624.023,254.883,0
1610546879.394,339.355,43.945,280.273,989.746,939.941,0
1610546879.398,20.020,50.293,141.113,127.441,662.598,0
1610546879.402,-252.930,48.340,-266.602,-865.723,-229.492,0
1610546879.406,-169.434,46.387,-219.238,-594.727,-512.207,0
1610546879.410,166.504,43.945,171.387,524.902,158.203,0
1610546879.412,331.543,40.039,290.527,-952.637,878.418,0
1610546879.416,35.156,46.875,170.410,312.012,731.934,0
1610546879.420,-258.789,48.828,-63.477,-758.301,-64.453,0
1610546879.424,-209.961,43.457,-124.023,-681.641,-455.566,0
1610546879.428,111.816,39.551,79.102,404.785,77.637,0
1610546879.432,343.262,40.039,250.977,-931.152,861.816,0
1610546879.436,91.309,49.316,189.453,439.453,839.355,0
1610546879.439,-242.188,50.293,-45.410,-697.754,43.945,0
1610546879.443,-227.051,42.969,-227.539,-800.781,-474.609,0
1610546879.447,72.754,43.457,-64.941,251.953,-48.828,0
1610546879.451,342.285,43.457,287.109,-943.848,779.297,0
1610546879.455,146.484,44.922,268.555,575.684,891.602,0
1610546879.457,-209.473,47.852,-54.688,-573.730,126.953,0
1610546879.461,-248.535,46.387,-181.152,-853.516,-472.168,0
1610546879.465,27.344,44.434,40.039,123.535,-120.605,0
1610546879.469,329.590,42.969,259.766,-979.492,715.332,0
1610546879.473,185.059,46.387,217.773,671.387,921.387,0
1610546879.477,-189.941,49.805,-64.941,-482.422,199.219,0
1610546879.481,-276.855,44.922,-229.492,-934.570,-473.633,0
1610546879.484,-30.762,39.062,-39.551,-61.523,-228.027,0
1610546879.488,303.711,34.180,141.113,936.035,590.332,0
1610546879.492,230.469,41.504,208.984,760.742,931.152,0
1610546879.496,-155.762,48.340,44.434,-333.008,300.781,0
1610546879.500,-289.551,42.969,-207.031,-919.922,-440.918,0
1610546879.503,-73.242,38.086,-77.148,-146.973,-302.734,0
1610546879.507,271.973,35.156,214.355,885.254,502.930,0
1610546879.511,262.207,35.645,287.598,852.051,937.012,0
1610546879.515,-113.281,39.551,20.020,-169.434,395.020,0
1610546879.519,-288.574,43.945,-224.121,-927.734,-404.297,0
1610546879.523,-98.633,42.969,-124.023,-324.219,-446.777,0
1610546879.527,244.629,34.668,168.457,772.949,331.055,0
1610546879.530,288.574,33.691,242.188,904.297,888.672,0
1610546879.534,-59.570,40.039,-2.930,-78.613,424.316,0
1610546879.538,-284.668,43.945,-154.297,-968.262,-390.137,0
1610546879.542,-139.160,38.574,-106.934,-504.883,-537.109,0
1610546879.546,217.285,35.645,145.996,654.785,184.082,0
1610546879.547,317.383,39.062,289.062,975.098,825.195,0
1610546879.551,-18.066,41.016,145.508,103.027,524.414,0
1610546879.555,-275.879,41.016,-171.875,-863.281,-326.172,0
1610546879.559,-183.105,38.086,-211.914,-530.762,-618.652,0
1610546879.563,156.738,33.203,117.188,593.750,74.707,0
1610546879.567,327.148,32.227,256.836,-962.891,799.805,0
1610546879.571,25.391,33.691,129.395,284.180,611.328,0
1610546879.574,-272.461,32.715,-207.031,-794.434,-234.375,0
1610546879.578,-208.496,32.715,-244.629,-685.059,-619.141,0
1610546879.582,114.258,31.738,122.559,437.500,-13.672,0
1610546879.586,325.195,31.738,289.062,-942.383,788.574,0
1610546879.590,71.289,33.691,163.574,373.535,721.680,0
1610546879.592,-262.695,37.109,-102.539,-757.324,-117.188,0
1610546879.596,-241.699,38.574,-165.039,-792.480,-583.984,0
1610546879.600,66.406,39.062,45.898,281.738,-86.426,0
1610546879.604,333.008,37.109,272.461,-961.426,747.070,0
1610546879.608,132.324,38.086,230.469,508.789,798.340,0
1610546879.612,-228.516,42.480,-91.309,-640.625,-9.277,0
1610546879.616,-247.070,39.062,-277.832,-836.426,-610.352,0
1610546879.619,19.043,32.227,-100.098,166.504,-263.184,0
1610546879.623,300.781,32.715,275.879,-978.027,608.887,0
1610546879.627,175.293,38.086,286.621,658.203,792.969,0
1610546879.631,-193.848,39.551,-38.574,-498.047,59.082,0
1610546879.635,-281.738,35.156,-180.176,-886.719,-577.148,0
1610546879.637,-25.879,36.133,10.254,23.926,-315.430,0
1610546879.641,301.270,37.598,241.699,965.820,520.020,0
1610546879.645,217.285,41.016,224.609,750.488,812.500,0
1610546879.649,-157.227,49.316,3.906,-360.352,181.641,0
1610546879.653,-283.691,45.410,-177.734,-908.203,-524.414,0
1610546879.657,-58.594,36.621,-103.027,-110.352,-408.691,0
1610546879.661,275.879,35.645,94.727,894.531,393.555,0
1610546879.664,233.887,39.551,227.051,825.195,841.797,0
1610546879.668,-133.301,42.480,62.988,-235.352,306.152,0
1610546879.672,-288.086,42.480,-232.910,-929.199,-505.859,0
1610546879.676,-95.703,42.969,-125.977,-262.695,-486.816,0
1610546879.680,254.395,42.480,207.031,796.875,341.309,0
1610546879.682,284.668,42.969,312.012,897.461,884.277,0
1610546879.686,-74.707,42.969,63.477,-86.914,412.598,0
1610546879.690,-288.086,42.480,-209.473,-929.199,-432.129,0
1610546879.694,-136.230,39.551,-122.559,-415.039,-542.480,0
1610546879.698,217.285,34.180,184.570,701.172,229.492,0
1610546879.702,311.035,32.715,227.539,964.355,857.910,0
1610546879.706,-37.598,33.691,8.789,57.129,481.445,0
1610546879.709,-296.387,34.180,-140.137,-884.766,-365.723,0
1610546879.713,-180.176,31.738,-116.699,-518.555,-601.074,0
1610546879.717,163.574,31.250,112.793,600.586,77.148,0
1610546879.721,313.477,32.227,306.152,-977.539,814.453,0
1610546879.725,13.672,34.668,144.531,221.191,590.332,0
1610546879.742,-265.625,39.062,-166.016,-816.406,-267.090,0
1610546879.746,-202.637,36.621,-185.547,-627.930,-606.934,0
1610546879.750,122.559,34.668,90.820,484.863,3.906,0
1610546879.754,329.102,38.086,310.547,-946.289,780.273,0
1610546879.758,74.707,41.992,189.941,359.863,678.223,0
1610546879.762,-256.836,41.016,-152.344,-738.770,-178.223,0
1610546879.766,-237.305,38.574,-199.219,-734.863,-627.441,0
1610546879.769,83.984,35.645,94.238,334.473,-94.727,0
1610546879.773,327.637,32.715,268.555,-946.777,728.027,0
1610546879.777,117.676,34.668,118.164,481.445,725.586,0
1610546879.781,-231.445,37.598,-111.328,-671.387,-78.613,0
1610546879.785,-250.977,39.551,-173.340,-829.590,-623.047,0
1610546879.787,44.434,34.180,-6.348,193.848,-225.098,0
1610546879.791,316.895,28.809,252.930,-970.703,656.250,0
1610546879.795,147.949,35.156,230.469,625.000,825.195,0
1610546879.799,-209.473,37.598,-64.941,-526.855,54.199,0
1610546879.803,-270.996,34.668,-243.164,-875.977,-605.957,0
1610546879.807,-5.371,35.645,-88.867,59.082,-329.590,0
1610546879.811,301.758,37.598,252.441,980.469,560.059,0
1610546879.814,189.453,41.992,293.945,718.750,841.309,0
1610546879.818,-166.992,44.922,-40.039,-394.043,155.762,0
1610546879.822,-278.320,40.527,-263.672,-917.480,-561.523,0
1610546879.826,-51.270,40.039,-2.930,-98.145,-372.559,0
1610546879.830,289.062,37.598,264.648,904.297,486.328,0
1610546879.832,241.699,38.086,253.906,796.387,858.887,0
1610546879.836,-133.789,41.016,30.273,-279.297,268.066,0
1610546879.840,-302.734,39.062,-172.363,-954.102,-495.605,0
1610546879.844,-99.121,38.574,-82.031,-248.047,-455.078,0
1610546879.848,263.184,35.156,182.617,823.730,373.535,0
1610546879.852,275.879,35.645,247.070,878.418,882.324,0
1610546879.856,-97.168,40.527,20.508,-123.047,372.070,0
1610546879.859,-296.387,39.551,-174.316,-920.898,-424.805,0
1610546879.863,-127.441,39.551,-204.102,-368.652,-530.762,0
1610546879.867,227.539,38.574,77.148,726.562,210.449,0
1610546879.871,295.898,33.203,340.820,941.406,864.746,0
1610546879.875,-51.270,32.227,108.887,17.578,493.164,0
1610546879.877,-296.875,31.250,-182.129,-905.273,-361.816,0
1610546879.881,-179.688,31.738,-105.469,-512.207,-546.875,0
1610546879.885,172.852,31.738,146.484,614.258,151.855,0
1610546879.889,314.453,27.344,256.836,993.652,827.637,0
1610546879.893,-4.395,34.180,125.488,160.645,573.730,0
1610546879.897,-286.621,38.574,-149.414,-847.656,-255.371,0
1610546879.901,-193.359,33.203,-173.828,-623.535,-573.242,0
1610546879.904,147.461,32.715,35.156,493.652,15.625,0
1610546879.908,328.125,29.297,172.363,-966.797,763.184,0
1610546879.912,42.480,32.227,182.129,311.035,670.410,0
1610546879.916,-274.414,37.109,-63.477,-781.738,-151.855,0
1610546879.920,-232.422,34.668,-187.988,-727.051,-612.305,0
1610546879.922,88.867,31.250,79.590,361.816,-54.688,0
1610546879.926,324.219,29.297,305.176,-954.102,770.508,0
1610546879.930,92.285,34.180,202.148,461.914,744.629,0
1610546879.934,-251.465,36.621,-90.332,-688.477,-71.777,0
1610546879.938,-254.883,36.621,-210.449,-822.754,-623.535,0
1610546879.942,52.246,37.109,-3.906,206.055,-198.242,0
1610546879.946,329.590,34.180,240.234,-983.887,666.016,0
1610546879.949,143.066,36.621,149.902,564.453,794.922,0
1610546879.953,-212.891,43.945,-101.562,-595.215,20.996,0
1610546879.957,-255.371,42.969,-153.809,-877.441,-578.613,0
1610546879.961,12.695,38.574,-4.883,75.195,-239.746,0
1610546879.965,318.848,38.086,195.312,977.051,599.609,0
1610546879.969,193.848,44.922,247.070,709.473,857.422,0
1610546879.973,-180.176,48.340,7.812,-427.246,179.688,0
1610546879.977,-270.508,47.363,-242.676,-901.367,-531.738,0
1610546879.981,-26.367,41.992,-105.469,-70.312,-343.750,0
1610546879.985,291.992,36.133,204.590,901.855,500.488,0
1610546879.989,222.656,42.480,240.723,781.738,883.301,0
1610546879.993,-142.578,45.898,-37.598,-302.246,287.598,0
1610546879.996,-289.551,41.504,-255.859,-919.434,-477.051,0
1610546880.000,-83.984,43.457,-70.312,-201.660,-419.434,0
1610546880.004,257.324,41.992,229.492,836.426,426.758,0
1610546880.008,257.324,41.504,262.207,866.699,912.109,0
1610546880.012,-97.656,48.828,31.250,-153.320,372.559,0
1610546880.014,-287.109,49.805,-168.457,-922.363,-411.133,0
1610546880.018,-108.398,45.410,-121.582,-351.074,-461.914,0
1610546880.022,256.836,39.062,121.582,732.422,296.875,0
1610546880.026,303.711,44.922,275.879,925.781,893.066,0
1610546880.030,-53.223,52.734,95.703,-36.133,499.512,0
1610546880.034,-282.227,43.457,-210.449,-931.641,-354.492,0
1610546880.038,-157.227,39.551,-272.949,-512.207,-564.453,0
1610546880.041,185.547,40.527,28.320,612.305,153.809,0
1610546880.045,309.082,39.551,318.848,978.516,868.164,0
1610546880.049,-8.301,43.457,124.512,124.512,573.242,0
1610546880.053,-288.086,43.457,-174.805,-843.750,-284.180,0
1610546880.057,-196.777,38.574,-136.719,-559.570,-549.805,0
1610546880.073,145.020,36.621,133.789,557.617,101.562,0
1610546880.077,321.777,36.133,263.672,-952.637,827.637,0
1610546880.081,30.273,39.062,127.930,307.617,658.691,0
1610546880.085,-263.672,41.504,-119.629,-775.391,-171.387,0
1610546880.089,-205.078,45.898,-168.945,-705.078,-574.707,0
1610546880.093,110.840,43.945,5.371,402.344,-20.996,0
1610546880.097,337.891,37.109,162.598,-951.660,744.629,0
1610546880.100,90.332,44.434,194.824,372.070,702.148,0
1610546880.104,-245.605,47.852,-56.152,-744.629,-104.980,0
1610546880.108,-231.934,44.434,-250.977,-844.727,-655.273,0
1610546880.112,67.383,42.480,-2.441,195.801,-207.520,0
1610546880.116,325.684,37.598,309.082,-977.051,666.992,0
1610546880.117,134.277,39.551,233.887,541.992,766.602,0
1610546880.121,-217.773,41.992,-47.363,-588.867,11.719,0
1610546880.125,-252.930,37.109,-202.637,-833.496,-596.191,0
1610546880.129,23.438,36.621,-9.766,164.062,-272.461,0
1610546880.133,312.500,37.598,283.203,-968.750,612.793,0
1610546880.137,177.734,40.527,236.816,698.730,845.215,0
1610546880.141,-185.547,43.457,-45.410,-429.688,124.023,0
1610546880.144,-268.555,43.457,-196.777,-886.230,-558.594,0
1610546880.148,-17.578,41.016,-22.461,-8.789,-329.590,0
1610546880.152,292.969,38.574,156.250,953.125,489.746,0
1610546880.156,209.473,38.086,216.309,758.301,834.473,0
1610546880.160,-157.715,40.039,84.961,-358.887,229.492,0
1610546880.162,-289.551,41.016,-185.547,-963.867,-531.250,0
1610546880.166,-79.102,38.086,-67.383,-200.684,-422.363,0
1610546880.170,269.531,37.109,259.277,851.074,430.176,0
1610546880.174,255.371,37.598,312.500,830.078,875.000,0
1610546880.178,-124.512,39.062,24.902,-221.680,299.805,0
1610546880.182,-293.945,41.016,-227.051,-946.289,-492.188,0
1610546880.186,-111.328,41.016,-120.605,-312.500,-502.930,0
1610546880.189,229.980,36.621,186.523,769.531,280.273,0
1610546880.193,277.832,37.598,222.656,918.457,823.730,0
1610546880.197,-69.824,40.527,-2.441,-48.340,390.625,0
1610546880.201,-298.340,39.062,-158.203,-914.551,-406.738,0
1610546880.205,-153.320,38.086,-98.633,-414.551,-535.645,0
1610546880.207,201.172,35.645,166.016,693.848,198.242,0
1610546880.211,304.688,36.133,312.500,982.422,844.727,0
1610546880.215,-19.531,41.992,175.781,116.211,536.621,0
1610546880.219,-284.180,43.945,-124.023,-873.047,-309.082,0
1610546880.223,-187.988,40.039,-154.297,-562.988,-587.891,0
1610546880.227,163.574,37.598,87.891,570.312,70.801,0
1610546880.231,330.566,39.062,282.715,-975.098,808.594,0
1610546880.234,29.785,42.969,167.480,239.746,623.535,0
1610546880.238,-262.695,43.945,-237.305,-820.801,-254.395,0
1610546880.242,-195.312,45.898,-224.609,-664.062,-631.348,0
1610546880.246,133.789,44.922,129.883,445.801,-25.879,0
1610546880.250,358.887,43.945,274.902,-939.453,762.207,0
1610546880.254,110.840,47.852,178.223,402.344,703.125,0
1610546880.258,-235.840,50.781,-110.352,-734.863,-112.793,0
1610546880.262,-227.539,47.363,-210.449,-783.691,-604.980,0
1610546880.266,85.449,43.457,16.602,289.062,-121.582,0
1610546880.270,336.914,39.062,243.652,-956.055,734.863,0
1610546880.274,128.906,42.480,199.707,511.719,781.250,0
1610546880.278,-224.609,49.805,-83.008,-609.863,-19.043,0
1610546880.281,-262.207,46.387,-215.332,-766.602,-570.801,0
1610546880.285,20.508,45.898,-5.371,247.559,-192.871,0
1610546880.289,307.617,44.434,351.562,-946.289,695.801,0
1610546880.293,168.945,44.434,316.406,671.387,898.926,0
1610546880.297,-186.523,52.734,-40.039,-486.328,123.047,0
1610546880.297,-261.230,52.734,-199.707,-890.625,-544.434,0
1610546880.301,8.301,46.875,2.930,34.180,-277.344,0
1610546880.305,315.918,41.504,255.371,979.980,578.125,0
1610546880.309,206.055,41.504,265.625,746.094,892.578,0
1610546880.313,-170.410,43.457,5.371,-388.672,228.516,0
1610546880.317,-293.945,41.016,-224.609,-951.172,-527.344,0
1610546880.321,-62.012,41.992,-71.289,-170.898,-381.348,0
1610546880.324,288.086,39.551,135.742,866.699,434.570,0
1610546880.328,257.812,38.574,211.914,795.410,863.281,0
1610546880.332,-108.398,41.504,83.984,-295.410,325.684,0
1610546880.336,-271.973,41.504,-199.219,-962.402,-499.512,0
1610546880.340,-102.051,40.527,-104.004,-268.066,-495.605,0
1610546880.342,231.445,40.039,234.863,813.965,347.656,0
1610546880.346,262.207,41.992,309.082,895.996,882.812,0
1610546880.350,-96.680,39.551,54.199,-89.355,403.809,0
1610546880.354,-302.246,37.598,-210.449,-911.621,-434.570,0
1610546880.358,-152.344,33.691,-117.676,-403.809,-525.879,0
1610546880.362,193.359,29.785,145.020,704.590,238.281,0
1610546880.366,293.945,32.715,226.562,959.473,869.629,0
1610546880.369,-35.156,37.109,22.461,38.574,526.855,0
1610546880.373,-297.363,39.551,-174.316,-912.598,-342.285,0
1610546880.377,-207.031,32.715,-120.605,-544.922,-590.820,0
1610546880.381,133.301,26.367,138.672,600.098,120.117,0
1610546880.385,291.504,32.227,312.988,-992.676,854.980,0
1610546880.388,-8.301,39.062,186.035,191.895,633.301,0
1610546880.392,-304.688,36.621,-107.422,-821.289,-208.008,0
1610546880.396,-244.141,33.691,-188.477,-645.996,-590.820,0
1610546880.400,87.891,28.809,71.777,466.309,-3.418,0
1610546880.404,300.293,26.367,272.461,-971.680,773.438,0
1610546880.408,41.504,34.668,124.512,316.895,659.180,0
1610546880.412,-277.832,35.156,-234.863,-763.184,-209.473,0
1610546880.415,-241.211,32.715,-257.812,-762.207,-683.594,0
1610546880.419,55.664,27.344,95.703,326.172,-140.137,0
1610546880.423,290.039,24.902,270.996,-944.824,683.594,0
1610546880.427,79.102,32.227,164.062,503.906,697.754,0
1610546880.431,-260.742,37.598,-73.730,-624.512,-106.445,0
1610546880.434,-286.621,33.691,-163.574,-785.156,-663.086,0
1610546880.438,12.695,34.180,-10.742,236.816,-270.020,0
1610546880.442,311.035,37.109,217.285,-958.008,599.121,0
1610546880.446,145.996,42.480,270.508,642.090,797.363,0
1610546880.450,-205.078,46.387,-0.488,-490.234,41.504,0
1610546880.454,-270.020,43.457,-273.926,-849.121,-642.578,0
1610546880.458,-11.230,39.062,-110.352,85.449,-359.863,0
1610546880.461,296.875,35.645,285.645,994.629,539.551,0
1610546880.465,196.777,39.551,312.012,739.258,840.820,0
1610546880.469,-163.574,43.945,9.277,-362.305,149.414,0
1610546880.473,-263.672,47.852,-180.176,-881.348,-570.801,0
1610546880.477,-24.902,46.875,-15.625,-74.707,-392.578,0
1610546880.493,290.039,41.016,227.051,910.645,451.172,0
1610546880.497,251.953,41.016,242.188,793.945,844.727,0
1610546880.501,-78.125,48.340,30.273,-262.695,243.164,0
1610546880.505,-232.910,54.199,-178.223,-921.875,-560.547,0
1610546880.509,-66.406,51.270,-104.004,-282.715,-537.109,0
1610546880.513,268.555,45.410,75.684,781.250,298.828,0
1610546880.517,270.508,46.387,146.484,837.402,798.340,0
1610546880.520,-94.727,53.223,69.824,-162.109,315.918,0
1610546880.524,-246.582,51.758,-173.340,-904.785,-487.793,0
1610546880.528,-48.340,48.340,-129.883,-320.801,-558.594,0
1610546880.532,297.363,49.805,215.820,757.324,263.672,0
1610546880.536,358.887,47.363,320.312,973.145,849.121,0
1610546880.538,-3.418,50.293,89.355,86.914,431.152,0
1610546880.542,-270.996,52.246,-154.785,-876.465,-379.883,0
1610546880.546,-159.180,48.828,-128.906,-511.230,-599.121,0
1610546880.550,201.172,46.387,116.699,612.793,79.102,0
1610546880.554,345.703,41.016,260.254,-981.445,816.895,0
1610546880.558,30.273,42.969,73.242,200.195,545.410,0
1610546880.562,-249.512,49.316,-162.109,-836.914,-312.988,0
1610546880.565,-188.477,44.922,-142.578,-629.395,-616.699,0
1610546880.569,153.809,38.086,19.043,480.469,-23.438,0
1610546880.573,354.004,39.551,184.570,-962.402,743.652,0
1610546880.577,73.730,48.340,195.312,314.453,666.992,0
1610546880.581,-242.676,48.828,-118.652,-780.273,-190.430,0
1610546880.582,-207.031,43.457,-215.332,-693.848,-651.367,0
1610546880.586,111.328,40.527,58.105,394.043,-112.305,0
1610546880.590,342.285,40.039,294.434,-935.059,719.238,0
1610546880.594,109.863,42.969,201.660,502.441,722.656,0
1610546880.598,-227.051,47.363,-119.629,-630.371,-95.703,0
1610546880.602,-216.309,44.922,-264.160,-755.859,-648.438,0
1610546880.606,81.543,40.039,-20.508,272.949,-218.262,0
1610546880.609,338.379,35.156,244.629,-945.312,642.578,0
1610546880.613,152.832,37.109,110.840,633.789,762.695,0
1610546880.617,-208.496,43.457,-136.230,-499.512,19.531,0
1610546880.621,-268.555,42.969,-150.391,-809.570,-565.918,0
1610546880.625,5.371,39.062,-15.137,145.996,-277.344,0
1610546880.627,324.219,33.691,210.938,-981.445,547.852,0
1610546880.631,210.449,38.574,262.695,713.867,807.129,0
1610546880.635,-154.297,46.387,10.254,-406.250,113.281,0
1610546880.639,-243.164,43.945,-238.770,-908.203,-630.859,0
1610546880.643,-12.207,36.621,-106.934,-88.867,-467.285,0
1610546880.647,292.969,26.855,171.875,910.156,396.973,0
1610546880.651,228.027,32.227,239.746,764.160,784.180,0
1610546880.654,-149.902,38.086,-43.457,-351.562,168.457,0
1610546880.658,-307.617,34.180,-297.363,-979.980,-611.328,0
1610546880.662,-101.074,41.016,-97.168,-257.324,-529.297,0
1610546880.666,237.793,38.086,190.430,813.965,307.129,0
1610546880.670,228.027,33.691,260.742,878.906,804.688,0
1610546880.672,-138.672,36.621,85.938,-108.887,335.449,0
1610546880.676,-316.895,36.133,-114.746,-871.094,-439.453,0
1610546880.680,-139.160,34.668,-79.590,-319.824,-496.094,0
1610546880.684,205.078,35.156,166.504,751.953,274.902,0
1610546880.688,270.020,38.086,260.254,895.508,846.191,0
1610546880.692,-57.617,35.156,26.855,-99.121,417.969,0
1610546880.696,-290.039,32.227,-242.676,-984.863,-422.363,0
1610546880.699,-169.922,32.715,-276.367,-604.004,-620.605,0
1610546880.703,175.293,29.297,60.547,562.988,130.859,0
1610546880.707,286.133,27.832,331.055,958.984,875.488,0
1610546880.711,-24.902,32.715,96.680,75.195,567.383,0
1610546880.715,-277.832,37.109,-185.059,-883.789,-288.086,0
1610546880.719,-192.383,36.621,-175.781,-588.867,-577.637,0
1610546880.723,140.625,32.715,102.051,545.410,80.566,0
1610546880.727,319.336,32.227,259.277,-950.195,837.402,0
1610546880.731,29.297,37.598,92.285,298.828,637.207,0
1610546880.735,-270.996,38.086,-117.188,-796.387,-195.312,0
1610546880.739,-221.680,35.645,-178.223,-719.727,-578.125,0
1610546880.743,102.051,31.738,-6.348,391.602,-32.715,0
1610546880.746,323.730,25.879,216.309,-953.613,782.715,0
1610546880.750,85.449,32.715,216.309,397.461,771.973,0
1610546880.754,-239.258,36.621,-99.121,-723.633,-78.125,0
1610546880.758,-239.746,33.691,-209.473,-805.664,-599.609,0
1610546880.762,49.805,30.762,48.340,252.441,-127.930,0
1610546880.762,312.012,33.691,298.340,-949.707,731.934,0
1610546880.766,130.371,41.504,234.863,578.613,831.543,0
1610546880.770,-227.051,39.551,-62.012,-568.848,54.688,0
1610546880.774,-263.184,32.715,-226.074,-836.426,-577.637,0
1610546880.778,19.043,34.668,-14.648,143.555,-245.117,0
1610546880.782,314.453,33.691,246.094,-979.492,651.367,0
1610546880.786,187.500,34.668,150.879,675.293,892.578,0
1610546880.789,-183.594,36.133,-116.699,-483.887,157.715,0
1610546880.793,-280.273,33.203,-196.777,-951.172,-533.691,0
1610546880.797,-30.762,31.738,-65.918,-92.773,-298.340,0
1610546880.801,293.945,29.297,173.828,909.180,568.359,0
1610546880.805,219.238,31.738,231.445,728.516,922.852,0
1610546880.822,-147.949,34.180,-28.809,-387.207,289.062,0
1610546880.826,-264.648,33.691,-290.527,-972.656,-510.254,0
1610546880.830,-52.246,34.668,-130.371,-197.266,-403.320,0
1610546880.834,259.277,35.645,214.355,860.840,487.793,0
1610546880.838,242.676,38.086,276.367,847.656,961.914,0
1610546880.842,-119.141,39.062,-29.297,-200.684,399.902,0
1610546880.846,-291.504,40.039,-342.285,-957.031,-452.637,0
1610546880.849,-108.887,44.434,-123.047,-326.172,-464.355,0
1610546880.853,222.168,40.527,246.094,766.602,375.977,0
1610546880.857,270.020,36.621,312.988,912.109,960.449,0
1610546880.861,-68.359,41.504,101.562,-78.613,527.344,0
1610546880.865,-291.016,41.016,-143.555,-966.797,-318.848,0
1610546880.867,-158.203,40.527,-88.379,-479.492,-453.125,0
1610546880.871,187.500,37.109,181.641,657.227,310.059,0
1610546880.875,295.898,30.273,293.945,952.637,948.242,0
1610546880.879,-24.414,30.762,125.000,39.551,625.488,0
1610546880.883,-282.715,33.203,-155.273,-924.805,-226.074,0
1610546880.887,-189.453,25.391,-203.125,-604.980,-516.602,0
1610546880.891,148.926,17.090,54.688,537.109,144.043,0
1610546880.894,303.711,14.648,268.555,-997.559,895.508,0
1610546880.898,0.000,17.090,118.652,186.523,694.824,0
1610546880.902,-291.992,17.090,-284.668,-857.422,-190.918,0
1610546880.906,-227.051,18.066,-307.617,-721.191,-596.680,0
1610546880.910,95.703,23.438,83.496,396.973,10.742,0
1610546880.912,312.988,23.438,280.273,-958.008,852.051,0
1610546880.916,70.801,27.344,161.133,344.238,805.664,0
1610546880.920,-268.555,29.785,-92.285,-768.066,-13.184,0
1610546880.924,-254.883,27.344,-195.312,-784.668,-533.203,0
1610546880.928,67.871,21.973,-8.301,269.043,-78.613,0
1610546880.932,308.105,20.020,211.914,-964.844,778.809,0
1610546880.936,92.285,27.344,164.062,472.168,854.004,0
1610546880.939,-250.000,34.668,-91.797,-679.688,54.199,0
1610546880.943,-264.648,32.227,-271.484,-876.465,-564.941,0
1610546880.947,30.273,30.273,-87.402,95.215,-188.965,0
1610546880.951,308.594,32.227,286.133,986.816,725.098,0
1610546880.955,169.922,36.621,256.348,587.891,933.105,0
1610546880.957,-186.523,41.016,-72.754,-562.012,178.711,0
1610546880.961,-271.484,37.598,-207.520,-922.852,-500.977,0
1610546880.965,-16.602,32.227,-11.230,-37.109,-233.887,0
1610546880.969,301.758,30.273,233.887,943.359,632.812,0
1610546880.973,212.891,36.133,236.328,704.590,935.547,0
1610546880.977,-158.203,44.434,-20.996,-426.270,273.438,0
1610546880.981,-277.344,43.457,-208.984,-936.035,-467.773,0
1610546880.984,-60.059,41.504,-60.059,-145.508,-341.797,0
1610546880.988,278.320,40.039,147.949,881.348,484.375,0
1610546880.992,247.559,40.527,239.258,810.059,917.969,0
1610546880.996,-128.418,45.410,118.164,-263.672,408.203,0
1610546881.000,-299.316,42.480,-187.012,-951.660,-411.621,0
1610546881.002,-116.211,35.156,-128.906,-310.059,-439.941,0
1610546881.006,230.469,34.180,204.102,777.344,395.020,0
1610546881.010,262.695,40.527,307.129,875.488,966.309,0
1610546881.014,-78.125,42.969,29.785,-126.465,494.141,0
1610546881.018,-288.086,38.086,-227.051,-933.594,-349.609,0
1610546881.022,-152.344,38.574,-140.625,-419.922,-470.703,0
1610546881.026,197.266,39.551,131.836,693.848,275.879,0
1610546881.029,307.129,38.086,217.773,954.590,906.738,0
1610546881.033,-29.785,41.016,27.832,54.199,552.246,0
1610546881.037,-297.852,40.527,-117.676,-890.625,-260.254,0
1610546881.041,-193.359,36.621,-99.609,-549.316,-490.723,0
1610546881.045,176.758,33.691,114.258,574.219,166.504,0
1610546881.047,347.656,33.691,276.855,988.770,885.742,0
1610546881.051,41.992,41.504,140.137,179.688,661.133,0
1610546881.055,-247.559,44.434,-125.000,-839.355,-165.039,0
1610546881.059,-189.941,39.551,-205.078,-675.781,-555.176,0
1610546881.063,141.602,31.738,38.086,444.824,16.602,0
1610546881.067,338.867,29.297,225.098,-966.309,834.961,0
1610546881.071,54.199,34.180,106.934,358.398,734.863,0
1610546881.074,-276.367,35.645,-217.773,-719.727,-129.883,0
1610546881.078,-229.492,32.227,-263.184,-728.027,-594.727,0
1610546881.082,78.613,27.344,104.980,345.703,-41.992,0
1610546881.086,318.359,26.367,279.297,-947.266,788.574,0
1610546881.090,117.676,33.203,177.246,486.328,817.383,0
1610546881.092,-235.352,39.062,-80.078,-655.762,7.812,0
1610546881.096,-259.277,36.621,-191.895,-828.125,-557.617,0
1610546881.100,22.949,32.227,1.953,189.941,-146.973,0
1610546881.104,302.246,31.250,248.535,-973.633,714.355,0
1610546881.108,147.461,34.668,252.441,619.141,900.879,0
1610546881.112,-206.055,39.062,-56.641,-525.879,132.324,0
1610546881.116,-263.672,36.621,-275.391,-864.258,-547.363,0
1610546881.119,-11.719,32.715,-72.754,66.406,-259.766,0
1610546881.123,291.992,32.715,252.930,982.910,603.516,0
1610546881.127,192.383,35.645,261.719,742.188,887.207,0
1610546881.131,-170.410,37.598,-19.043,-371.582,209.473,0
1610546881.135,-280.762,37.598,-202.637,-899.902,-517.090,0
1610546881.138,-45.898,40.527,-5.859,-82.520,-344.727,0
1610546881.142,286.133,36.133,242.676,912.109,508.789,0
1610546881.146,226.562,36.133,251.465,807.617,906.250,0
1610546881.150,-132.324,45.898,19.043,-275.879,309.082,0
1610546881.154,-281.250,46.387,-188.477,-953.125,-472.168,0
1610546881.158,-98.145,39.062,-98.145,-243.652,-416.992,0
1610546881.162,243.164,34.180,101.074,820.312,384.766,0
1610546881.165,273.438,36.621,218.750,884.277,874.023,0
1610546881.169,-82.520,42.969,96.680,-102.539,404.785,0
1610546881.173,-286.621,40.527,-211.914,-906.738,-442.871,0
1610546881.177,-135.742,39.062,-131.836,-367.676,-540.039,0
1610546881.181,206.543,38.086,166.992,723.145,248.535,0
1610546881.184,289.062,38.574,260.742,939.453,840.820,0
1610546881.188,-34.668,46.387,58.105,11.719,439.941,0
1610546881.192,-282.227,41.016,-218.750,-923.828,-417.480,0
1610546881.196,-174.316,36.133,-149.414,-559.082,-641.113,0
1610546881.200,189.453,37.109,142.090,583.008,72.754,0
1610546881.204,325.195,35.156,208.496,985.352,763.672,0
1610546881.208,15.625,39.062,18.555,140.137,472.656,0
1610546881.211,-270.508,42.480,-146.973,-861.816,-361.816,0
1610546881.215,-202.637,41.992,-131.836,-613.281,-657.715,0
1610546881.219,141.602,37.109,79.102,511.719,-36.621,0
1610546881.223,342.773,35.645,277.344,-939.453,750.977,0
1610546881.227,68.359,41.504,211.914,372.070,642.578,0
1610546881.242,-245.605,42.969,-95.703,-719.238,-213.867,0
1610546881.246,-202.148,40.039,-182.617,-687.988,-666.016,0
1610546881.250,109.375,31.738,29.785,372.559,-142.578,0
1610546881.254,338.867,27.832,244.629,-955.078,673.340,0
1610546881.258,106.934,32.715,216.797,446.289,684.082,0
1610546881.262,-229.980,34.668,-185.059,-694.336,-170.410,0
1610546881.266,-234.863,38.574,-276.367,-828.125,-709.961,0
1610546881.269,50.293,38.086,90.820,196.289,-233.398,0
1610546881.273,330.566,35.156,269.043,-978.027,596.191,0
1610546881.277,162.109,41.504,201.660,583.008,731.445,0
1610546881.281,-220.215,44.434,-21.973,-563.965,-19.043,0
1610546881.285,-278.809,40.039,-160.645,-865.723,-645.508,0
1610546881.287,-4.395,35.645,-29.297,72.266,-347.168,0
1610546881.291,305.664,33.691,217.773,992.188,518.555,0
1610546881.295,190.918,37.109,246.094,708.496,793.457,0
1610546881.299,-179.199,44.434,-22.461,-420.410,88.867,0
1610546881.303,-267.090,42.480,-247.070,-903.809,-649.414,0
1610546881.307,-31.250,37.598,-121.094,-71.289,-479.004,0
1610546881.311,279.785,38.574,166.504,922.852,376.953,0
1610546881.314,216.797,37.598,233.887,773.926,742.676,0
1610546881.318,-143.066,39.551,-27.344,-318.848,141.602,0
1610546881.322,-287.109,39.062,-308.105,-953.125,-636.719,0
1610546881.326,-85.938,38.574,-74.707,-229.980,-547.363,0
1610546881.330,248.535,38.574,251.953,837.891,303.223,0
1610546881.332,248.535,41.504,294.922,867.188,814.941,0
1610546881.336,-108.398,45.410,75.684,-139.160,301.758,0
1610546881.340,-302.734,43.457,-184.570,-924.316,-561.035,0
1610546881.344,-136.719,40.527,-111.328,-358.887,-634.766,0
1610546881.348,230.469,41.504,163.086,750.488,162.109,0
1610546881.352,284.180,41.992,237.793,921.387,753.906,0
1610546881.356,-62.500,46.875,69.824,-23.438,352.051,0
1610546881.359,-279.785,48.340,-157.227,-923.828,-491.211,0
1610546881.363,-146.973,39.551,-247.559,-518.555,-719.727,0
1610546881.367,189.941,39.062,44.434,623.047,-10.254,0
1610546881.371,297.852,41.016,349.121,959.961,740.234,0
1610546881.375,-13.184,40.039,145.508,95.215,466.309,0
1610546881.377,-264.160,46.875,-188.965,-893.066,-432.617,0
1610546881.381,-177.246,43.457,-140.625,-637.695,-715.332,0
1610546881.385,163.574,36.621,103.027,515.137,-72.754,0
1610546881.389,336.426,37.598,217.773,-972.656,652.344,0
1610546881.393,41.016,42.480,120.117,283.691,501.953,0
1610546881.397,-254.395,45.410,-164.551,-783.203,-340.332,0
1610546881.401,-205.078,40.527,-195.801,-675.781,-736.328,0
1610546881.404,114.746,32.715,28.809,444.824,-185.547,0
1610546881.408,346.191,31.250,201.660,-921.875,625.000,0
1610546881.412,100.098,35.156,215.820,498.535,616.211,0
1610546881.416,-239.746,35.156,-37.109,-614.746,-182.617,0
1610546881.420,-240.234,35.645,-185.547,-722.656,-702.637,0
1610546881.422,53.711,34.180,36.621,327.637,-266.602,0
1610546881.426,332.031,34.668,286.621,-931.641,587.402,0
1610546881.430,152.832,41.016,208.984,617.676,670.898,0
1610546881.434,-195.312,46.387,-87.402,-513.672,-121.582,0
1610546881.438,-227.051,41.504,-207.031,-791.016,-724.121,0
1610546881.442,46.387,33.691,-33.203,218.262,-392.090,0
1610546881.446,329.102,37.109,201.172,-954.590,462.891,0
1610546881.449,193.848,40.527,146.484,733.887,671.875,0
1610546881.453,-174.805,41.992,-78.125,-350.586,-49.805,0
1610546881.457,-262.695,41.504,-141.602,-790.039,-705.078,0
1610546881.461,-13.184,35.645,-20.508,121.582,-486.816,0
1610546881.465,304.688,34.180,214.355,-998.047,380.371,0
1610546881.469,238.281,39.062,278.320,813.477,760.742,0
1610546881.473,-129.395,44.434,49.316,-227.051,151.855,0
1610546881.477,-264.648,45.898,-224.609,-844.727,-604.492,0
1610546881.481,-67.871,38.574,-120.605,-89.844,-540.039,0
1610546881.485,264.648,33.691,215.332,884.766,305.664,0
1610546881.489,261.719,39.062,271.484,870.605,800.293,0
1610546881.493,-99.609,43.457,-12.207,-134.277,258.301,0
1610546881.496,-277.832,46.387,-270.020,-884.277,-597.168,0
1610546881.500,-99.121,45.898,-44.434,-223.633,-568.848,0
1610546881.504,250.488,37.109,250.488,817.383,203.125,0
1610546881.508,294.922,36.621,276.367,939.453,634.277,0
1610546881.512,-59.570,42.480,93.262,15.625,222.168,0
1610546881.512,-267.090,41.504,-165.039,-863.770,-609.375,0
1610546881.516,-133.789,37.598,-125.488,-386.719,-760.742,0
1610546881.520,198.730,35.156,147.461,694.824,17.090,0
1610546881.524,306.152,37.598,287.109,991.211,700.195,0
1610546881.528,-12.695,38.574,111.816,125.000,395.020,0
1610546881.532,-262.695,37.598,-180.176,-840.332,-450.195,0
1610546881.536,-170.410,33.203,-246.094,-536.133,-749.023,0
1610546881.539,166.504,30.762,58.105,565.430,-55.664,0
1610546881.543,335.449,32.227,333.496,-967.773,723.145,0
1610546881.547,34.668,36.133,152.344,266.602,513.672,0
1610546881.551,-260.742,38.574,-146.973,-770.996,-333.984,0
1610546881.555,-194.336,37.109,-147.949,-631.836,-701.660,0
1610546881.572,110.352,36.133,128.906,455.566,-96.680,0
1610546881.576,314.453,30.762,283.691,-937.988,705.078,0
1610546881.580,83.984,30.273,167.969,395.508,645.020,0
1610546881.584,-233.398,36.133,-93.262,-725.098,-194.824,0
1610546881.588,-227.051,35.156,-186.523,-766.113,-704.590,0
1610546881.592,72.266,27.832,-24.414,283.203,-222.168,0
1610546881.596,332.520,24.902,185.547,-968.262,630.371,0
1610546881.599,127.441,30.762,207.520,511.719,715.332,0
1610546881.603,-215.820,34.180,-64.453,-621.094,-83.496,0
