timestamp,1,2,3,af3,f7,f3,fc5,t7,p7,o1,o2,p8,t8,fc6
93480,83.0,0.0,373.0,4524.102564102564,4187.6923076923085,4344.102564102564,4833.846153846154,3784.615384615385,4212.820512820514,4248.717948717949,4109.2307692307695,4387.179487179487,4080.5128205128212,4230.769230769231
93491,84.0,0.0,0.0,4518.974358974359,4184.102564102564,4342.564102564103,4832.307692307693,3781.538461538462,4210.769230769231,4244.615384615385,4106.666666666667,4387.6923076923085,4076.9230769230776,4233.333333333334
93491,85.0,0.0,292.0,4507.6923076923085,4178.974358974359,4343.589743589744,4834.871794871796,3782.0512820512827,4217.948717948719,4252.820512820514,4124.102564102564,4393.846153846154,4078.461538461539,4230.769230769231
93491,86.0,0.0,492.0,4517.948717948719,4186.153846153847,4351.282051282052,4838.974358974359,3786.1538461538466,4229.2307692307695,4267.6923076923085,4148.717948717949,4405.128205128206,4094.8717948717954,4230.256410256411
93491,87.0,0.0,373.0,4526.666666666667,4195.384615384616,4356.410256410257,4840.512820512821,3788.205128205129,4233.846153846154,4270.256410256411,4153.333333333334,4411.282051282052,4105.128205128206,4234.871794871796
93491,88.0,0.0,0.0,4510.256410256411,4192.820512820514,4356.410256410257,4841.025641025642,3785.1282051282055,4229.74358974359,4264.615384615385,4138.461538461539,4407.6923076923085,4100.000000000001,4235.384615384616
93491,89.0,0.0,292.0,4508.205128205129,4189.2307692307695,4354.871794871796,4840.512820512821,3787.1794871794878,4227.6923076923085,4263.076923076924,4129.2307692307695,4398.461538461539,4094.358974358975,4230.769230769231
93491,90.0,0.0,492.0,4537.435897435898,4195.8974358974365,4355.8974358974365,4845.128205128206,3790.7692307692314,4228.717948717949,4263.589743589744,4133.333333333334,4399.48717948718,4098.461538461539,4231.794871794872
93491,91.0,0.0,373.0,4541.025641025642,4197.948717948719,4360.512820512821,4847.6923076923085,3790.7692307692314,4228.717948717949,4264.615384615385,4140.512820512821,4406.153846153847,4099.48717948718,4234.358974358975
93492,92.0,0.0,0.0,4517.948717948719,4190.769230769231,4362.564102564103,4841.025641025642,3790.2564102564106,4233.846153846154,4266.666666666667,4140.512820512821,4402.564102564103,4093.8461538461543,4233.333333333334
93492,93.0,0.0,292.0,4516.410256410257,4189.74358974359,4360.000000000001,4840.000000000001,3791.2820512820517,4230.769230769231,4262.051282051282,4134.358974358975,4398.974358974359,4091.2820512820517,4231.794871794872
93492,94.0,0.0,492.0,4518.461538461539,4190.769230769231,4356.410256410257,4842.564102564103,3790.7692307692314,4223.589743589744,4257.948717948719,4130.256410256411,4400.000000000001,4095.8974358974365,4230.769230769231
93492,95.0,0.0,373.0,4511.282051282052,4189.2307692307695,4356.923076923077,4838.974358974359,3788.205128205129,4231.794871794872,4263.589743589744,4135.8974358974365,4398.974358974359,4107.179487179487,4231.794871794872
93492,96.0,0.0,0.0,4522.051282051282,4191.794871794872,4361.538461538462,4841.538461538462,3787.692307692308,4238.461538461539,4267.179487179487,4144.102564102564,4397.948717948719,4117.435897435898,4232.307692307693
93492,97.0,0.0,292.0,4534.871794871796,4194.871794871796,4364.615384615385,4845.641025641026,3786.1538461538466,4232.307692307693,4264.102564102564,4141.538461538462,4403.076923076924,4125.128205128206,4230.256410256411
93492,98.0,0.0,492.0,4523.589743589744,4194.871794871796,4364.615384615385,4843.589743589744,3783.589743589744,4226.666666666667,4262.051282051282,4135.8974358974365,4406.666666666667,4128.205128205129,4231.282051282052
93492,99.0,0.0,373.0,4516.410256410257,4195.8974358974365,4369.743589743591,4844.102564102564,3785.1282051282055,4223.589743589744,4269.2307692307695,4138.974358974359,4407.179487179487,4130.769230769231,4233.846153846154
93492,100.0,0.0,0.0,4526.666666666667,4195.384615384616,4373.333333333334,4846.153846153847,3783.589743589744,4224.102564102564,4276.410256410257,4145.128205128206,4407.6923076923085,4132.307692307693,4232.307692307693
93493,101.0,0.0,292.0,4528.717948717949,4191.282051282052,4364.615384615385,4844.102564102564,3781.538461538462,4231.794871794872,4272.820512820514,4140.000000000001,4401.025641025642,4124.615384615385,4230.256410256411
93493,102.0,0.0,492.0,4521.538461538462,4190.256410256411,4360.000000000001,4836.923076923077,3782.564102564103,4226.153846153847,4266.666666666667,4128.205128205129,4396.923076923077,4117.435897435898,4228.717948717949
93493,103.0,0.0,373.0,4515.384615384616,4187.6923076923085,4361.025641025642,4835.8974358974365,3783.076923076924,4207.6923076923085,4261.538461538462,4121.025641025642,4396.923076923077,4113.846153846154,4228.205128205129
93493,104.0,0.0,0.0,4499.48717948718,4178.974358974359,4358.461538461539,4836.410256410257,3783.589743589744,4211.282051282052,4258.974358974359,4122.051282051282,4392.307692307693,4106.153846153847,4229.74358974359
93494,105.0,0.0,292.0,4502.564102564103,4182.051282051282,4366.666666666667,4836.410256410257,3785.1282051282055,4231.282051282052,4263.589743589744,4133.333333333334,4394.358974358975,4109.2307692307695,4230.769230769231
93494,106.0,0.0,492.0,4539.48717948718,4196.410256410257,4376.923076923077,4845.128205128206,3788.205128205129,4231.282051282052,4266.153846153847,4136.923076923077,4401.538461538462,4123.076923076924,4230.769230769231
93494,107.0,0.0,373.0,4550.769230769231,4197.435897435898,4375.8974358974365,4846.666666666667,3787.1794871794878,4218.974358974359,4262.564102564103,4130.256410256411,4403.076923076924,4126.666666666667,4229.74358974359
93494,108.0,0.0,0.0,4516.410256410257,4188.717948717949,4377.435897435898,4843.076923076924,3784.1025641025644,4213.846153846154,4260.512820512821,4134.358974358975,4404.102564102564,4124.102564102564,4229.74358974359
93494,109.0,0.0,292.0,4490.769230769231,4188.205128205129,4379.48717948718,4844.102564102564,3785.1282051282055,4213.846153846154,4261.025641025642,4143.076923076924,4409.2307692307695,4125.128205128206,4231.282051282052
93494,110.0,0.0,492.0,4505.641025641026,4189.74358974359,4377.435897435898,4840.000000000001,3780.512820512821,4230.256410256411,4268.205128205129,4144.615384615385,4411.794871794872,4126.666666666667,4231.794871794872
93494,111.0,0.0,373.0,4528.717948717949,4189.74358974359,4375.8974358974365,4843.589743589744,3781.538461538462,4242.051282051282,4274.871794871796,4140.000000000001,4408.205128205129,4123.589743589744,4232.820512820514
93494,112.0,0.0,0.0,4533.333333333334,4192.820512820514,4372.307692307693,4846.153846153847,3784.615384615385,4229.74358974359,4269.2307692307695,4139.48717948718,4405.128205128206,4122.564102564103,4230.769230769231
93494,113.0,0.0,292.0,4530.769230769231,4193.333333333334,4366.153846153847,4843.076923076924,3780.512820512821,4232.307692307693,4263.076923076924,4141.538461538462,4406.153846153847,4125.641025641026,4229.74358974359
93494,114.0,0.0,492.0,4525.128205128206,4187.6923076923085,4358.461538461539,4843.589743589744,3783.589743589744,4246.666666666667,4262.051282051282,4133.333333333334,4401.538461538462,4118.461538461539,4231.282051282052
93568,115.0,0.0,373.0,4509.743589743591,4183.076923076924,4353.846153846154,4836.410256410257,3786.666666666667,4244.102564102564,4267.6923076923085,4130.769230769231,4402.051282051282,4113.333333333334,4227.179487179487
93568,116.0,0.0,0.0,4498.461538461539,4187.179487179487,4365.128205128206,4838.974358974359,3789.2307692307695,4235.8974358974365,4278.461538461539,4143.589743589744,4410.769230769231,4123.076923076924,4227.6923076923085
93568,117.0,0.0,292.0,4510.256410256411,4192.820512820514,4375.384615384616,4843.589743589744,3788.717948717949,4236.410256410257,4281.025641025642,4152.307692307693,4413.333333333334,4128.717948717949,4231.282051282052
93568,118.0,0.0,492.0,4528.205128205129,4192.820512820514,4368.717948717949,4840.512820512821,3783.076923076924,4238.461538461539,4275.8974358974365,4149.74358974359,4410.256410256411,4124.615384615385,4229.2307692307695
93569,119.0,0.0,373.0,4522.051282051282,4189.74358974359,4361.538461538462,4845.128205128206,3781.538461538462,4234.871794871796,4274.871794871796,4148.205128205129,4409.743589743591,4122.051282051282,4229.74358974359
93569,120.0,0.0,0.0,4510.256410256411,4188.205128205129,4361.025641025642,4840.512820512821,3777.435897435898,4236.410256410257,4281.025641025642,4155.384615384616,4415.384615384616,4125.641025641026,4231.794871794872
93569,121.0,0.0,292.0,4510.256410256411,4186.153846153847,4353.846153846154,4837.435897435898,3776.9230769230776,4243.589743589744,4275.8974358974365,4152.820512820514,4413.846153846154,4123.076923076924,4231.794871794872
93569,122.0,0.0,492.0,4499.48717948718,4180.000000000001,4346.153846153847,4835.8974358974365,3782.0512820512827,4240.000000000001,4262.564102564103,4137.435897435898,4404.615384615385,4110.769230769231,4228.717948717949
93569,123.0,0.0,373.0,4492.820512820514,4182.051282051282,4354.358974358975,4830.769230769231,3778.461538461539,4229.74358974359,4267.179487179487,4141.538461538462,4407.179487179487,4116.410256410257,4228.717948717949
93569,124.0,0.0,0.0,4511.794871794872,4192.820512820514,4367.6923076923085,4842.564102564103,3780.512820512821,4225.641025641026,4277.435897435898,4156.410256410257,4413.846153846154,4131.282051282052,4234.358974358975
93570,125.0,0.0,292.0,4526.666666666667,4194.871794871796,4370.256410256411,4844.615384615386,3783.076923076924,4234.871794871796,4277.435897435898,4158.461538461539,4414.358974358975,4133.846153846154,4233.333333333334
93570,126.0,0.0,492.0,4519.48717948718,4188.717948717949,4365.128205128206,4837.435897435898,3783.076923076924,4240.000000000001,4273.846153846154,4155.384615384616,4415.384615384616,4130.769230769231,4230.256410256411
93699,127.0,0.0,373.0,4510.256410256411,4185.128205128206,4360.000000000001,4837.948717948719,3783.589743589744,4235.8974358974365,4274.871794871796,4153.333333333334,4417.435897435898,4127.6923076923085,4230.769230769231
93699,128.0,0.0,0.0,4509.743589743591,4184.102564102564,4358.974358974359,4833.333333333334,3778.9743589743593,4240.000000000001,4276.923076923077,4147.179487179487,4413.846153846154,4124.615384615385,4228.717948717949
93699,0.0,0.0,472.0,4510.256410256411,4186.153846153847,4360.000000000001,4837.435897435898,3783.589743589744,4235.8974358974365,4270.769230769231,4140.000000000001,4409.743589743591,4124.615384615385,4229.74358974359
93699,1.0,0.0,316.0,4516.923076923077,4189.2307692307695,4362.051282051282,4840.512820512821,3786.1538461538466,4225.641025641026,4268.717948717949,4140.000000000001,4417.435897435898,4129.2307692307695,4230.256410256411
93700,2.0,0.0,498.0,4514.871794871796,4187.179487179487,4364.102564102564,4837.948717948719,3780.512820512821,4229.2307692307695,4273.333333333334,4144.102564102564,4419.48717948718,4128.205128205129,4229.74358974359
93700,3.0,0.0,445.0,4500.000000000001,4184.615384615385,4365.641025641026,4840.000000000001,3783.589743589744,4232.820512820514,4273.333333333334,4148.205128205129,4412.307692307693,4120.512820512821,4230.769230769231
93700,4.0,0.0,118.0,4505.128205128206,4185.641025641026,4370.769230769231,4837.948717948719,3786.1538461538466,4227.6923076923085,4270.769230769231,4157.435897435898,4418.974358974359,4126.666666666667,4229.74358974359
93700,5.0,0.0,550.0,4520.000000000001,4189.2307692307695,4368.717948717949,4841.025641025642,3786.666666666667,4228.205128205129,4269.2307692307695,4157.435897435898,4423.076923076924,4128.717948717949,4231.282051282052
93700,6.0,0.0,531.0,4521.538461538462,4190.769230769231,4365.128205128206,4839.48717948718,3785.1282051282055,4233.333333333334,4273.333333333334,4147.6923076923085,4414.871794871796,4119.48717948718,4230.256410256411
93700,7.0,0.0,452.0,4516.923076923077,4190.256410256411,4371.282051282052,4837.435897435898,3786.1538461538466,4233.846153846154,4276.923076923077,4147.6923076923085,4414.871794871796,4120.512820512821,4226.153846153847
93700,8.0,0.0,380.0,4510.769230769231,4186.666666666667,4372.307692307693,4841.538461538462,3792.820512820513,4231.282051282052,4271.794871794872,4148.205128205129,4417.435897435898,4121.538461538462,4231.282051282052
93700,9.0,0.0,463.0,4513.846153846154,4183.076923076924,4362.564102564103,4833.333333333334,3787.1794871794878,4231.282051282052,4272.307692307693,4149.2307692307695,4414.358974358975,4118.974358974359,4232.820512820514
93700,10.0,0.0,492.0,4521.025641025642,4188.717948717949,4361.025641025642,4837.948717948719,3785.6410256410263,4221.538461538462,4274.358974358975,4150.256410256411,4412.820512820514,4120.000000000001,4228.717948717949
93700,11.0,0.0,373.0,4517.435897435898,4191.282051282052,4369.2307692307695,4844.102564102564,3789.7435897435903,4210.256410256411,4267.6923076923085,4141.538461538462,4410.769230769231,4121.025641025642,4227.6923076923085
93700,12.0,0.0,0.0,4515.384615384616,4187.179487179487,4371.794871794872,4835.384615384616,3787.692307692308,4220.000000000001,4268.205128205129,4135.8974358974365,4407.179487179487,4119.48717948718,4228.205128205129
93700,13.0,0.0,292.0,4517.435897435898,4183.076923076924,4363.589743589744,4835.384615384616,3791.7948717948725,4223.589743589744,4268.717948717949,4132.820512820514,4402.051282051282,4107.179487179487,4230.256410256411
93730,14.0,0.0,492.0,4508.717948717949,4178.461538461539,4356.410256410257,4831.794871794872,3791.2820512820517,4213.333333333334,4263.076923076924,4129.2307692307695,4401.538461538462,4098.974358974359,4228.205128205129
93730,15.0,0.0,373.0,4495.384615384616,4177.435897435898,4358.974358974359,4830.256410256411,3790.7692307692314,4211.794871794872,4261.538461538462,4125.641025641026,4402.564102564103,4101.025641025642,4229.2307692307695
93730,16.0,0.0,0.0,4490.256410256411,4175.8974358974365,4358.461538461539,4829.2307692307695,3791.7948717948725,4216.923076923077,4264.615384615385,4120.000000000001,4396.410256410257,4094.358974358975,4231.282051282052
93730,17.0,0.0,0.0,4494.358974358975,4172.307692307693,4351.794871794872,4824.615384615386,3783.076923076924,4220.000000000001,4265.128205128206,4123.589743589744,4398.461538461539,4088.717948717949,4229.2307692307695
94209,18.0,0.0,0.0,4505.128205128206,4177.948717948719,4347.6923076923085,4832.820512820514,3783.076923076924,4213.333333333334,4258.461538461539,4127.6923076923085,4404.102564102564,4095.3846153846157,4230.769230769231
94209,19.0,0.0,0.0,4522.564102564103,4183.589743589744,4348.205128205129,4832.307692307693,3783.589743589744,4212.820512820514,4254.871794871796,4122.564102564103,4404.615384615385,4106.666666666667,4229.2307692307695
94209,20.0,0.0,0.0,4516.410256410257,4179.48717948718,4345.641025641026,4826.666666666667,3781.538461538462,4216.923076923077,4251.794871794872,4113.846153846154,4402.051282051282,4103.076923076924,4227.179487179487
94209,21.0,0.0,0.0,4485.641025641026,4173.846153846154,4341.538461538462,4827.179487179488,3784.615384615385,4208.205128205129,4244.615384615385,4106.153846153847,4395.384615384616,4092.307692307693,4228.205128205129
94209,22.0,0.0,0.0,4490.769230769231,4177.948717948719,4346.153846153847,4825.641025641026,3786.1538461538466,4211.794871794872,4248.717948717949,4111.794871794872,4396.923076923077,4097.948717948719,4230.256410256411
94209,23.0,0.0,0.0,4519.48717948718,4186.153846153847,4352.820512820514,4835.8974358974365,3791.7948717948725,4224.102564102564,4256.923076923077,4115.8974358974365,4400.000000000001,4105.128205128206,4233.846153846154
94209,24.0,0.0,0.0,4515.384615384616,4183.076923076924,4355.384615384616,4834.358974358975,3792.820512820513,4227.6923076923085,4255.8974358974365,4116.410256410257,4398.461538461539,4102.051282051282,4230.256410256411
94210,25.0,0.0,0.0,4501.025641025642,4177.948717948719,4358.974358974359,4827.179487179488,3790.7692307692314,4230.769230769231,4257.435897435898,4124.102564102564,4398.974358974359,4102.564102564103,4227.6923076923085
94210,26.0,0.0,0.0,4509.743589743591,4182.051282051282,4362.051282051282,4835.384615384616,3795.3846153846157,4228.717948717949,4264.102564102564,4125.641025641026,4404.102564102564,4109.2307692307695,4230.769230769231
94210,27.0,0.0,0.0,4515.384615384616,4184.102564102564,4364.102564102564,4835.384615384616,3793.333333333334,4221.538461538462,4265.641025641026,4124.102564102564,4407.6923076923085,4113.846153846154,4228.717948717949
94210,28.0,0.0,0.0,4502.564102564103,4182.051282051282,4362.564102564103,4834.871794871796,3791.7948717948725,4215.384615384616,4261.025641025642,4121.025641025642,4403.076923076924,4109.74358974359,4227.6923076923085
94210,29.0,0.0,0.0,4502.051282051282,4181.538461538462,4361.025641025642,4833.846153846154,3787.692307692308,4216.923076923077,4262.564102564103,4125.128205128206,4402.564102564103,4108.717948717949,4227.179487179487
94211,30.0,0.0,0.0,4522.564102564103,4183.076923076924,4368.717948717949,4833.333333333334,3782.0512820512827,4218.461538461539,4266.666666666667,4136.410256410257,4410.256410256411,4116.410256410257,4227.179487179487
94211,31.0,0.0,0.0,4524.102564102564,4184.102564102564,4370.256410256411,4841.538461538462,3784.1025641025644,4208.205128205129,4261.538461538462,4134.871794871796,4409.2307692307695,4116.923076923077,4230.769230769231
94211,32.0,0.0,0.0,4506.153846153847,4178.974358974359,4362.051282051282,4831.282051282052,3781.538461538462,4205.641025641026,4257.435897435898,4127.6923076923085,4398.461538461539,4106.666666666667,4228.717948717949
94211,33.0,0.0,0.0,4495.8974358974365,4173.846153846154,4355.8974358974365,4825.128205128206,3784.615384615385,4215.384615384616,4257.435897435898,4123.589743589744,4393.333333333334,4096.410256410257,4229.74358974359
94211,34.0,0.0,0.0,4500.000000000001,4174.871794871796,4351.282051282052,4828.717948717949,3790.2564102564106,4217.435897435898,4255.384615384616,4119.48717948718,4397.435897435898,4094.8717948717954,4229.74358974359
94211,35.0,0.0,0.0,4512.820512820514,4176.923076923077,4349.2307692307695,4826.666666666667,3786.666666666667,4213.846153846154,4261.538461538462,4127.179487179487,4403.076923076924,4098.461538461539,4224.615384615385
94211,36.0,0.0,0.0,4510.256410256411,4176.923076923077,4350.256410256411,4831.282051282052,3791.7948717948725,4221.025641025642,4268.717948717949,4129.74358974359,4395.8974358974365,4095.3846153846157,4228.717948717949
94211,37.0,0.0,0.0,4494.871794871796,4174.358974358975,4353.846153846154,4826.666666666667,3789.7435897435903,4233.846153846154,4261.025641025642,4114.871794871796,4388.717948717949,4091.7948717948725,4228.717948717949
94211,38.0,0.0,0.0,4492.307692307693,4178.974358974359,4356.923076923077,4829.743589743591,3787.1794871794878,4227.179487179487,4255.8974358974365,4111.282051282052,4393.846153846154,4097.435897435898,4224.615384615385
94212,39.0,0.0,0.0,4503.076923076924,4182.564102564103,4354.358974358975,4835.8974358974365,3793.333333333334,4214.871794871796,4263.589743589744,4121.538461538462,4399.48717948718,4104.102564102564,4229.2307692307695
94212,40.0,0.0,0.0,4509.2307692307695,4178.974358974359,4349.2307692307695,4827.179487179488,3790.2564102564106,4224.102564102564,4270.256410256411,4128.717948717949,4402.051282051282,4106.666666666667,4230.769230769231
94212,41.0,0.0,0.0,4504.615384615385,4176.923076923077,4348.205128205129,4831.282051282052,3785.6410256410263,4229.74358974359,4264.615384615385,4122.051282051282,4396.410256410257,4100.000000000001,4229.2307692307695
94212,42.0,0.0,0.0,4498.974358974359,4174.358974358975,4347.179487179487,4828.205128205129,3783.589743589744,4230.769230769231,4264.615384615385,4116.410256410257,4389.743589743591,4094.8717948717954,4226.666666666667
94212,43.0,0.0,0.0,4500.000000000001,4176.410256410257,4349.743589743591,4825.128205128206,3787.692307692308,4242.051282051282,4272.820512820514,4123.589743589744,4396.410256410257,4103.076923076924,4228.205128205129
94212,44.0,0.0,0.0,4506.666666666667,4181.025641025642,4354.358974358975,4832.820512820514,3796.410256410257,4239.48717948718,4266.153846153847,4126.153846153847,4404.615384615385,4109.74358974359,4229.2307692307695
94212,45.0,0.0,0.0,4494.358974358975,4172.820512820514,4351.794871794872,4821.025641025642,3791.2820512820517,4228.205128205129,4255.384615384616,4117.948717948719,4401.538461538462,4103.076923076924,4226.666666666667
94212,46.0,0.0,0.0,4480.512820512821,4169.2307692307695,4344.615384615385,4823.076923076924,3787.1794871794878,4223.589743589744,4253.846153846154,4107.6923076923085,4391.794871794872,4092.307692307693,4231.282051282052
94212,47.0,0.0,0.0,4487.6923076923085,4170.256410256411,4338.974358974359,4824.615384615386,3786.666666666667,4227.6923076923085,4256.410256410257,4109.74358974359,4391.282051282052,4093.333333333334,4232.307692307693
94213,48.0,0.0,0.0,4486.666666666667,4164.615384615385,4338.974358974359,4815.8974358974365,3788.205128205129,4229.2307692307695,4254.871794871796,4121.025641025642,4394.871794871796,4099.48717948718,4227.6923076923085
94213,49.0,0.0,0.0,4483.589743589744,4166.666666666667,4343.589743589744,4822.051282051282,3791.2820512820517,4218.461538461539,4248.717948717949,4121.538461538462,4392.820512820514,4094.8717948717954,4228.205128205129
94213,50.0,0.0,0.0,4492.307692307693,4172.820512820514,4346.153846153847,4819.48717948718,3782.564102564103,4217.435897435898,4251.794871794872,4117.948717948719,4396.410256410257,4098.461538461539,4226.153846153847
94213,51.0,0.0,0.0,4497.435897435898,4172.820512820514,4344.615384615385,4825.128205128206,3784.1025641025644,4226.153846153847,4260.512820512821,4122.051282051282,4402.051282051282,4108.717948717949,4228.205128205129
94213,52.0,0.0,0.0,4506.153846153847,4170.256410256411,4345.128205128206,4828.717948717949,3789.2307692307695,4226.666666666667,4264.615384615385,4131.282051282052,4403.589743589744,4114.358974358975,4229.74358974359
94214,53.0,0.0,0.0,4514.871794871796,4171.282051282052,4350.256410256411,4822.564102564103,3782.0512820512827,4223.076923076924,4261.538461538462,4130.769230769231,4403.076923076924,4112.307692307693,4226.666666666667
94214,54.0,0.0,0.0,4491.794871794872,4172.307692307693,4349.743589743591,4830.256410256411,3782.0512820512827,4223.076923076924,4253.333333333334,4116.410256410257,4398.461538461539,4102.564102564103,4228.205128205129
94214,55.0,0.0,0.0,4477.435897435898,4166.153846153847,4346.153846153847,4821.025641025642,3776.410256410257,4226.153846153847,4253.846153846154,4117.948717948719,4401.538461538462,4102.564102564103,4229.2307692307695
94214,56.0,0.0,0.0,4498.974358974359,4171.282051282052,4351.794871794872,4824.615384615386,3776.410256410257,4221.025641025642,4258.461538461539,4131.794871794872,4410.769230769231,4111.794871794872,4230.256410256411
94214,57.0,0.0,0.0,4511.282051282052,4186.153846153847,4363.589743589744,4837.948717948719,3786.1538461538466,4214.358974358975,4256.410256410257,4131.282051282052,4409.743589743591,4117.435897435898,4229.74358974359
94214,58.0,0.0,0.0,4509.743589743591,4187.6923076923085,4366.666666666667,4830.256410256411,3786.1538461538466,4218.461538461539,4256.410256410257,4123.076923076924,4404.102564102564,4117.948717948719,4227.6923076923085
94214,59.0,0.0,0.0,4519.48717948718,4180.512820512821,4358.974358974359,4832.307692307693,3785.1282051282055,4224.102564102564,4257.948717948719,4113.846153846154,4401.538461538462,4110.769230769231,4230.769230769231
94214,60.0,0.0,0.0,4517.948717948719,4172.307692307693,4350.769230769231,4825.641025641026,3781.0256410256416,4226.666666666667,4257.948717948719,4111.282051282052,4399.48717948718,4100.512820512821,4229.2307692307695
94214,61.0,0.0,0.0,4487.6923076923085,4165.128205128206,4346.153846153847,4817.435897435898,3779.48717948718,4224.615384615385,4252.820512820514,4111.794871794872,4394.358974358975,4089.23076923077,4228.205128205129
94214,62.0,0.0,0.0,4474.871794871796,4163.076923076924,4344.615384615385,4818.461538461539,3784.1025641025644,4218.974358974359,4250.769230769231,4110.256410256411,4392.307692307693,4083.076923076924,4228.717948717949
94214,63.0,0.0,0.0,4502.051282051282,4168.205128205129,4349.743589743591,4814.358974358975,3783.589743589744,4214.358974358975,4255.384615384616,4117.435897435898,4400.512820512821,4095.3846153846157,4228.717948717949
94215,64.0,0.0,472.0,4513.846153846154,4174.871794871796,4351.282051282052,4825.128205128206,3780.512820512821,4208.205128205129,4252.820512820514,4122.564102564103,4405.128205128206,4108.205128205129,4230.769230769231
94215,65.0,0.0,315.0,4507.179487179488,4172.820512820514,4348.205128205129,4825.641025641026,3776.410256410257,4214.871794871796,4252.307692307693,4120.512820512821,4401.538461538462,4108.717948717949,4227.179487179487
94215,66.0,0.0,498.0,4511.794871794872,4174.358974358975,4355.384615384616,4824.102564102564,3778.9743589743593,4229.2307692307695,4257.948717948719,4126.153846153847,4405.128205128206,4110.256410256411,4226.153846153847
94215,67.0,0.0,445.0,4500.000000000001,4177.435897435898,4361.025641025642,4830.769230769231,3782.0512820512827,4215.8974358974365,4249.74358974359,4123.076923076924,4403.589743589744,4108.205128205129,4231.282051282052
94215,68.0,0.0,118.0,4473.333333333334,4165.641025641026,4346.666666666667,4815.384615384616,3773.8461538461543,4195.8974358974365,4242.564102564103,4113.333333333334,4391.794871794872,4092.307692307693,4228.717948717949
94215,69.0,0.0,550.0,4479.48717948718,4155.8974358974365,4330.769230769231,4809.2307692307695,3775.8974358974365,4200.512820512821,4248.205128205129,4118.461538461539,4392.307692307693,4080.0000000000005,4227.6923076923085
94215,70.0,0.0,531.0,4505.128205128206,4165.128205128206,4336.410256410257,4817.948717948719,3780.0000000000005,4210.769230769231,4249.74358974359,4123.589743589744,4401.538461538462,4090.7692307692314,4229.74358974359
94215,71.0,0.0,453.0,4505.128205128206,4176.410256410257,4349.743589743591,4822.564102564103,3775.8974358974365,4213.846153846154,4247.179487179487,4112.307692307693,4396.923076923077,4103.589743589744,4229.74358974359
94215,72.0,0.0,380.0,4488.717948717949,4171.282051282052,4346.666666666667,4823.589743589744,3776.9230769230776,4214.871794871796,4245.128205128206,4106.666666666667,4389.2307692307695,4096.923076923077,4229.2307692307695
94216,73.0,0.0,463.0,4489.743589743591,4165.128205128206,4348.717948717949,4816.923076923077,3777.435897435898,4216.923076923077,4247.179487179487,4120.000000000001,4400.000000000001,4095.3846153846157,4228.717948717949
94216,74.0,0.0,492.0,4499.48717948718,4172.307692307693,4361.025641025642,4822.051282051282,3775.8974358974365,4213.333333333334,4250.769230769231,4123.589743589744,4403.589743589744,4100.512820512821,4229.2307692307695
94216,75.0,0.0,374.0,4497.435897435898,4175.384615384616,4358.461538461539,4826.153846153847,3774.358974358975,4214.871794871796,4255.384615384616,4116.923076923077,4395.384615384616,4098.974358974359,4227.179487179487
94216,76.0,0.0,0.0,4502.564102564103,4169.74358974359,4348.205128205129,4820.512820512821,3776.9230769230776,4220.000000000001,4256.410256410257,4118.974358974359,4398.974358974359,4100.512820512821,4225.641025641026
94216,77.0,0.0,292.0,4507.179487179488,4167.6923076923085,4345.641025641026,4819.48717948718,3781.0256410256416,4209.74358974359,4249.2307692307695,4115.384615384616,4398.974358974359,4098.461538461539,4229.2307692307695
94226,78.0,0.0,492.0,4483.589743589744,4165.641025641026,4350.256410256411,4815.384615384616,3777.435897435898,4207.6923076923085,4251.794871794872,4114.358974358975,4395.384615384616,4091.2820512820517,4228.717948717949
94226,79.0,0.0,374.0,4475.384615384616,4168.205128205129,4355.384615384616,4823.076923076924,3780.512820512821,4221.538461538462,4264.102564102564,4121.538461538462,4397.948717948719,4093.333333333334,4228.205128205129
94226,80.0,0.0,0.0,4508.205128205129,4174.871794871796,4357.948717948719,4827.6923076923085,3785.6410256410263,4219.48717948718,4266.666666666667,4125.128205128206,4400.000000000001,4101.025641025642,4230.769230769231
94226,81.0,0.0,292.0,4524.102564102564,4174.358974358975,4353.333333333334,4821.538461538462,3780.0000000000005,4209.74358974359,4256.410256410257,4124.102564102564,4399.48717948718,4101.538461538462,4231.282051282052
94701,82.0,0.0,492.0,4509.2307692307695,4169.74358974359,4346.666666666667,4825.641025641026,3774.358974358975,4211.794871794872,4247.6923076923085,4124.102564102564,4400.512820512821,4095.8974358974365,4228.717948717949
94701,83.0,0.0,374.0,4500.512820512821,4167.6923076923085,4344.102564102564,4823.076923076924,3771.794871794872,4215.8974358974365,4251.282051282052,4121.538461538462,4401.538461538462,4095.8974358974365,4227.179487179487
94701,84.0,0.0,0.0,4500.000000000001,4170.256410256411,4349.2307692307695,4821.025641025642,3773.333333333334,4213.333333333334,4256.410256410257,4115.8974358974365,4401.025641025642,4099.48717948718,4229.74358974359
94701,85.0,0.0,292.0,4492.820512820514,4169.2307692307695,4351.282051282052,4821.025641025642,3774.8717948717954,4214.358974358975,4255.8974358974365,4116.923076923077,4403.589743589744,4096.410256410257,4229.74358974359
94701,86.0,0.0,492.0,4486.666666666667,4163.589743589744,4342.564102564103,4812.820512820514,3772.820512820513,4221.025641025642,4255.384615384616,4122.051282051282,4405.641025641026,4091.2820512820517,4227.179487179487
94701,87.0,0.0,374.0,4491.794871794872,4164.102564102564,4341.538461538462,4813.846153846154,3772.820512820513,4219.48717948718,4257.435897435898,4124.102564102564,4404.102564102564,4094.8717948717954,4228.205128205129
94701,88.0,0.0,0.0,4504.615384615385,4170.769230769231,4352.307692307693,4822.051282051282,3775.8974358974365,4215.8974358974365,4263.076923076924,4127.6923076923085,4408.205128205129,4107.6923076923085,4230.256410256411
94701,89.0,0.0,292.0,4515.384615384616,4176.923076923077,4352.307692307693,4827.179487179488,3775.8974358974365,4218.461538461539,4267.6923076923085,4134.871794871796,4411.794871794872,4116.410256410257,4231.282051282052
94701,90.0,0.0,492.0,4513.333333333334,4176.923076923077,4347.179487179487,4825.641025641026,3772.307692307693,4215.384615384616,4268.205128205129,4135.384615384616,4410.256410256411,4118.974358974359,4228.205128205129
94702,91.0,0.0,374.0,4496.923076923077,4172.307692307693,4351.794871794872,4820.000000000001,3769.2307692307695,4213.333333333334,4264.102564102564,4129.2307692307695,4410.769230769231,4112.307692307693,4226.153846153847
94702,92.0,0.0,0.0,4481.538461538462,4168.717948717949,4351.282051282052,4817.435897435898,3769.7435897435903,4214.871794871796,4253.333333333334,4122.564102564103,4409.743589743591,4102.564102564103,4229.74358974359
94702,93.0,0.0,292.0,4496.923076923077,4170.256410256411,4347.179487179487,4817.948717948719,3773.333333333334,4209.74358974359,4247.6923076923085,4123.589743589744,4406.153846153847,4105.128205128206,4229.2307692307695
94702,94.0,0.0,492.0,4526.153846153847,4174.358974358975,4349.743589743591,4825.641025641026,3774.8717948717954,4201.025641025642,4252.820512820514,4124.615384615385,4404.615384615385,4109.74358974359,4227.179487179487
94702,95.0,0.0,374.0,4522.051282051282,4173.333333333334,4344.615384615385,4825.128205128206,3774.358974358975,4202.051282051282,4253.333333333334,4110.256410256411,4401.025641025642,4100.000000000001,4228.717948717949
94702,96.0,0.0,0.0,4501.025641025642,4168.717948717949,4335.384615384616,4814.358974358975,3773.8461538461543,4204.615384615385,4248.717948717949,4100.512820512821,4396.923076923077,4089.7435897435903,4226.153846153847
94702,97.0,0.0,292.0,4495.384615384616,4169.2307692307695,4342.564102564103,4817.948717948719,3774.8717948717954,4204.102564102564,4252.307692307693,4105.128205128206,4395.8974358974365,4090.7692307692314,4225.128205128206
94702,98.0,0.0,492.0,4498.461538461539,4170.256410256411,4349.743589743591,4822.564102564103,3775.3846153846157,4211.794871794872,4260.000000000001,4114.358974358975,4397.435897435898,4090.2564102564106,4228.717948717949
94702,99.0,0.0,374.0,4495.8974358974365,4167.179487179487,4345.128205128206,4817.948717948719,3775.8974358974365,4212.820512820514,4259.48717948718,4121.025641025642,4400.000000000001,4091.2820512820517,4231.282051282052
94702,100.0,0.0,0.0,4490.256410256411,4165.641025641026,4343.589743589744,4815.8974358974365,3777.9487179487182,4203.076923076924,4252.307692307693,4117.435897435898,4400.512820512821,4093.333333333334,4229.2307692307695
94703,101.0,0.0,292.0,4496.923076923077,4168.205128205129,4349.2307692307695,4818.461538461539,3775.3846153846157,4204.102564102564,4251.282051282052,4107.6923076923085,4396.410256410257,4088.717948717949,4225.641025641026
94703,102.0,0.0,492.0,4511.794871794872,4172.307692307693,4355.384615384616,4825.641025641026,3774.8717948717954,4218.974358974359,4261.025641025642,4112.307692307693,4395.8974358974365,4089.7435897435903,4228.717948717949
94703,103.0,0.0,374.0,4505.128205128206,4167.179487179487,4353.333333333334,4819.48717948718,3775.8974358974365,4218.461538461539,4263.076923076924,4119.48717948718,4395.8974358974365,4090.7692307692314,4230.256410256411
94703,104.0,0.0,0.0,4495.8974358974365,4161.538461538462,4346.153846153847,4812.307692307693,3776.410256410257,4197.435897435898,4252.307692307693,4111.794871794872,4391.794871794872,4082.564102564103,4228.205128205129
94704,105.0,0.0,292.0,4504.615384615385,4169.74358974359,4352.820512820514,4823.076923076924,3779.48717948718,4201.538461538462,4256.410256410257,4113.846153846154,4396.410256410257,4086.666666666667,4227.179487179487
94704,106.0,0.0,492.0,4496.923076923077,4176.923076923077,4365.128205128206,4826.666666666667,3779.48717948718,4224.102564102564,4268.717948717949,4125.128205128206,4403.076923076924,4100.512820512821,4227.179487179487
94705,107.0,0.0,374.0,4493.846153846154,4175.384615384616,4360.000000000001,4823.589743589744,3779.48717948718,4215.384615384616,4259.48717948718,4120.000000000001,4400.512820512821,4098.974358974359,4228.205128205129
94705,108.0,0.0,0.0,4525.128205128206,4179.48717948718,4351.794871794872,4825.641025641026,3786.666666666667,4195.384615384616,4246.153846153847,4117.435897435898,4401.025641025642,4095.8974358974365,4228.205128205129
94705,109.0,0.0,292.0,4535.8974358974365,4187.6923076923085,4353.333333333334,4830.256410256411,3789.2307692307695,4206.153846153847,4251.282051282052,4125.641025641026,4408.205128205129,4105.128205128206,4228.205128205129
94705,110.0,0.0,492.0,4513.846153846154,4181.538461538462,4346.666666666667,4828.205128205129,3783.589743589744,4221.538461538462,4252.820512820514,4117.948717948719,4403.589743589744,4100.512820512821,4229.2307692307695
94705,111.0,0.0,374.0,4503.076923076924,4170.256410256411,4336.410256410257,4817.948717948719,3781.538461538462,4215.384615384616,4249.2307692307695,4114.358974358975,4398.974358974359,4092.820512820513,4229.2307692307695
94705,112.0,0.0,0.0,4491.282051282052,4170.769230769231,4338.974358974359,4818.461538461539,3783.076923076924,4204.615384615385,4256.410256410257,4129.2307692307695,4407.179487179487,4097.948717948719,4228.205128205129
94706,113.0,0.0,292.0,4485.641025641026,4173.846153846154,4341.538461538462,4822.564102564103,3783.589743589744,4198.974358974359,4255.8974358974365,4131.794871794872,4410.256410256411,4102.564102564103,4224.615384615385
94706,114.0,0.0,492.0,4506.666666666667,4171.794871794872,4336.410256410257,4820.000000000001,3784.1025641025644,4201.025641025642,4249.2307692307695,4122.051282051282,4405.128205128206,4101.025641025642,4224.102564102564
94706,115.0,0.0,374.0,4507.179487179488,4170.256410256411,4333.846153846154,4817.948717948719,3782.0512820512827,4207.6923076923085,4251.794871794872,4119.48717948718,4398.974358974359,4093.333333333334,4226.153846153847
94706,116.0,0.0,0.0,4497.948717948719,4172.820512820514,4340.000000000001,4819.48717948718,3780.512820512821,4205.128205128206,4253.333333333334,4124.615384615385,4399.48717948718,4086.666666666667,4225.128205128206
94706,117.0,0.0,292.0,4522.564102564103,4181.025641025642,4349.743589743591,4828.717948717949,3786.666666666667,4194.358974358975,4248.717948717949,4127.179487179487,4403.589743589744,4095.3846153846157,4228.205128205129
94706,118.0,0.0,492.0,4524.102564102564,4185.641025641026,4355.8974358974365,4832.307692307693,3789.7435897435903,4190.769230769231,4250.256410256411,4123.589743589744,4402.564102564103,4103.589743589744,4232.307692307693
94707,119.0,0.0,374.0,4489.743589743591,4182.051282051282,4357.435897435898,4827.6923076923085,3784.1025641025644,4203.589743589744,4257.435897435898,4126.153846153847,4402.564102564103,4095.8974358974365,4228.717948717949
94707,120.0,0.0,0.0,4491.794871794872,4178.461538461539,4352.307692307693,4826.666666666667,3782.0512820512827,4214.358974358975,4253.846153846154,4130.256410256411,4403.589743589744,4087.1794871794878,4226.666666666667
94707,121.0,0.0,292.0,4511.794871794872,4176.410256410257,4342.051282051282,4822.564102564103,3782.0512820512827,4213.333333333334,4243.076923076924,4114.358974358975,4395.8974358974365,4082.0512820512827,4226.666666666667
94707,122.0,0.0,492.0,4513.333333333334,4180.000000000001,4343.589743589744,4827.179487179488,3781.538461538462,4215.384615384616,4245.641025641026,4102.051282051282,4392.307692307693,4082.564102564103,4228.205128205129
94707,123.0,0.0,374.0,4512.820512820514,4180.512820512821,4350.769230769231,4832.307692307693,3781.538461538462,4218.461538461539,4254.871794871796,4109.74358974359,4398.461538461539,4085.6410256410263,4228.717948717949
94707,124.0,0.0,0.0,4499.48717948718,4169.2307692307695,4343.589743589744,4821.538461538462,3781.0256410256416,4217.435897435898,4250.769230769231,4108.205128205129,4393.846153846154,4080.0000000000005,4228.205128205129
94707,125.0,0.0,292.0,4491.794871794872,4168.717948717949,4340.000000000001,4820.000000000001,3789.7435897435903,4216.923076923077,4246.153846153847,4106.666666666667,4389.743589743591,4081.538461538462,4230.256410256411
94707,126.0,0.0,492.0,4512.307692307693,4185.641025641026,4351.794871794872,4831.282051282052,3800.0000000000005,4220.000000000001,4257.948717948719,4127.6923076923085,4405.128205128206,4105.128205128206,4231.282051282052
94707,127.0,0.0,374.0,4517.435897435898,4189.74358974359,4359.48717948718,4833.846153846154,3794.8717948717954,4221.538461538462,4264.615384615385,4137.435897435898,4413.333333333334,4118.461538461539,4229.2307692307695
94707,128.0,0.0,0.0,4502.564102564103,4176.923076923077,4351.794871794872,4826.666666666667,3784.1025641025644,4212.307692307693,4251.282051282052,4121.538461538462,4400.000000000001,4101.538461538462,4229.74358974359
94707,0.0,0.0,472.0,4510.769230769231,4172.307692307693,4344.615384615385,4824.102564102564,3781.0256410256416,4203.076923076924,4244.615384615385,4118.974358974359,4395.8974358974365,4089.23076923077,4230.256410256411
94708,1.0,0.0,315.0,4519.48717948718,4178.974358974359,4349.743589743591,4831.282051282052,3780.512820512821,4216.410256410257,4257.435897435898,4136.410256410257,4412.820512820514,4102.051282051282,4228.717948717949
94708,2.0,0.0,498.0,4509.743589743591,4181.538461538462,4351.794871794872,4832.307692307693,3778.461538461539,4235.384615384616,4266.666666666667,4143.076923076924,4421.538461538462,4111.282051282052,4228.717948717949
94708,3.0,0.0,445.0,4503.076923076924,4176.410256410257,4344.615384615385,4826.666666666667,3780.512820512821,4234.358974358975,4260.512820512821,4129.74358974359,4404.615384615385,4097.435897435898,4229.74358974359
94708,4.0,0.0,118.0,4496.923076923077,4174.871794871796,4340.512820512821,4824.102564102564,3783.076923076924,4226.666666666667,4252.307692307693,4113.846153846154,4386.666666666667,4081.0256410256416,4227.6923076923085
94708,5.0,0.0,550.0,4496.923076923077,4175.8974358974365,4344.615384615385,4823.589743589744,3777.435897435898,4219.48717948718,4248.205128205129,4114.358974358975,4390.769230769231,4083.076923076924,4226.666666666667
94708,6.0,0.0,531.0,4507.6923076923085,4174.358974358975,4345.641025641026,4827.179487179488,3773.8461538461543,4214.871794871796,4245.641025641026,4124.615384615385,4398.461538461539,4091.7948717948725,4229.2307692307695
94708,7.0,0.0,453.0,4512.820512820514,4177.948717948719,4348.205128205129,4829.2307692307695,3778.9743589743593,4227.179487179487,4250.256410256411,4124.615384615385,4400.512820512821,4096.923076923077,4230.256410256411
94708,8.0,0.0,380.0,4516.923076923077,4184.102564102564,4355.384615384616,4830.256410256411,3783.589743589744,4233.846153846154,4255.384615384616,4123.589743589744,4405.641025641026,4098.461538461539,4230.769230769231
94708,9.0,0.0,463.0,4527.179487179488,4184.102564102564,4359.48717948718,4835.384615384616,3783.076923076924,4217.435897435898,4253.846153846154,4129.2307692307695,4410.769230769231,4098.974358974359,4229.2307692307695
94709,10.0,0.0,492.0,4519.48717948718,4182.564102564103,4361.025641025642,4833.846153846154,3784.615384615385,4219.48717948718,4256.923076923077,4134.358974358975,4412.820512820514,4105.128205128206,4228.717948717949
94709,11.0,0.0,374.0,4504.102564102564,4183.589743589744,4359.48717948718,4831.794871794872,3786.666666666667,4233.333333333334,4260.000000000001,4131.282051282052,4411.794871794872,4109.74358974359,4230.256410256411
94709,12.0,0.0,0.0,4503.589743589744,4180.000000000001,4351.282051282052,4829.743589743591,3785.1282051282055,4222.564102564103,4254.358974358975,4123.589743589744,4405.128205128206,4099.48717948718,4226.153846153847
94730,13.0,0.0,292.0,4507.179487179488,4176.923076923077,4349.743589743591,4828.205128205129,3784.615384615385,4219.48717948718,4256.923076923077,4126.666666666667,4403.076923076924,4092.820512820513,4223.589743589744
94730,14.0,0.0,492.0,4511.282051282052,4180.512820512821,4353.333333333334,4831.282051282052,3787.1794871794878,4234.358974358975,4266.666666666667,4137.948717948719,4410.769230769231,4098.974358974359,4228.205128205129
94730,15.0,0.0,374.0,4516.410256410257,4178.974358974359,4350.256410256411,4828.205128205129,3786.1538461538466,4228.717948717949,4261.025641025642,4138.461538461539,4414.358974358975,4099.48717948718,4228.717948717949
94730,16.0,0.0,0.0,4522.051282051282,4177.948717948719,4350.256410256411,4826.153846153847,3782.0512820512827,4211.282051282052,4250.769230769231,4129.2307692307695,4408.205128205129,4096.923076923077,4227.179487179487
94954,17.0,0.0,0.0,4514.871794871796,4183.076923076924,4355.384615384616,4829.743589743591,3780.0000000000005,4214.358974358975,4250.256410256411,4123.076923076924,4401.538461538462,4096.410256410257,4229.74358974359
94954,18.0,0.0,0.0,4502.051282051282,4179.48717948718,4350.769230769231,4827.6923076923085,3781.0256410256416,4224.615384615385,4248.717948717949,4119.48717948718,4396.410256410257,4087.1794871794878,4229.74358974359
94954,19.0,0.0,0.0,4499.48717948718,4171.794871794872,4348.717948717949,4827.179487179488,3785.1282051282055,4223.076923076924,4243.589743589744,4114.871794871796,4397.948717948719,4082.564102564103,4226.153846153847
94954,20.0,0.0,0.0,4493.846153846154,4168.205128205129,4349.743589743591,4824.102564102564,3784.615384615385,4224.102564102564,4246.666666666667,4113.333333333334,4402.051282051282,4088.205128205129,4224.615384615385
94954,21.0,0.0,0.0,4490.769230769231,4168.205128205129,4346.666666666667,4820.512820512821,3781.538461538462,4233.333333333334,4254.871794871796,4116.410256410257,4402.564102564103,4088.205128205129,4227.6923076923085
94954,22.0,0.0,0.0,4508.205128205129,4171.794871794872,4347.179487179487,4824.102564102564,3777.9487179487182,4233.846153846154,4257.435897435898,4125.641025641026,4403.076923076924,4088.717948717949,4230.256410256411
94954,23.0,0.0,0.0,4517.948717948719,4172.820512820514,4346.153846153847,4823.076923076924,3773.333333333334,4228.205128205129,4254.871794871796,4130.256410256411,4406.153846153847,4092.307692307693,4229.2307692307695
94955,24.0,0.0,0.0,4498.461538461539,4169.2307692307695,4345.641025641026,4822.564102564103,3773.333333333334,4229.2307692307695,4255.384615384616,4124.615384615385,4403.589743589744,4086.1538461538466,4229.2307692307695
94955,25.0,0.0,0.0,4490.769230769231,4171.282051282052,4352.307692307693,4824.102564102564,3776.410256410257,4227.6923076923085,4253.846153846154,4117.948717948719,4396.923076923077,4081.538461538462,4226.153846153847
94956,26.0,0.0,0.0,4505.128205128206,4177.435897435898,4360.512820512821,4826.153846153847,3777.435897435898,4219.48717948718,4245.641025641026,4115.384615384616,4393.846153846154,4090.2564102564106,4225.128205128206
94956,27.0,0.0,0.0,4506.666666666667,4178.974358974359,4361.538461538462,4829.743589743591,3778.461538461539,4216.410256410257,4241.025641025642,4112.307692307693,4395.384615384616,4092.820512820513,4230.256410256411
94956,28.0,0.0,0.0,4500.000000000001,4177.435897435898,4359.48717948718,4826.666666666667,3777.435897435898,4221.538461538462,4243.589743589744,4110.769230769231,4400.000000000001,4087.1794871794878,4230.256410256411
94957,29.0,0.0,0.0,4502.564102564103,4176.410256410257,4354.358974358975,4825.128205128206,3778.461538461539,4224.102564102564,4240.512820512821,4108.205128205129,4400.000000000001,4082.564102564103,4227.179487179487
94957,30.0,0.0,0.0,4514.358974358975,4177.435897435898,4352.820512820514,4827.179487179488,3783.076923076924,4221.538461538462,4240.000000000001,4106.666666666667,4397.948717948719,4081.538461538462,4229.2307692307695
94957,31.0,0.0,0.0,4522.051282051282,4178.974358974359,4356.923076923077,4827.6923076923085,3783.076923076924,4217.435897435898,4246.153846153847,4111.794871794872,4402.564102564103,4087.692307692308,4231.282051282052
94957,32.0,0.0,0.0,4520.512820512821,4180.512820512821,4358.461538461539,4829.2307692307695,3777.435897435898,4215.8974358974365,4244.615384615385,4115.8974358974365,4405.641025641026,4094.8717948717954,4229.2307692307695
94957,33.0,0.0,0.0,4504.615384615385,4177.948717948719,4357.948717948719,4826.153846153847,3775.3846153846157,4212.820512820514,4240.512820512821,4113.846153846154,4401.538461538462,4094.358974358975,4226.666666666667
94957,34.0,0.0,0.0,4488.717948717949,4169.74358974359,4355.384615384616,4821.538461538462,3774.358974358975,4208.205128205129,4241.538461538462,4107.6923076923085,4395.384615384616,4083.589743589744,4226.153846153847
94957,35.0,0.0,0.0,4502.564102564103,4169.2307692307695,4350.256410256411,4822.051282051282,3771.2820512820517,4215.8974358974365,4245.641025641026,4105.641025641026,4394.871794871796,4078.9743589743593,4228.205128205129
94957,36.0,0.0,0.0,4522.051282051282,4178.974358974359,4352.307692307693,4826.666666666667,3772.820512820513,4232.820512820514,4251.794871794872,4114.871794871796,4400.000000000001,4087.692307692308,4230.256410256411
94958,37.0,0.0,0.0,4512.307692307693,4180.000000000001,4354.871794871796,4827.179487179488,3776.410256410257,4232.820512820514,4248.717948717949,4116.410256410257,4395.384615384616,4086.1538461538466,4227.6923076923085
94958,38.0,0.0,0.0,4507.179487179488,4173.333333333334,4356.410256410257,4824.102564102564,3773.8461538461543,4226.666666666667,4243.076923076924,4109.74358974359,4389.2307692307695,4080.0000000000005,4223.589743589744
94958,39.0,0.0,0.0,4529.743589743591,4182.564102564103,4368.205128205129,4831.282051282052,3777.435897435898,4236.923076923077,4255.384615384616,4125.128205128206,4405.128205128206,4096.923076923077,4228.717948717949
94958,40.0,0.0,0.0,4532.307692307693,4193.333333333334,4379.48717948718,4839.48717948718,3786.1538461538466,4252.820512820514,4269.74358974359,4145.128205128206,4421.538461538462,4116.410256410257,4232.820512820514
94958,41.0,0.0,0.0,4508.717948717949,4184.615384615385,4370.769230769231,4830.769230769231,3783.589743589744,4256.923076923077,4267.6923076923085,4136.410256410257,4410.769230769231,4109.2307692307695,4227.6923076923085
94958,42.0,0.0,0.0,4503.076923076924,4172.820512820514,4355.8974358974365,4826.153846153847,3778.461538461539,4247.6923076923085,4261.025641025642,4127.6923076923085,4403.589743589744,4097.435897435898,4227.6923076923085
94958,43.0,0.0,0.0,4514.871794871796,4173.846153846154,4351.794871794872,4826.666666666667,3782.0512820512827,4239.48717948718,4260.000000000001,4138.461538461539,4415.8974358974365,4101.025641025642,4230.769230769231
94958,44.0,0.0,0.0,4519.48717948718,4177.435897435898,4354.358974358975,4826.153846153847,3785.6410256410263,4247.6923076923085,4258.461538461539,4137.435897435898,4416.410256410257,4103.076923076924,4230.256410256411
95075,45.0,0.0,0.0,4504.102564102564,4174.871794871796,4358.974358974359,4826.153846153847,3783.076923076924,4255.8974358974365,4257.948717948719,4124.102564102564,4403.589743589744,4099.48717948718,4229.74358974359
95075,46.0,0.0,0.0,4485.128205128206,4171.794871794872,4360.512820512821,4822.051282051282,3782.0512820512827,4251.794871794872,4262.051282051282,4125.641025641026,4397.948717948719,4095.8974358974365,4227.6923076923085
95075,47.0,0.0,0.0,4489.2307692307695,4170.769230769231,4356.410256410257,4823.076923076924,3788.717948717949,4249.2307692307695,4263.076923076924,4133.846153846154,4399.48717948718,4088.205128205129,4227.6923076923085
95075,48.0,0.0,0.0,4508.205128205129,4170.256410256411,4351.282051282052,4822.051282051282,3794.358974358975,4247.179487179487,4259.48717948718,4131.794871794872,4402.051282051282,4082.0512820512827,4230.256410256411
95075,49.0,0.0,0.0,4506.666666666667,4169.2307692307695,4349.2307692307695,4816.923076923077,3792.820512820513,4238.461538461539,4252.307692307693,4118.461538461539,4398.461538461539,4083.589743589744,4230.769230769231
95076,50.0,0.0,0.0,4489.743589743591,4168.205128205129,4345.641025641026,4816.923076923077,3790.2564102564106,4242.564102564103,4247.6923076923085,4106.666666666667,4388.717948717949,4079.48717948718,4230.256410256411
95076,51.0,0.0,0.0,4495.384615384616,4169.74358974359,4345.128205128206,4819.48717948718,3789.2307692307695,4252.307692307693,4252.820512820514,4113.846153846154,4391.282051282052,4075.3846153846157,4229.2307692307695
95076,52.0,0.0,0.0,4510.769230769231,4175.384615384616,4355.8974358974365,4826.153846153847,3791.7948717948725,4244.615384615385,4257.435897435898,4125.128205128206,4403.076923076924,4085.6410256410263,4229.74358974359
95076,53.0,0.0,0.0,4509.2307692307695,4176.410256410257,4363.076923076924,4825.128205128206,3791.7948717948725,4230.769230769231,4249.74358974359,4124.102564102564,4404.615384615385,4098.974358974359,4231.282051282052
95076,54.0,0.0,0.0,4501.025641025642,4172.307692307693,4357.948717948719,4820.000000000001,3783.589743589744,4230.256410256411,4244.615384615385,4123.589743589744,4404.615384615385,4098.974358974359,4231.794871794872
95076,55.0,0.0,0.0,4508.205128205129,4177.435897435898,4356.410256410257,4826.666666666667,3778.461538461539,4244.615384615385,4253.846153846154,4137.948717948719,4412.820512820514,4097.435897435898,4230.769230769231
95076,56.0,0.0,0.0,4513.333333333334,4181.538461538462,4356.923076923077,4828.205128205129,3783.589743589744,4254.871794871796,4263.076923076924,4150.256410256411,4417.435897435898,4103.076923076924,4229.2307692307695
95076,57.0,0.0,0.0,4504.102564102564,4173.333333333334,4347.6923076923085,4821.025641025642,3788.205128205129,4245.128205128206,4256.410256410257,4144.615384615385,4413.846153846154,4099.48717948718,4230.769230769231
95076,58.0,0.0,0.0,4499.48717948718,4170.769230769231,4343.589743589744,4821.025641025642,3786.1538461538466,4232.820512820514,4253.333333333334,4140.512820512821,4411.794871794872,4090.7692307692314,4228.205128205129
95077,59.0,0.0,0.0,4512.820512820514,4179.48717948718,4353.333333333334,4827.6923076923085,3787.1794871794878,4233.846153846154,4262.051282051282,4149.2307692307695,4416.410256410257,4095.8974358974365,4228.205128205129
95077,60.0,0.0,0.0,4527.179487179488,4184.615384615385,4356.923076923077,4831.794871794872,3792.820512820513,4235.8974358974365,4264.102564102564,4147.179487179487,4417.948717948719,4103.589743589744,4232.820512820514
95204,61.0,0.0,0.0,4506.666666666667,4178.461538461539,4350.256410256411,4823.076923076924,3794.358974358975,4239.48717948718,4259.48717948718,4130.256410256411,4408.205128205129,4096.923076923077,4230.256410256411
95204,62.0,0.0,0.0,4482.564102564103,4175.8974358974365,4350.256410256411,4820.000000000001,3790.7692307692314,4245.641025641026,4257.435897435898,4118.461538461539,4398.974358974359,4087.692307692308,4227.6923076923085
95204,63.0,0.0,0.0,4504.615384615385,4183.589743589744,4356.410256410257,4829.2307692307695,3789.2307692307695,4237.948717948719,4253.846153846154,4124.615384615385,4404.615384615385,4092.307692307693,4231.282051282052
95204,64.0,0.0,472.0,4530.256410256411,4188.205128205129,4356.410256410257,4832.307692307693,3791.2820512820517,4229.2307692307695,4247.6923076923085,4134.358974358975,4415.384615384616,4099.48717948718,4231.282051282052
95204,65.0,0.0,317.0,4521.538461538462,4184.102564102564,4353.333333333334,4828.205128205129,3794.8717948717954,4231.282051282052,4248.205128205129,4133.333333333334,4414.871794871796,4099.48717948718,4232.307692307693
95204,66.0,0.0,498.0,4503.589743589744,4177.435897435898,4351.794871794872,4824.615384615386,3796.410256410257,4234.871794871796,4249.74358974359,4125.128205128206,4409.2307692307695,4096.410256410257,4232.307692307693
95205,67.0,0.0,445.0,4499.48717948718,4178.461538461539,4349.743589743591,4825.128205128206,3793.8461538461543,4231.282051282052,4250.256410256411,4124.102564102564,4410.769230769231,4095.8974358974365,4227.6923076923085
95205,68.0,0.0,118.0,4504.102564102564,4180.000000000001,4345.641025641026,4823.589743589744,3789.7435897435903,4224.615384615385,4252.307692307693,4126.153846153847,4414.358974358975,4092.307692307693,4226.666666666667
95205,69.0,0.0,550.0,4513.333333333334,4177.948717948719,4347.179487179487,4820.512820512821,3787.692307692308,4225.128205128206,4260.000000000001,4130.769230769231,4412.307692307693,4087.1794871794878,4230.769230769231
95205,70.0,0.0,531.0,4511.794871794872,4179.48717948718,4355.384615384616,4826.666666666667,3790.7692307692314,4234.871794871796,4265.641025641026,4138.461538461539,4411.794871794872,4092.820512820513,4231.794871794872
95205,71.0,0.0,453.0,4496.923076923077,4179.48717948718,4353.333333333334,4825.128205128206,3791.7948717948725,4239.48717948718,4262.051282051282,4140.000000000001,4415.384615384616,4099.48717948718,4229.2307692307695
95205,72.0,0.0,380.0,4505.128205128206,4180.512820512821,4347.6923076923085,4822.564102564103,3787.692307692308,4241.538461538462,4261.025641025642,4143.589743589744,4418.461538461539,4098.461538461539,4228.205128205129
95205,73.0,0.0,463.0,4524.102564102564,4185.128205128206,4354.358974358975,4829.2307692307695,3791.2820512820517,4242.564102564103,4267.6923076923085,4153.333333333334,4421.538461538462,4103.589743589744,4230.256410256411
95205,74.0,0.0,492.0,4519.48717948718,4180.512820512821,4359.48717948718,4826.153846153847,3797.435897435898,4232.307692307693,4265.128205128206,4149.74358974359,4421.025641025642,4110.256410256411,4230.256410256411
95205,75.0,0.0,374.0,4506.153846153847,4175.8974358974365,4353.333333333334,4821.025641025642,3795.8974358974365,4220.512820512821,4252.307692307693,4133.846153846154,4415.384615384616,4107.6923076923085,4229.74358974359
95206,76.0,0.0,0.0,4504.102564102564,4175.8974358974365,4345.641025641026,4820.512820512821,3786.666666666667,4223.076923076924,4246.153846153847,4121.025641025642,4406.666666666667,4095.8974358974365,4227.179487179487
95228,77.0,0.0,291.0,4502.564102564103,4170.769230769231,4343.076923076924,4816.923076923077,3781.0256410256416,4226.666666666667,4249.2307692307695,4116.410256410257,4399.48717948718,4087.1794871794878,4226.666666666667
95228,78.0,0.0,492.0,4502.051282051282,4172.820512820514,4351.282051282052,4821.025641025642,3788.717948717949,4218.974358974359,4254.358974358975,4119.48717948718,4402.051282051282,4092.307692307693,4231.794871794872
95228,79.0,0.0,374.0,4515.8974358974365,4181.025641025642,4361.025641025642,4825.641025641026,3798.461538461539,4213.846153846154,4255.8974358974365,4127.6923076923085,4409.2307692307695,4101.025641025642,4232.820512820514
95228,80.0,0.0,0.0,4518.461538461539,4179.48717948718,4358.974358974359,4823.589743589744,3794.8717948717954,4216.410256410257,4254.871794871796,4130.256410256411,4408.205128205129,4094.358974358975,4229.2307692307695
95327,81.0,0.0,291.0,4495.384615384616,4170.769230769231,4349.2307692307695,4817.948717948719,3786.666666666667,4217.948717948719,4253.333333333334,4123.589743589744,4404.615384615385,4083.076923076924,4228.205128205129
95327,82.0,0.0,492.0,4483.076923076924,4169.2307692307695,4344.102564102564,4813.333333333334,3786.1538461538466,4215.384615384616,4249.74358974359,4115.8974358974365,4403.076923076924,4084.615384615385,4229.2307692307695
95327,83.0,0.0,374.0,4494.358974358975,4172.307692307693,4344.615384615385,4816.410256410257,3785.1282051282055,4210.769230769231,4245.641025641026,4111.282051282052,4401.538461538462,4089.23076923077,4229.2307692307695
95327,84.0,0.0,0.0,4492.820512820514,4169.2307692307695,4346.666666666667,4815.384615384616,3779.48717948718,4208.205128205129,4243.589743589744,4111.282051282052,4401.025641025642,4087.692307692308,4227.6923076923085
95327,85.0,0.0,291.0,4487.179487179488,4168.205128205129,4351.794871794872,4815.8974358974365,3782.564102564103,4211.794871794872,4246.666666666667,4120.512820512821,4408.205128205129,4092.820512820513,4230.256410256411
95327,86.0,0.0,492.0,4508.205128205129,4175.384615384616,4354.358974358975,4822.564102564103,3790.7692307692314,4217.435897435898,4251.282051282052,4135.8974358974365,4416.410256410257,4104.615384615385,4233.333333333334
95328,87.0,0.0,374.0,4522.564102564103,4178.974358974359,4347.179487179487,4822.564102564103,3789.2307692307695,4217.435897435898,4251.282051282052,4137.435897435898,4412.307692307693,4104.102564102564,4230.769230769231
95328,88.0,0.0,0.0,4505.128205128206,4170.769230769231,4337.435897435898,4816.923076923077,3788.717948717949,4214.358974358975,4247.179487179487,4122.564102564103,4402.051282051282,4086.666666666667,4227.6923076923085
95328,89.0,0.0,291.0,4487.179487179488,4165.128205128206,4339.48717948718,4811.794871794872,3794.8717948717954,4215.8974358974365,4247.179487179487,4114.871794871796,4403.589743589744,4080.5128205128212,4227.6923076923085
95328,90.0,0.0,492.0,4484.102564102564,4168.205128205129,4346.666666666667,4813.846153846154,3792.307692307693,4220.512820512821,4253.333333333334,4122.051282051282,4411.794871794872,4089.23076923077,4228.717948717949
95328,91.0,0.0,374.0,4491.282051282052,4168.205128205129,4346.666666666667,4816.410256410257,3787.692307692308,4215.8974358974365,4252.820512820514,4120.000000000001,4405.641025641026,4087.692307692308,4228.717948717949
95328,92.0,0.0,0.0,4502.564102564103,4167.6923076923085,4348.205128205129,4814.358974358975,3797.9487179487182,4211.282051282052,4246.666666666667,4108.205128205129,4395.384615384616,4078.461538461539,4227.6923076923085
95455,93.0,0.0,291.0,4504.615384615385,4172.820512820514,4357.435897435898,4817.435897435898,3811.7948717948725,4220.512820512821,4246.666666666667,4110.769230769231,4397.435897435898,4083.076923076924,4228.717948717949
95455,94.0,0.0,492.0,4509.2307692307695,4178.461538461539,4365.128205128206,4821.538461538462,3809.7435897435903,4229.74358974359,4250.256410256411,4125.128205128206,4405.128205128206,4097.435897435898,4228.717948717949
95455,95.0,0.0,374.0,4517.948717948719,4180.000000000001,4362.564102564103,4821.538461538462,3801.0256410256416,4225.641025641026,4247.6923076923085,4125.641025641026,4409.2307692307695,4103.076923076924,4231.282051282052
95455,96.0,0.0,0.0,4508.717948717949,4176.923076923077,4357.435897435898,4822.051282051282,3801.0256410256416,4214.358974358975,4243.076923076924,4115.384615384616,4404.102564102564,4095.3846153846157,4232.307692307693
95455,97.0,0.0,291.0,4497.948717948719,4174.358974358975,4356.410256410257,4818.461538461539,3802.564102564103,4206.153846153847,4247.179487179487,4120.000000000001,4404.615384615385,4094.8717948717954,4230.256410256411
95455,98.0,0.0,492.0,4505.128205128206,4175.8974358974365,4355.8974358974365,4817.948717948719,3797.9487179487182,4199.48717948718,4251.282051282052,4127.179487179487,4409.2307692307695,4101.025641025642,4232.820512820514
95455,99.0,0.0,374.0,4513.846153846154,4181.538461538462,4357.435897435898,4822.051282051282,3793.8461538461543,4197.948717948719,4252.307692307693,4125.641025641026,4407.6923076923085,4099.48717948718,4234.358974358975
95456,100.0,0.0,0.0,4523.589743589744,4187.6923076923085,4365.128205128206,4829.2307692307695,3795.3846153846157,4208.717948717949,4255.8974358974365,4131.794871794872,4409.743589743591,4103.076923076924,4233.846153846154
95456,101.0,0.0,291.0,4532.307692307693,4189.74358974359,4369.743589743591,4834.358974358975,3797.9487179487182,4216.410256410257,4256.923076923077,4138.461538461539,4416.410256410257,4107.6923076923085,4233.846153846154
95456,102.0,0.0,492.0,4520.512820512821,4183.589743589744,4368.205128205129,4828.717948717949,3796.9230769230776,4212.820512820514,4255.384615384616,4139.48717948718,4417.948717948719,4104.615384615385,4231.794871794872
95456,103.0,0.0,374.0,4516.410256410257,4181.025641025642,4370.769230769231,4828.717948717949,3793.333333333334,4206.666666666667,4252.307692307693,4141.538461538462,4418.461538461539,4110.256410256411,4230.256410256411
95456,104.0,0.0,0.0,4529.2307692307695,4186.666666666667,4371.794871794872,4833.333333333334,3791.7948717948725,4202.564102564103,4250.769230769231,4138.974358974359,4418.461538461539,4119.48717948718,4231.794871794872
95456,105.0,0.0,291.0,4511.794871794872,4183.076923076924,4368.717948717949,4827.6923076923085,3789.7435897435903,4204.615384615385,4253.846153846154,4136.410256410257,4412.820512820514,4110.256410256411,4232.307692307693
95456,106.0,0.0,492.0,4487.6923076923085,4171.282051282052,4367.179487179487,4823.589743589744,3789.2307692307695,4214.358974358975,4257.435897435898,4140.512820512821,4407.179487179487,4092.307692307693,4231.282051282052
95458,107.0,0.0,374.0,4492.307692307693,4168.205128205129,4360.000000000001,4821.025641025642,3789.2307692307695,4220.000000000001,4259.48717948718,4135.8974358974365,4405.128205128206,4087.1794871794878,4230.256410256411
95458,108.0,0.0,0.0,4499.48717948718,4174.358974358975,4352.820512820514,4820.512820512821,3793.333333333334,4213.333333333334,4257.948717948719,4121.538461538462,4402.564102564103,4091.2820512820517,4230.256410256411
95702,109.0,0.0,291.0,4504.615384615385,4179.48717948718,4356.923076923077,4825.128205128206,3796.9230769230776,4209.2307692307695,4255.384615384616,4118.461538461539,4401.538461538462,4096.410256410257,4231.282051282052
95702,110.0,0.0,492.0,4520.512820512821,4180.512820512821,4361.538461538462,4827.179487179488,3798.461538461539,4216.923076923077,4256.923076923077,4129.74358974359,4410.256410256411,4102.051282051282,4229.74358974359
95702,111.0,0.0,374.0,4520.512820512821,4181.025641025642,4362.564102564103,4828.205128205129,3804.1025641025644,4218.974358974359,4257.948717948719,4141.025641025642,4422.051282051282,4112.307692307693,4229.2307692307695
95702,112.0,0.0,0.0,4498.974358974359,4174.358974358975,4361.538461538462,4822.564102564103,3806.1538461538466,4209.74358974359,4248.717948717949,4137.435897435898,4418.974358974359,4110.769230769231,4230.256410256411
95702,113.0,0.0,291.0,4489.743589743591,4167.6923076923085,4353.846153846154,4815.384615384616,3801.0256410256416,4212.307692307693,4246.153846153847,4126.666666666667,4408.205128205129,4095.8974358974365,4231.282051282052
95702,114.0,0.0,492.0,4500.000000000001,4170.769230769231,4348.205128205129,4817.435897435898,3800.512820512821,4221.025641025642,4254.358974358975,4123.589743589744,4403.589743589744,4091.2820512820517,4230.256410256411
95702,115.0,0.0,374.0,4511.794871794872,4171.282051282052,4348.205128205129,4816.410256410257,3798.9743589743593,4207.6923076923085,4249.74358974359,4124.102564102564,4402.564102564103,4093.8461538461543,4227.6923076923085
95702,116.0,0.0,0.0,4519.48717948718,4171.282051282052,4352.820512820514,4815.8974358974365,3794.8717948717954,4190.769230769231,4241.538461538462,4126.666666666667,4407.179487179487,4095.8974358974365,4231.282051282052
95702,117.0,0.0,291.0,4517.435897435898,4174.871794871796,4353.846153846154,4819.48717948718,3796.9230769230776,4201.538461538462,4245.641025641026,4127.6923076923085,4411.794871794872,4099.48717948718,4232.820512820514
95703,118.0,0.0,492.0,4505.641025641026,4174.871794871796,4347.6923076923085,4818.461538461539,3796.9230769230776,4207.6923076923085,4249.74358974359,4124.102564102564,4405.128205128206,4096.923076923077,4229.2307692307695
95703,119.0,0.0,374.0,4492.820512820514,4171.794871794872,4346.153846153847,4815.8974358974365,3790.7692307692314,4198.461538461539,4247.6923076923085,4118.974358974359,4398.974358974359,4090.7692307692314,4228.205128205129
95703,120.0,0.0,0.0,4495.384615384616,4171.282051282052,4349.743589743591,4813.846153846154,3791.7948717948725,4209.2307692307695,4251.282051282052,4115.384615384616,4402.564102564103,4091.2820512820517,4228.205128205129
95703,121.0,0.0,291.0,4514.358974358975,4176.410256410257,4350.256410256411,4819.48717948718,3798.9743589743593,4226.153846153847,4250.256410256411,4114.871794871796,4404.102564102564,4092.820512820513,4229.2307692307695
95703,122.0,0.0,492.0,4517.435897435898,4181.025641025642,4347.6923076923085,4823.589743589744,3801.0256410256416,4213.846153846154,4242.564102564103,4115.8974358974365,4401.538461538462,4093.8461538461543,4230.769230769231
95703,123.0,0.0,374.0,4509.2307692307695,4176.923076923077,4345.641025641026,4818.461538461539,3801.538461538462,4201.025641025642,4242.051282051282,4118.974358974359,4402.564102564103,4093.8461538461543,4229.74358974359
95703,124.0,0.0,0.0,4516.923076923077,4170.769230769231,4342.564102564103,4816.923076923077,3806.1538461538466,4206.153846153847,4238.974358974359,4117.435897435898,4399.48717948718,4088.205128205129,4229.2307692307695
95703,125.0,0.0,291.0,4508.205128205129,4169.2307692307695,4343.076923076924,4814.871794871796,3806.1538461538466,4205.128205128206,4233.333333333334,4113.333333333334,4393.846153846154,4083.076923076924,4230.256410256411
95704,126.0,0.0,492.0,4493.846153846154,4172.307692307693,4349.2307692307695,4815.384615384616,3806.666666666667,4205.128205128206,4236.410256410257,4117.435897435898,4396.923076923077,4089.23076923077,4232.307692307693
95704,127.0,0.0,374.0,4513.846153846154,4177.948717948719,4349.743589743591,4820.512820512821,3807.1794871794878,4215.8974358974365,4243.076923076924,4122.051282051282,4404.102564102564,4094.8717948717954,4231.282051282052
95704,128.0,0.0,0.0,4517.948717948719,4176.923076923077,4343.076923076924,4818.974358974359,3798.461538461539,4216.410256410257,4243.589743589744,4121.538461538462,4402.564102564103,4091.2820512820517,4228.205128205129
95704,0.0,0.0,472.0,4482.564102564103,4168.717948717949,4339.48717948718,4814.358974358975,3791.2820512820517,4210.256410256411,4243.589743589744,4120.512820512821,4395.8974358974365,4085.6410256410263,4229.74358974359
95704,1.0,0.0,316.0,4478.974358974359,4171.282051282052,4345.128205128206,4814.871794871796,3793.333333333334,4215.384615384616,4245.641025641026,4124.102564102564,4399.48717948718,4090.2564102564106,4232.820512820514
95704,2.0,0.0,498.0,4518.461538461539,4183.589743589744,4354.871794871796,4824.102564102564,3798.9743589743593,4220.000000000001,4250.256410256411,4131.794871794872,4410.769230769231,4106.153846153847,4233.333333333334
95705,3.0,0.0,445.0,4532.307692307693,4183.076923076924,4359.48717948718,4827.179487179488,3799.48717948718,4218.461538461539,4251.794871794872,4136.923076923077,4415.8974358974365,4113.846153846154,4231.794871794872
95705,4.0,0.0,118.0,4512.820512820514,4175.8974358974365,4357.435897435898,4821.025641025642,3795.8974358974365,4216.410256410257,4245.641025641026,4135.8974358974365,4411.794871794872,4107.6923076923085,4230.256410256411
95705,5.0,0.0,550.0,4508.205128205129,4179.48717948718,4355.8974358974365,4822.564102564103,3797.435897435898,4216.923076923077,4241.025641025642,4132.307692307693,4405.641025641026,4101.538461538462,4233.333333333334
95705,6.0,0.0,531.0,4524.102564102564,4182.564102564103,4355.384615384616,4824.615384615386,3801.538461538462,4225.641025641026,4244.102564102564,4134.358974358975,4405.641025641026,4104.102564102564,4232.820512820514
95705,7.0,0.0,453.0,4527.6923076923085,4183.076923076924,4360.000000000001,4824.615384615386,3803.076923076924,4229.74358974359,4248.205128205129,4141.025641025642,4412.307692307693,4114.358974358975,4230.769230769231
95706,8.0,0.0,380.0,4511.794871794872,4185.128205128206,4362.051282051282,4828.205128205129,3803.076923076924,4220.512820512821,4247.6923076923085,4141.538461538462,4415.8974358974365,4116.923076923077,4231.794871794872
95706,9.0,0.0,463.0,4506.666666666667,4180.000000000001,4349.2307692307695,4819.48717948718,3801.538461538462,4214.871794871796,4244.615384615385,4132.820512820514,4405.641025641026,4104.102564102564,4232.307692307693
95706,10.0,0.0,493.0,4516.410256410257,4177.435897435898,4340.512820512821,4814.871794871796,3802.564102564103,4223.589743589744,4248.205128205129,4125.641025641026,4396.410256410257,4091.2820512820517,4232.307692307693
95707,11.0,0.0,374.0,4510.769230769231,4184.615384615385,4352.820512820514,4824.615384615386,3805.6410256410263,4236.410256410257,4262.564102564103,4139.48717948718,4408.717948717949,4099.48717948718,4231.794871794872
95728,12.0,0.0,0.0,4498.461538461539,4186.666666666667,4361.538461538462,4827.6923076923085,3802.564102564103,4234.358974358975,4269.2307692307695,4157.948717948719,4420.512820512821,4114.358974358975,4230.769230769231
95728,13.0,0.0,291.0,4511.794871794872,4185.128205128206,4356.923076923077,4823.076923076924,3800.0000000000005,4223.589743589744,4261.025641025642,4153.846153846154,4411.794871794872,4111.282051282052,4230.769230769231
95728,14.0,0.0,493.0,4527.6923076923085,4183.589743589744,4353.333333333334,4820.000000000001,3802.0512820512827,4223.076923076924,4258.461538461539,4144.102564102564,4404.102564102564,4099.48717948718,4230.256410256411
95728,15.0,0.0,374.0,4516.410256410257,4178.974358974359,4352.307692307693,4822.564102564103,3800.512820512821,4222.564102564103,4257.948717948719,4144.102564102564,4407.6923076923085,4094.8717948717954,4230.256410256411
96203,16.0,0.0,0.0,4500.512820512821,4173.333333333334,4345.128205128206,4816.410256410257,3801.538461538462,4213.846153846154,4246.153846153847,4134.358974358975,4401.538461538462,4090.2564102564106,4229.74358974359
96203,17.0,0.0,0.0,4497.948717948719,4171.794871794872,4336.410256410257,4808.205128205129,3805.1282051282055,4214.871794871796,4239.48717948718,4119.48717948718,4392.820512820514,4082.564102564103,4229.74358974359
96203,18.0,0.0,0.0,4509.743589743591,4179.48717948718,4342.051282051282,4818.974358974359,3803.589743589744,4219.48717948718,4248.717948717949,4124.102564102564,4404.102564102564,4092.820512820513,4230.769230769231
96204,19.0,0.0,0.0,4530.256410256411,4189.74358974359,4358.974358974359,4827.179487179488,3799.48717948718,4214.358974358975,4254.871794871796,4139.48717948718,4418.974358974359,4113.846153846154,4230.769230769231
96204,20.0,0.0,0.0,4536.410256410257,4190.256410256411,4363.076923076924,4824.615384615386,3798.461538461539,4209.2307692307695,4244.102564102564,4137.948717948719,4411.794871794872,4115.384615384616,4231.794871794872
96204,21.0,0.0,0.0,4525.128205128206,4185.641025641026,4357.948717948719,4824.615384615386,3796.410256410257,4206.153846153847,4236.923076923077,4130.256410256411,4405.641025641026,4109.2307692307695,4233.333333333334
96204,22.0,0.0,0.0,4523.076923076924,4187.179487179487,4360.512820512821,4825.128205128206,3794.358974358975,4203.589743589744,4241.538461538462,4132.820512820514,4414.358974358975,4112.307692307693,4231.282051282052
96204,23.0,0.0,0.0,4515.384615384616,4186.666666666667,4359.48717948718,4823.589743589744,3799.48717948718,4209.2307692307695,4240.512820512821,4131.282051282052,4410.769230769231,4105.641025641026,4228.205128205129
96204,24.0,0.0,0.0,4500.512820512821,4179.48717948718,4346.153846153847,4818.461538461539,3800.512820512821,4217.948717948719,4240.512820512821,4127.6923076923085,4402.051282051282,4093.333333333334,4227.6923076923085
96204,25.0,0.0,0.0,4509.2307692307695,4175.384615384616,4339.48717948718,4818.974358974359,3795.8974358974365,4214.871794871796,4248.717948717949,4129.74358974359,4407.179487179487,4093.333333333334,4230.769230769231
96205,26.0,0.0,0.0,4511.794871794872,4173.333333333334,4342.051282051282,4817.948717948719,3791.2820512820517,4200.000000000001,4246.153846153847,4124.615384615385,4408.205128205129,4091.7948717948725,4230.256410256411
96205,27.0,0.0,0.0,4494.358974358975,4167.6923076923085,4344.102564102564,4810.769230769231,3792.820512820513,4196.923076923077,4242.564102564103,4121.025641025642,4403.589743589744,4084.1025641025644,4226.666666666667
96205,28.0,0.0,0.0,4498.974358974359,4171.282051282052,4350.769230769231,4814.871794871796,3799.48717948718,4210.256410256411,4254.871794871796,4129.2307692307695,4407.179487179487,4089.23076923077,4231.794871794872
96205,29.0,0.0,0.0,4513.846153846154,4179.48717948718,4358.461538461539,4821.538461538462,3800.0000000000005,4217.948717948719,4260.000000000001,4133.333333333334,4411.794871794872,4097.948717948719,4234.358974358975
96205,30.0,0.0,0.0,4517.435897435898,4183.589743589744,4360.512820512821,4823.076923076924,3800.0000000000005,4216.923076923077,4252.307692307693,4133.846153846154,4415.8974358974365,4103.589743589744,4229.74358974359
96205,31.0,0.0,0.0,4525.128205128206,4186.153846153847,4357.948717948719,4826.666666666667,3803.589743589744,4220.512820512821,4252.307692307693,4135.384615384616,4419.48717948718,4111.794871794872,4229.2307692307695
96206,32.0,0.0,0.0,4524.615384615385,4185.128205128206,4356.923076923077,4824.615384615386,3803.076923076924,4219.48717948718,4251.794871794872,4127.179487179487,4412.307692307693,4113.333333333334,4230.769230769231
96206,33.0,0.0,0.0,4508.717948717949,4181.025641025642,4354.871794871796,4822.564102564103,3799.48717948718,4207.6923076923085,4243.589743589744,4116.410256410257,4406.666666666667,4103.076923076924,4231.282051282052
96206,34.0,0.0,0.0,4509.743589743591,4181.538461538462,4354.358974358975,4822.564102564103,3800.512820512821,4205.128205128206,4241.025641025642,4118.461538461539,4409.743589743591,4098.974358974359,4228.717948717949
96206,35.0,0.0,0.0,4520.000000000001,4184.102564102564,4358.461538461539,4824.615384615386,3803.076923076924,4215.8974358974365,4246.153846153847,4126.153846153847,4412.820512820514,4106.153846153847,4226.666666666667
96206,36.0,0.0,0.0,4515.384615384616,4181.538461538462,4356.410256410257,4828.205128205129,3800.0000000000005,4219.48717948718,4249.2307692307695,4130.769230769231,4414.871794871796,4106.666666666667,4229.74358974359
96206,37.0,0.0,0.0,4505.641025641026,4175.384615384616,4346.666666666667,4822.564102564103,3792.820512820513,4211.282051282052,4249.74358974359,4132.820512820514,4415.8974358974365,4103.076923076924,4231.794871794872
96206,38.0,0.0,0.0,4508.717948717949,4175.8974358974365,4347.179487179487,4820.000000000001,3791.2820512820517,4209.74358974359,4250.769230769231,4125.641025641026,4413.846153846154,4107.179487179487,4230.769230769231
96207,39.0,0.0,0.0,4521.025641025642,4182.051282051282,4354.871794871796,4823.589743589744,3792.307692307693,4213.846153846154,4252.307692307693,4125.641025641026,4414.871794871796,4112.820512820514,4229.2307692307695
96207,40.0,0.0,0.0,4511.282051282052,4180.000000000001,4351.794871794872,4821.025641025642,3792.820512820513,4217.948717948719,4255.8974358974365,4136.923076923077,4416.923076923077,4109.2307692307695,4229.2307692307695
96207,41.0,0.0,0.0,4493.333333333334,4171.794871794872,4342.564102564103,4817.435897435898,3792.820512820513,4220.512820512821,4256.923076923077,4131.794871794872,4408.205128205129,4094.358974358975,4230.769230769231
96208,42.0,0.0,0.0,4502.564102564103,4172.307692307693,4345.128205128206,4814.358974358975,3791.7948717948725,4215.8974358974365,4254.358974358975,4123.589743589744,4402.564102564103,4089.23076923077,4231.282051282052
96208,43.0,0.0,0.0,4520.000000000001,4181.538461538462,4355.384615384616,4820.000000000001,3789.7435897435903,4206.666666666667,4249.74358974359,4136.410256410257,4411.794871794872,4103.589743589744,4230.769230769231
96208,44.0,0.0,0.0,4517.435897435898,4184.102564102564,4360.000000000001,4828.717948717949,3792.820512820513,4208.717948717949,4252.307692307693,4153.333333333334,4423.076923076924,4116.923076923077,4231.282051282052
96208,45.0,0.0,0.0,4518.461538461539,4183.589743589744,4362.051282051282,4826.153846153847,3799.48717948718,4225.128205128206,4259.48717948718,4157.948717948719,4427.179487179487,4120.000000000001,4231.282051282052
96208,46.0,0.0,0.0,4525.128205128206,4186.666666666667,4362.564102564103,4825.641025641026,3796.9230769230776,4224.102564102564,4260.000000000001,4152.820512820514,4424.102564102564,4118.974358974359,4231.794871794872
96208,47.0,0.0,0.0,4505.128205128206,4178.974358974359,4354.871794871796,4820.512820512821,3787.1794871794878,4206.153846153847,4260.000000000001,4141.025641025642,4415.384615384616,4111.282051282052,4230.769230769231
96208,48.0,0.0,0.0,4493.846153846154,4168.205128205129,4346.666666666667,4813.846153846154,3786.666666666667,4206.666666666667,4257.435897435898,4127.6923076923085,4406.666666666667,4098.461538461539,4228.717948717949
96208,49.0,0.0,0.0,4516.923076923077,4175.384615384616,4345.128205128206,4818.461538461539,3793.8461538461543,4220.512820512821,4252.820512820514,4124.615384615385,4405.128205128206,4092.820512820513,4227.6923076923085
96209,50.0,0.0,0.0,4526.153846153847,4186.666666666667,4350.256410256411,4825.128205128206,3795.8974358974365,4224.102564102564,4258.461538461539,4127.6923076923085,4410.769230769231,4098.461538461539,4226.666666666667
96209,51.0,0.0,0.0,4505.641025641026,4184.615384615385,4356.923076923077,4827.179487179488,3796.410256410257,4217.948717948719,4260.512820512821,4126.666666666667,4414.871794871796,4103.076923076924,4228.717948717949
96209,52.0,0.0,0.0,4495.8974358974365,4175.8974358974365,4355.8974358974365,4821.538461538462,3795.8974358974365,4207.6923076923085,4249.74358974359,4123.076923076924,4408.205128205129,4095.8974358974365,4231.282051282052
96209,53.0,0.0,0.0,4511.282051282052,4174.871794871796,4348.205128205129,4818.974358974359,3792.307692307693,4206.666666666667,4246.153846153847,4121.538461538462,4397.435897435898,4083.589743589744,4230.769230769231
96209,54.0,0.0,0.0,4520.000000000001,4179.48717948718,4343.589743589744,4822.564102564103,3788.717948717949,4220.512820512821,4255.8974358974365,4122.564102564103,4400.000000000001,4081.538461538462,4229.74358974359
96209,55.0,0.0,0.0,4509.743589743591,4180.512820512821,4342.051282051282,4820.512820512821,3786.1538461538466,4222.564102564103,4257.948717948719,4123.076923076924,4407.179487179487,4086.1538461538466,4227.179487179487
96209,56.0,0.0,0.0,4508.205128205129,4181.025641025642,4341.538461538462,4821.025641025642,3790.2564102564106,4209.74358974359,4255.8974358974365,4127.6923076923085,4403.589743589744,4089.7435897435903,4227.6923076923085
96210,57.0,0.0,0.0,4519.48717948718,4182.051282051282,4341.025641025642,4824.615384615386,3793.8461538461543,4206.666666666667,4257.435897435898,4133.846153846154,4404.102564102564,4094.358974358975,4230.769230769231
96210,58.0,0.0,0.0,4506.666666666667,4180.000000000001,4339.48717948718,4820.512820512821,3791.2820512820517,4205.128205128206,4249.2307692307695,4126.666666666667,4410.769230769231,4095.8974358974365,4229.74358974359
96210,59.0,0.0,0.0,4491.282051282052,4177.435897435898,4344.102564102564,4821.025641025642,3790.7692307692314,4197.948717948719,4236.923076923077,4115.8974358974365,4404.102564102564,4093.8461538461543,4227.6923076923085
96210,60.0,0.0,0.0,4513.333333333334,4179.48717948718,4349.2307692307695,4824.102564102564,3794.8717948717954,4197.435897435898,4240.000000000001,4116.410256410257,4400.000000000001,4096.410256410257,4227.179487179487
96210,61.0,0.0,0.0,4520.512820512821,4175.384615384616,4337.948717948719,4819.48717948718,3795.3846153846157,4196.923076923077,4242.564102564103,4118.461538461539,4407.6923076923085,4092.307692307693,4229.2307692307695
96210,62.0,0.0,0.0,4494.358974358975,4166.666666666667,4324.615384615385,4812.307692307693,3790.7692307692314,4194.871794871796,4237.948717948719,4114.358974358975,4404.102564102564,4078.461538461539,4229.2307692307695
96210,63.0,0.0,0.0,4492.820512820514,4170.769230769231,4329.743589743591,4814.358974358975,3786.666666666667,4198.974358974359,4244.102564102564,4117.948717948719,4395.8974358974365,4077.435897435898,4227.179487179487
96210,64.0,0.0,472.0,4514.871794871796,4183.589743589744,4345.128205128206,4825.641025641026,3787.692307692308,4202.564102564103,4253.846153846154,4126.666666666667,4405.128205128206,4089.7435897435903,4228.717948717949
96210,65.0,0.0,317.0,4517.948717948719,4184.102564102564,4347.179487179487,4826.666666666667,3787.692307692308,4205.128205128206,4250.256410256411,4124.615384615385,4408.205128205129,4091.7948717948725,4228.205128205129
96210,66.0,0.0,498.0,4506.666666666667,4176.923076923077,4340.000000000001,4822.564102564103,3782.0512820512827,4204.102564102564,4241.538461538462,4112.820512820514,4396.410256410257,4080.0000000000005,4228.717948717949
96210,67.0,0.0,445.0,4504.615384615385,4176.923076923077,4343.076923076924,4822.564102564103,3782.0512820512827,4201.025641025642,4243.076923076924,4108.205128205129,4394.358974358975,4077.435897435898,4228.717948717949
96211,68.0,0.0,118.0,4505.641025641026,4182.051282051282,4351.282051282052,4823.589743589744,3785.1282051282055,4213.333333333334,4254.871794871796,4120.000000000001,4404.615384615385,4091.2820512820517,4226.153846153847
96211,69.0,0.0,550.0,4506.153846153847,4186.666666666667,4357.435897435898,4830.256410256411,3785.6410256410263,4233.333333333334,4265.641025641026,4135.384615384616,4416.410256410257,4103.589743589744,4229.74358974359
96211,70.0,0.0,531.0,4509.2307692307695,4185.128205128206,4357.948717948719,4828.717948717949,3788.205128205129,4224.615384615385,4260.000000000001,4138.974358974359,4424.102564102564,4105.641025641026,4232.307692307693
96211,71.0,0.0,453.0,4502.564102564103,4175.8974358974365,4348.205128205129,4819.48717948718,3794.358974358975,4202.564102564103,4244.615384615385,4126.666666666667,4414.871794871796,4098.974358974359,4230.256410256411
96211,72.0,0.0,380.0,4498.974358974359,4172.307692307693,4336.410256410257,4817.948717948719,3793.8461538461543,4198.974358974359,4238.974358974359,4114.871794871796,4400.000000000001,4091.7948717948725,4229.74358974359
96211,73.0,0.0,463.0,4513.846153846154,4180.000000000001,4340.000000000001,4823.076923076924,3785.1282051282055,4204.102564102564,4247.6923076923085,4117.948717948719,4401.538461538462,4091.2820512820517,4229.74358974359
96211,74.0,0.0,493.0,4516.410256410257,4185.128205128206,4347.179487179487,4826.666666666667,3782.0512820512827,4205.641025641026,4253.333333333334,4125.128205128206,4408.205128205129,4096.923076923077,4229.2307692307695
96211,75.0,0.0,374.0,4498.974358974359,4178.461538461539,4340.000000000001,4821.025641025642,3783.589743589744,4209.2307692307695,4251.282051282052,4121.538461538462,4405.128205128206,4091.7948717948725,4228.717948717949
96233,76.0,0.0,0.0,4498.974358974359,4174.358974358975,4335.384615384616,4821.025641025642,3782.0512820512827,4214.358974358975,4253.333333333334,4118.461538461539,4404.615384615385,4083.076923076924,4227.179487179487
96233,77.0,0.0,293.0,4513.333333333334,4181.538461538462,4345.641025641026,4829.2307692307695,3781.0256410256416,4211.794871794872,4253.333333333334,4128.717948717949,4412.820512820514,4090.2564102564106,4226.666666666667
96233,78.0,0.0,493.0,4506.666666666667,4184.102564102564,4354.358974358975,4824.102564102564,3779.48717948718,4209.74358974359,4250.769230769231,4138.974358974359,4417.948717948719,4097.435897435898,4229.2307692307695
96233,79.0,0.0,374.0,4495.384615384616,4177.435897435898,4352.307692307693,4816.923076923077,3777.9487179487182,4208.717948717949,4252.307692307693,4136.410256410257,4415.384615384616,4091.7948717948725,4230.256410256411
96707,80.0,0.0,0.0,4499.48717948718,4172.820512820514,4342.564102564103,4817.948717948719,3781.0256410256416,4199.48717948718,4249.74358974359,4123.589743589744,4406.153846153847,4081.538461538462,4226.153846153847
96707,81.0,0.0,293.0,4498.974358974359,4170.256410256411,4335.8974358974365,4815.384615384616,3784.1025641025644,4199.48717948718,4246.666666666667,4115.384615384616,4397.435897435898,4077.9487179487187,4226.153846153847
96707,82.0,0.0,493.0,4492.820512820514,4170.256410256411,4337.948717948719,4815.8974358974365,3782.0512820512827,4212.307692307693,4250.256410256411,4116.923076923077,4397.948717948719,4077.435897435898,4229.74358974359
96707,83.0,0.0,374.0,4496.923076923077,4174.358974358975,4343.076923076924,4817.435897435898,3775.8974358974365,4212.820512820514,4249.2307692307695,4124.102564102564,4405.128205128206,4079.48717948718,4227.6923076923085
96708,84.0,0.0,0.0,4497.435897435898,4177.435897435898,4344.102564102564,4817.435897435898,3776.410256410257,4206.666666666667,4247.179487179487,4127.179487179487,4409.2307692307695,4085.1282051282055,4226.666666666667
96708,85.0,0.0,293.0,4484.102564102564,4173.846153846154,4337.435897435898,4816.410256410257,3781.538461538462,4211.282051282052,4250.769230769231,4120.512820512821,4405.128205128206,4085.1282051282055,4229.74358974359
96708,86.0,0.0,493.0,4488.205128205129,4166.666666666667,4332.307692307693,4811.282051282052,3781.0256410256416,4211.282051282052,4247.6923076923085,4117.435897435898,4400.512820512821,4080.0000000000005,4229.2307692307695
96708,87.0,0.0,374.0,4504.615384615385,4166.666666666667,4337.435897435898,4813.333333333334,3778.461538461539,4206.153846153847,4244.102564102564,4121.538461538462,4402.564102564103,4080.0000000000005,4228.205128205129
96708,88.0,0.0,0.0,4496.410256410257,4169.74358974359,4339.48717948718,4814.871794871796,3777.435897435898,4212.820512820514,4252.820512820514,4119.48717948718,4402.564102564103,4078.461538461539,4227.6923076923085
96708,89.0,0.0,293.0,4483.076923076924,4166.153846153847,4329.2307692307695,4811.794871794872,3776.410256410257,4222.564102564103,4254.358974358975,4107.6923076923085,4392.307692307693,4066.1538461538466,4228.717948717949
96708,90.0,0.0,493.0,4489.2307692307695,4161.538461538462,4324.102564102564,4808.717948717949,3772.307692307693,4222.564102564103,4243.076923076924,4103.589743589744,4387.6923076923085,4055.8974358974365,4227.6923076923085
96708,91.0,0.0,374.0,4498.461538461539,4167.179487179487,4327.6923076923085,4810.256410256411,3767.692307692308,4212.307692307693,4242.051282051282,4113.333333333334,4398.461538461539,4064.615384615385,4225.128205128206
96708,92.0,0.0,0.0,4494.871794871796,4173.846153846154,4330.256410256411,4816.410256410257,3769.2307692307695,4203.076923076924,4246.153846153847,4120.000000000001,4405.128205128206,4076.410256410257,4226.153846153847
96708,93.0,0.0,293.0,4486.666666666667,4168.205128205129,4335.384615384616,4812.307692307693,3773.333333333334,4209.2307692307695,4244.102564102564,4119.48717948718,4403.076923076924,4074.358974358975,4227.179487179487
96708,94.0,0.0,493.0,4495.8974358974365,4165.128205128206,4340.512820512821,4811.282051282052,3774.358974358975,4221.025641025642,4241.538461538462,4117.948717948719,4402.564102564103,4068.717948717949,4225.641025641026
96708,95.0,0.0,374.0,4504.102564102564,4171.282051282052,4337.948717948719,4817.435897435898,3775.8974358974365,4215.8974358974365,4235.384615384616,4108.717948717949,4394.358974358975,4065.1282051282055,4224.102564102564
96708,96.0,0.0,0.0,4493.846153846154,4171.282051282052,4333.333333333334,4814.358974358975,3779.48717948718,4206.153846153847,4232.307692307693,4101.538461538462,4388.717948717949,4065.6410256410263,4224.615384615385
96708,97.0,0.0,293.0,4490.256410256411,4169.2307692307695,4333.333333333334,4812.307692307693,3782.0512820512827,4207.179487179487,4239.48717948718,4106.153846153847,4397.948717948719,4071.7948717948725,4227.179487179487
96709,98.0,0.0,493.0,4493.846153846154,4170.769230769231,4326.666666666667,4812.307692307693,3782.0512820512827,4213.846153846154,4244.615384615385,4108.205128205129,4400.512820512821,4074.358974358975,4226.153846153847
96709,99.0,0.0,374.0,4489.743589743591,4169.74358974359,4315.8974358974365,4809.743589743591,3779.48717948718,4217.948717948719,4240.512820512821,4110.769230769231,4396.923076923077,4074.8717948717954,4224.615384615385
96709,100.0,0.0,0.0,4489.2307692307695,4168.205128205129,4318.461538461539,4811.794871794872,3779.48717948718,4214.871794871796,4238.461538461539,4117.948717948719,4399.48717948718,4077.435897435898,4225.641025641026
96709,101.0,0.0,293.0,4502.564102564103,4172.307692307693,4328.205128205129,4814.871794871796,3783.076923076924,4212.307692307693,4240.000000000001,4118.974358974359,4402.564102564103,4080.5128205128212,4226.153846153847
96709,102.0,0.0,493.0,4514.871794871796,4180.512820512821,4331.794871794872,4822.564102564103,3786.666666666667,4224.102564102564,4240.512820512821,4115.8974358974365,4402.564102564103,4082.0512820512827,4228.717948717949
96709,103.0,0.0,374.0,4508.717948717949,4181.025641025642,4331.282051282052,4825.641025641026,3787.692307692308,4232.820512820514,4243.589743589744,4111.794871794872,4403.076923076924,4081.538461538462,4228.205128205129
96709,104.0,0.0,0.0,4490.256410256411,4174.358974358975,4332.307692307693,4818.974358974359,3783.589743589744,4226.153846153847,4243.589743589744,4111.794871794872,4404.615384615385,4082.564102564103,4225.641025641026
96709,105.0,0.0,293.0,4485.641025641026,4175.384615384616,4333.333333333334,4817.948717948719,3778.9743589743593,4224.102564102564,4238.461538461539,4121.025641025642,4408.205128205129,4088.717948717949,4228.717948717949
96709,106.0,0.0,493.0,4502.564102564103,4178.461538461539,4330.769230769231,4817.948717948719,3778.461538461539,4234.871794871796,4240.000000000001,4121.025641025642,4408.717948717949,4088.717948717949,4229.74358974359
96709,107.0,0.0,374.0,4513.846153846154,4176.410256410257,4329.2307692307695,4818.974358974359,3784.1025641025644,4236.410256410257,4241.025641025642,4112.820512820514,4409.2307692307695,4082.0512820512827,4226.666666666667
96710,108.0,0.0,0.0,4508.717948717949,4176.410256410257,4333.846153846154,4821.538461538462,3787.692307692308,4220.512820512821,4235.384615384616,4118.461538461539,4417.948717948719,4086.666666666667,4226.666666666667
96710,109.0,0.0,293.0,4505.128205128206,4178.461538461539,4336.410256410257,4820.512820512821,3782.564102564103,4207.6923076923085,4233.846153846154,4127.6923076923085,4419.48717948718,4092.307692307693,4229.74358974359
96710,110.0,0.0,493.0,4509.2307692307695,4178.974358974359,4332.820512820514,4822.564102564103,3775.8974358974365,4208.717948717949,4240.000000000001,4124.102564102564,4409.743589743591,4087.692307692308,4230.769230769231
96710,111.0,0.0,374.0,4503.076923076924,4180.000000000001,4332.820512820514,4822.564102564103,3771.794871794872,4215.8974358974365,4244.102564102564,4125.641025641026,4408.205128205129,4089.7435897435903,4229.2307692307695
96710,112.0,0.0,0.0,4497.435897435898,4179.48717948718,4334.871794871796,4819.48717948718,3774.358974358975,4216.923076923077,4244.615384615385,4130.769230769231,4410.769230769231,4092.820512820513,4229.74358974359
96710,113.0,0.0,293.0,4511.282051282052,4176.410256410257,4331.794871794872,4819.48717948718,3779.48717948718,4212.307692307693,4245.128205128206,4124.102564102564,4403.076923076924,4082.0512820512827,4229.2307692307695
96710,114.0,0.0,493.0,4511.282051282052,4174.358974358975,4336.410256410257,4817.948717948719,3778.461538461539,4217.435897435898,4245.641025641026,4113.846153846154,4396.410256410257,4074.358974358975,4227.6923076923085
96710,115.0,0.0,374.0,4485.128205128206,4171.282051282052,4341.025641025642,4817.435897435898,3775.8974358974365,4227.6923076923085,4244.615384615385,4105.128205128206,4398.461538461539,4077.435897435898,4226.153846153847
96710,116.0,0.0,0.0,4472.307692307693,4169.74358974359,4335.8974358974365,4814.871794871796,3780.0000000000005,4233.333333333334,4242.051282051282,4113.333333333334,4404.615384615385,4081.0256410256416,4224.615384615385
96710,117.0,0.0,293.0,4487.179487179488,4174.871794871796,4338.974358974359,4815.8974358974365,3780.512820512821,4228.205128205129,4243.589743589744,4136.410256410257,4412.820512820514,4088.717948717949,4227.179487179487
96710,118.0,0.0,493.0,4514.358974358975,4178.974358974359,4347.179487179487,4822.564102564103,3776.9230769230776,4218.461538461539,4244.102564102564,4136.923076923077,4414.358974358975,4093.333333333334,4229.74358974359
96710,119.0,0.0,374.0,4524.615384615385,4173.333333333334,4338.974358974359,4819.48717948718,3778.461538461539,4215.384615384616,4240.000000000001,4119.48717948718,4406.666666666667,4081.0256410256416,4228.205128205129
96710,120.0,0.0,0.0,4511.282051282052,4169.74358974359,4332.307692307693,4815.384615384616,3781.538461538462,4220.512820512821,4237.435897435898,4119.48717948718,4402.564102564103,4074.8717948717954,4228.205128205129
96710,121.0,0.0,293.0,4502.051282051282,4179.48717948718,4345.641025641026,4820.512820512821,3784.615384615385,4226.153846153847,4244.102564102564,4136.923076923077,4414.871794871796,4093.8461538461543,4229.74358974359
96710,122.0,0.0,493.0,4505.128205128206,4186.153846153847,4352.307692307693,4825.641025641026,3785.1282051282055,4220.512820512821,4250.769230769231,4136.923076923077,4420.512820512821,4107.6923076923085,4230.256410256411
96711,123.0,0.0,374.0,4511.794871794872,4181.025641025642,4342.051282051282,4825.641025641026,3784.1025641025644,4214.871794871796,4248.205128205129,4124.102564102564,4407.6923076923085,4096.410256410257,4231.282051282052
96711,124.0,0.0,0.0,4510.256410256411,4175.8974358974365,4338.461538461539,4820.512820512821,3784.1025641025644,4222.051282051282,4245.128205128206,4126.666666666667,4403.076923076924,4087.1794871794878,4231.794871794872
96711,125.0,0.0,293.0,4509.2307692307695,4177.948717948719,4348.205128205129,4821.538461538462,3788.205128205129,4230.256410256411,4250.256410256411,4136.410256410257,4412.307692307693,4091.7948717948725,4231.794871794872
96711,126.0,0.0,493.0,4510.256410256411,4179.48717948718,4345.641025641026,4823.589743589744,3788.205128205129,4225.128205128206,4245.641025641026,4124.102564102564,4404.615384615385,4086.1538461538466,4226.666666666667
96711,127.0,0.0,374.0,4497.435897435898,4170.769230769231,4329.743589743591,4814.358974358975,3781.0256410256416,4208.717948717949,4228.717948717949,4102.564102564103,4384.615384615385,4068.205128205129,4222.051282051282
96711,128.0,0.0,0.0,4483.589743589744,4163.076923076924,4325.641025641026,4807.179487179488,3776.9230769230776,4201.025641025642,4221.538461538462,4095.3846153846157,4382.051282051282,4058.461538461539,4224.615384615385
96711,0.0,0.0,472.0,4495.384615384616,4165.128205128206,4331.282051282052,4807.6923076923085,3780.0000000000005,4210.256410256411,4230.256410256411,4104.615384615385,4392.307692307693,4066.1538461538466,4224.615384615385
96711,1.0,0.0,312.0,4512.820512820514,4177.435897435898,4341.538461538462,4818.974358974359,3786.1538461538466,4220.512820512821,4242.564102564103,4121.538461538462,4403.076923076924,4082.564102564103,4224.102564102564
96711,2.0,0.0,499.0,4497.948717948719,4182.051282051282,4349.743589743591,4823.076923076924,3789.2307692307695,4213.333333333334,4245.128205128206,4123.589743589744,4405.128205128206,4086.666666666667,4228.205128205129
96711,3.0,0.0,445.0,4485.128205128206,4173.846153846154,4346.666666666667,4815.8974358974365,3788.205128205129,4202.564102564103,4240.000000000001,4109.2307692307695,4397.948717948719,4080.0000000000005,4227.6923076923085
96711,4.0,0.0,118.0,4503.589743589744,4170.769230769231,4340.000000000001,4817.948717948719,3785.1282051282055,4201.025641025642,4242.564102564103,4110.256410256411,4396.923076923077,4080.0000000000005,4225.641025641026
96711,5.0,0.0,550.0,4507.6923076923085,4170.769230769231,4331.794871794872,4815.8974358974365,3780.0000000000005,4201.538461538462,4249.2307692307695,4118.974358974359,4398.461538461539,4079.48717948718,4226.153846153847
96711,6.0,0.0,531.0,4500.512820512821,4168.717948717949,4330.769230769231,4810.769230769231,3782.564102564103,4201.025641025642,4247.6923076923085,4111.794871794872,4395.384615384616,4074.358974358975,4226.153846153847
96711,7.0,0.0,453.0,4504.102564102564,4172.820512820514,4346.153846153847,4816.410256410257,3791.2820512820517,4197.948717948719,4244.102564102564,4106.666666666667,4398.461538461539,4081.0256410256416,4225.641025641026
96711,8.0,0.0,380.0,4488.205128205129,4174.358974358975,4356.410256410257,4818.974358974359,3789.7435897435903,4191.282051282052,4241.538461538462,4110.256410256411,4397.948717948719,4085.6410256410263,4227.179487179487
96712,9.0,0.0,463.0,4474.871794871796,4169.2307692307695,4346.666666666667,4814.871794871796,3778.461538461539,4184.102564102564,4230.769230769231,4106.666666666667,4385.641025641026,4069.23076923077,4226.666666666667
96712,10.0,0.0,493.0,4510.256410256411,4171.794871794872,4342.051282051282,4816.923076923077,3780.0000000000005,4183.589743589744,4225.128205128206,4104.102564102564,4389.2307692307695,4066.666666666667,4224.615384615385
96733,11.0,0.0,373.0,4531.282051282052,4177.948717948719,4349.2307692307695,4822.051282051282,3790.7692307692314,4193.846153846154,4233.846153846154,4106.153846153847,4401.538461538462,4080.5128205128212,4226.153846153847
96733,12.0,0.0,0.0,4500.000000000001,4173.846153846154,4349.743589743591,4819.48717948718,3790.2564102564106,4201.538461538462,4237.435897435898,4101.538461538462,4395.384615384616,4076.9230769230776,4227.6923076923085
96733,13.0,0.0,293.0,4488.205128205129,4172.307692307693,4346.666666666667,4813.846153846154,3783.076923076924,4195.384615384616,4234.871794871796,4105.128205128206,4392.820512820514,4074.8717948717954,4226.666666666667
96733,14.0,0.0,493.0,4511.794871794872,4180.000000000001,4346.153846153847,4820.512820512821,3785.1282051282055,4188.717948717949,4235.384615384616,4118.974358974359,4404.102564102564,4088.717948717949,4229.2307692307695
97202,15.0,0.0,373.0,4522.051282051282,4180.000000000001,4342.564102564103,4823.076923076924,3791.2820512820517,4192.307692307693,4238.974358974359,4126.666666666667,4408.205128205129,4092.820512820513,4230.769230769231
97202,16.0,0.0,0.0,4510.769230769231,4175.384615384616,4337.435897435898,4816.923076923077,3790.2564102564106,4195.384615384616,4241.025641025642,4125.128205128206,4402.051282051282,4088.205128205129,4229.74358974359
97202,17.0,0.0,0.0,4495.384615384616,4173.846153846154,4335.384615384616,4816.923076923077,3787.1794871794878,4186.666666666667,4234.871794871796,4114.358974358975,4390.769230769231,4080.5128205128212,4229.2307692307695
97202,18.0,0.0,0.0,4484.102564102564,4169.74358974359,4337.948717948719,4814.358974358975,3784.1025641025644,4181.025641025642,4228.205128205129,4100.000000000001,4383.076923076924,4070.2564102564106,4227.179487179487
97202,19.0,0.0,0.0,4478.974358974359,4170.769230769231,4345.128205128206,4814.358974358975,3783.589743589744,4192.307692307693,4232.307692307693,4102.564102564103,4392.307692307693,4074.8717948717954,4226.666666666667
97202,20.0,0.0,0.0,4487.179487179488,4175.8974358974365,4344.615384615385,4818.974358974359,3783.589743589744,4199.48717948718,4236.923076923077,4111.794871794872,4398.974358974359,4081.538461538462,4227.179487179487
97203,21.0,0.0,0.0,4505.128205128206,4175.384615384616,4339.48717948718,4817.435897435898,3783.589743589744,4193.333333333334,4234.871794871796,4109.74358974359,4393.333333333334,4074.358974358975,4227.6923076923085
97204,22.0,0.0,0.0,4506.666666666667,4171.794871794872,4341.025641025642,4815.8974358974365,3787.1794871794878,4190.769230769231,4234.358974358975,4105.128205128206,4391.794871794872,4065.6410256410263,4228.717948717949
97204,23.0,0.0,0.0,4497.948717948719,4169.74358974359,4343.076923076924,4813.846153846154,3787.692307692308,4188.205128205129,4230.256410256411,4098.974358974359,4392.307692307693,4061.538461538462,4226.153846153847
97204,24.0,0.0,0.0,4504.102564102564,4176.923076923077,4346.153846153847,4816.923076923077,3787.692307692308,4183.076923076924,4229.2307692307695,4098.461538461539,4394.358974358975,4066.1538461538466,4225.641025641026
97204,25.0,0.0,0.0,4506.666666666667,4184.615384615385,4353.333333333334,4823.076923076924,3792.307692307693,4191.282051282052,4242.564102564103,4109.2307692307695,4398.461538461539,4080.0000000000005,4228.205128205129
97204,26.0,0.0,0.0,4497.435897435898,4178.461538461539,4357.948717948719,4821.538461538462,3794.8717948717954,4202.051282051282,4247.179487179487,4111.794871794872,4397.948717948719,4084.1025641025644,4228.717948717949
97204,27.0,0.0,0.0,4508.717948717949,4171.794871794872,4356.410256410257,4817.948717948719,3791.2820512820517,4192.820512820514,4231.794871794872,4103.076923076924,4394.871794871796,4078.461538461539,4228.717948717949
97205,28.0,0.0,0.0,4525.128205128206,4175.384615384616,4351.794871794872,4817.435897435898,3786.1538461538466,4178.974358974359,4226.153846153847,4109.74358974359,4398.461538461539,4081.538461538462,4227.179487179487
97205,29.0,0.0,0.0,4511.282051282052,4178.461538461539,4348.205128205129,4820.512820512821,3787.1794871794878,4175.384615384616,4234.871794871796,4123.076923076924,4403.589743589744,4086.666666666667,4227.179487179487
97205,30.0,0.0,0.0,4491.794871794872,4177.948717948719,4346.666666666667,4821.025641025642,3788.205128205129,4180.512820512821,4234.358974358975,4113.846153846154,4399.48717948718,4081.538461538462,4228.717948717949
97205,31.0,0.0,0.0,4490.256410256411,4175.8974358974365,4346.666666666667,4815.8974358974365,3784.1025641025644,4193.846153846154,4233.333333333334,4098.974358974359,4390.256410256411,4075.3846153846157,4228.205128205129
97205,32.0,0.0,0.0,4494.358974358975,4173.333333333334,4348.717948717949,4818.974358974359,3784.615384615385,4200.512820512821,4238.461538461539,4098.461538461539,4387.6923076923085,4070.7692307692314,4225.641025641026
97205,33.0,0.0,0.0,4499.48717948718,4172.307692307693,4353.333333333334,4822.564102564103,3790.2564102564106,4194.871794871796,4241.025641025642,4108.717948717949,4396.923076923077,4070.2564102564106,4223.589743589744
97205,34.0,0.0,0.0,4508.205128205129,4174.871794871796,4355.8974358974365,4820.000000000001,3795.8974358974365,4194.358974358975,4246.153846153847,4122.051282051282,4408.205128205129,4080.0000000000005,4226.153846153847
97205,35.0,0.0,0.0,4513.846153846154,4177.435897435898,4354.871794871796,4818.974358974359,3800.512820512821,4203.076923076924,4251.794871794872,4129.2307692307695,4409.2307692307695,4092.307692307693,4230.769230769231
97206,36.0,0.0,0.0,4509.2307692307695,4177.948717948719,4351.282051282052,4818.974358974359,3801.0256410256416,4210.769230769231,4249.74358974359,4125.128205128206,4404.615384615385,4092.820512820513,4230.769230769231
97206,37.0,0.0,0.0,4496.410256410257,4178.974358974359,4346.153846153847,4819.48717948718,3791.2820512820517,4211.282051282052,4243.076923076924,4122.564102564103,4405.128205128206,4090.7692307692314,4229.2307692307695
97206,38.0,0.0,0.0,4485.128205128206,4177.435897435898,4342.564102564103,4815.384615384616,3785.1282051282055,4208.717948717949,4244.615384615385,4126.153846153847,4413.333333333334,4095.8974358974365,4230.256410256411
97206,39.0,0.0,0.0,4488.717948717949,4170.769230769231,4341.538461538462,4813.846153846154,3788.205128205129,4209.2307692307695,4248.717948717949,4126.666666666667,4411.794871794872,4095.3846153846157,4230.256410256411
97206,40.0,0.0,0.0,4500.000000000001,4169.74358974359,4339.48717948718,4818.461538461539,3787.692307692308,4207.179487179487,4247.6923076923085,4130.769230769231,4407.179487179487,4092.307692307693,4227.6923076923085
97207,41.0,0.0,0.0,4501.025641025642,4173.333333333334,4336.410256410257,4814.358974358975,3784.615384615385,4198.974358974359,4244.615384615385,4136.410256410257,4412.307692307693,4095.8974358974365,4226.153846153847
97207,42.0,0.0,0.0,4495.384615384616,4167.6923076923085,4331.282051282052,4810.769230769231,3789.7435897435903,4201.538461538462,4242.564102564103,4128.205128205129,4408.717948717949,4090.7692307692314,4229.74358974359
97207,43.0,0.0,0.0,4483.589743589744,4160.512820512821,4333.846153846154,4811.282051282052,3793.8461538461543,4218.461538461539,4244.102564102564,4116.923076923077,4397.435897435898,4076.410256410257,4230.256410256411
97207,44.0,0.0,0.0,4480.512820512821,4165.641025641026,4350.769230769231,4813.333333333334,3790.2564102564106,4224.102564102564,4245.128205128206,4117.435897435898,4397.435897435898,4076.410256410257,4226.153846153847
97207,45.0,0.0,0.0,4497.435897435898,4176.923076923077,4363.076923076924,4822.051282051282,3790.2564102564106,4212.820512820514,4244.615384615385,4118.461538461539,4400.000000000001,4087.1794871794878,4229.74358974359
97207,46.0,0.0,0.0,4511.794871794872,4177.948717948719,4355.8974358974365,4822.564102564103,3794.358974358975,4211.794871794872,4245.641025641026,4116.923076923077,4401.538461538462,4086.666666666667,4232.307692307693
97207,47.0,0.0,0.0,4506.153846153847,4169.74358974359,4341.538461538462,4814.871794871796,3792.820512820513,4220.000000000001,4245.641025641026,4119.48717948718,4403.589743589744,4076.410256410257,4226.153846153847
97208,48.0,0.0,0.0,4488.205128205129,4165.641025641026,4338.461538461539,4811.282051282052,3791.2820512820517,4217.435897435898,4245.641025641026,4118.461538461539,4402.051282051282,4071.2820512820517,4224.102564102564
97208,49.0,0.0,0.0,4480.000000000001,4168.717948717949,4343.589743589744,4811.282051282052,3791.7948717948725,4210.769230769231,4246.666666666667,4114.358974358975,4401.025641025642,4074.8717948717954,4228.717948717949
97209,50.0,0.0,0.0,4494.871794871796,4172.307692307693,4345.128205128206,4816.923076923077,3790.2564102564106,4210.769230769231,4245.641025641026,4116.923076923077,4405.641025641026,4082.564102564103,4232.820512820514
97209,51.0,0.0,0.0,4503.589743589744,4170.256410256411,4340.000000000001,4816.410256410257,3789.7435897435903,4212.820512820514,4244.102564102564,4117.435897435898,4406.153846153847,4087.1794871794878,4230.256410256411
97209,52.0,0.0,0.0,4488.717948717949,4166.153846153847,4332.307692307693,4811.794871794872,3792.307692307693,4214.871794871796,4238.974358974359,4112.820512820514,4401.025641025642,4081.0256410256416,4228.205128205129
97209,53.0,0.0,0.0,4485.128205128206,4169.2307692307695,4336.410256410257,4815.8974358974365,3791.7948717948725,4218.974358974359,4234.871794871796,4114.871794871796,4405.641025641026,4078.9743589743593,4231.282051282052
97209,54.0,0.0,0.0,4502.051282051282,4176.410256410257,4347.179487179487,4821.025641025642,3790.2564102564106,4222.564102564103,4241.538461538462,4127.179487179487,4416.410256410257,4094.358974358975,4232.307692307693
97209,55.0,0.0,0.0,4505.128205128206,4176.923076923077,4348.717948717949,4823.076923076924,3789.7435897435903,4216.923076923077,4250.256410256411,4133.333333333334,4416.923076923077,4104.615384615385,4231.282051282052
97210,56.0,0.0,0.0,4490.769230769231,4168.205128205129,4338.461538461539,4818.461538461539,3785.1282051282055,4209.74358974359,4246.153846153847,4125.641025641026,4406.666666666667,4094.8717948717954,4230.769230769231
97210,57.0,0.0,0.0,4483.589743589744,4164.102564102564,4334.358974358975,4813.333333333334,3781.0256410256416,4213.846153846154,4237.948717948719,4111.794871794872,4398.461538461539,4084.1025641025644,4229.74358974359
97210,58.0,0.0,0.0,4491.794871794872,4168.205128205129,4345.128205128206,4815.8974358974365,3784.1025641025644,4218.974358974359,4236.923076923077,4103.589743589744,4398.461538461539,4083.076923076924,4229.74358974359
97210,59.0,0.0,0.0,4500.000000000001,4166.666666666667,4346.153846153847,4815.384615384616,3783.076923076924,4217.948717948719,4238.974358974359,4105.641025641026,4399.48717948718,4078.9743589743593,4230.256410256411
97210,60.0,0.0,0.0,4497.435897435898,4165.128205128206,4335.8974358974365,4813.333333333334,3779.48717948718,4215.384615384616,4238.461538461539,4108.717948717949,4395.8974358974365,4065.6410256410263,4228.717948717949
97210,61.0,0.0,0.0,4505.641025641026,4174.871794871796,4338.461538461539,4815.8974358974365,3782.564102564103,4216.410256410257,4238.461538461539,4110.256410256411,4396.923076923077,4062.564102564103,4226.153846153847
97210,62.0,0.0,0.0,4521.538461538462,4182.564102564103,4350.769230769231,4821.538461538462,3785.1282051282055,4223.589743589744,4247.6923076923085,4120.000000000001,4408.205128205129,4081.538461538462,4228.205128205129
97210,63.0,0.0,0.0,4506.153846153847,4175.384615384616,4353.333333333334,4822.564102564103,3782.564102564103,4224.615384615385,4252.307692307693,4126.666666666667,4408.205128205129,4092.307692307693,4228.717948717949
97211,64.0,0.0,472.0,4479.48717948718,4165.641025641026,4348.205128205129,4811.282051282052,3777.9487179487182,4209.74358974359,4242.051282051282,4117.948717948719,4397.948717948719,4080.0000000000005,4226.153846153847
97211,65.0,0.0,310.0,4484.615384615385,4166.153846153847,4343.589743589744,4808.717948717949,3776.9230769230776,4195.384615384616,4234.871794871796,4108.205128205129,4398.461538461539,4072.307692307693,4227.6923076923085
97211,66.0,0.0,499.0,4500.512820512821,4168.205128205129,4343.589743589744,4816.410256410257,3777.435897435898,4194.358974358975,4235.384615384616,4112.307692307693,4401.025641025642,4079.48717948718,4228.717948717949
97211,67.0,0.0,445.0,4502.564102564103,4167.179487179487,4349.2307692307695,4815.8974358974365,3777.9487179487182,4201.538461538462,4236.923076923077,4118.461538461539,4400.512820512821,4081.538461538462,4226.666666666667
97211,68.0,0.0,118.0,4505.641025641026,4170.256410256411,4349.2307692307695,4815.384615384616,3780.0000000000005,4205.641025641026,4239.48717948718,4113.333333333334,4401.538461538462,4076.410256410257,4228.205128205129
97211,69.0,0.0,550.0,4507.6923076923085,4171.794871794872,4344.615384615385,4815.8974358974365,3782.564102564103,4200.000000000001,4236.410256410257,4104.615384615385,4397.948717948719,4075.3846153846157,4230.256410256411
97211,70.0,0.0,531.0,4501.538461538462,4172.307692307693,4348.205128205129,4815.8974358974365,3786.666666666667,4194.358974358975,4230.256410256411,4099.48717948718,4394.871794871796,4080.5128205128212,4229.74358974359
97211,71.0,0.0,453.0,4503.076923076924,4171.794871794872,4347.179487179487,4816.923076923077,3787.692307692308,4192.820512820514,4229.74358974359,4096.923076923077,4395.8974358974365,4076.410256410257,4227.179487179487
97212,72.0,0.0,380.0,4514.871794871796,4168.205128205129,4335.8974358974365,4813.333333333334,3785.1282051282055,4191.794871794872,4230.769230769231,4097.435897435898,4394.358974358975,4065.6410256410263,4224.102564102564
97212,73.0,0.0,463.0,4514.871794871796,4167.6923076923085,4334.358974358975,4813.846153846154,3784.615384615385,4193.333333333334,4231.282051282052,4104.102564102564,4395.384615384616,4069.23076923077,4227.179487179487
97212,74.0,0.0,493.0,4496.923076923077,4168.717948717949,4339.48717948718,4812.307692307693,3783.076923076924,4191.794871794872,4234.358974358975,4111.282051282052,4404.102564102564,4082.0512820512827,4229.2307692307695
97233,75.0,0.0,373.0,4481.538461538462,4162.051282051282,4336.410256410257,4808.205128205129,3776.410256410257,4180.512820512821,4227.6923076923085,4110.769230769231,4404.102564102564,4080.5128205128212,4225.641025641026
97233,76.0,0.0,0.0,4479.48717948718,4155.384615384616,4328.205128205129,4805.128205128206,3770.7692307692314,4172.307692307693,4217.948717948719,4104.102564102564,4395.8974358974365,4067.1794871794878,4226.153846153847
97233,77.0,0.0,291.0,4477.435897435898,4150.256410256411,4322.051282051282,4802.051282051282,3770.2564102564106,4176.923076923077,4226.153846153847,4098.461538461539,4395.384615384616,4058.9743589743593,4226.666666666667
97233,78.0,0.0,493.0,4483.076923076924,4151.282051282052,4324.615384615385,4804.615384615386,3772.307692307693,4182.051282051282,4235.8974358974365,4102.051282051282,4397.948717948719,4060.0000000000005,4224.615384615385
97330,79.0,0.0,373.0,4500.000000000001,4161.538461538462,4335.8974358974365,4808.717948717949,3775.8974358974365,4186.153846153847,4233.846153846154,4108.717948717949,4394.871794871796,4065.1282051282055,4223.076923076924
97330,80.0,0.0,0.0,4500.512820512821,4167.179487179487,4342.051282051282,4812.307692307693,3777.9487179487182,4186.666666666667,4228.717948717949,4108.717948717949,4394.871794871796,4070.2564102564106,4224.615384615385
97330,81.0,0.0,291.0,4484.615384615385,4164.102564102564,4342.564102564103,4815.384615384616,3778.9743589743593,4178.974358974359,4227.6923076923085,4104.102564102564,4403.076923076924,4071.2820512820517,4228.205128205129
97330,82.0,0.0,493.0,4495.8974358974365,4166.153846153847,4349.2307692307695,4811.794871794872,3781.538461538462,4180.512820512821,4230.256410256411,4105.641025641026,4409.743589743591,4076.410256410257,4227.6923076923085
97330,83.0,0.0,373.0,4527.179487179488,4172.820512820514,4353.333333333334,4816.923076923077,3783.076923076924,4186.666666666667,4232.820512820514,4114.358974358975,4406.666666666667,4084.1025641025644,4229.2307692307695
97330,84.0,0.0,0.0,4526.153846153847,4171.794871794872,4349.2307692307695,4822.051282051282,3778.461538461539,4192.307692307693,4237.948717948719,4121.538461538462,4405.128205128206,4084.1025641025644,4230.256410256411
97330,85.0,0.0,291.0,4507.179487179488,4170.256410256411,4346.666666666667,4816.923076923077,3774.8717948717954,4199.48717948718,4244.615384615385,4125.641025641026,4410.769230769231,4082.0512820512827,4228.205128205129
97330,86.0,0.0,493.0,4498.974358974359,4170.769230769231,4341.538461538462,4813.333333333334,3778.461538461539,4195.384615384616,4238.461538461539,4121.025641025642,4407.179487179487,4081.0256410256416,4226.153846153847
97332,87.0,0.0,373.0,4489.2307692307695,4163.076923076924,4332.820512820514,4808.205128205129,3780.0000000000005,4179.48717948718,4225.641025641026,4115.384615384616,4403.076923076924,4078.461538461539,4225.128205128206
97332,88.0,0.0,0.0,4484.615384615385,4158.974358974359,4334.358974358975,4806.153846153847,3777.435897435898,4178.974358974359,4226.666666666667,4112.307692307693,4405.128205128206,4074.8717948717954,4226.666666666667
97332,89.0,0.0,291.0,4492.820512820514,4162.051282051282,4335.8974358974365,4808.205128205129,3780.512820512821,4194.871794871796,4231.282051282052,4106.666666666667,4401.025641025642,4069.7435897435903,4226.153846153847
97332,90.0,0.0,493.0,4496.923076923077,4163.076923076924,4334.871794871796,4807.6923076923085,3787.1794871794878,4197.435897435898,4231.794871794872,4105.128205128206,4396.923076923077,4067.692307692308,4225.128205128206
97449,91.0,0.0,373.0,4489.743589743591,4158.461538461539,4337.948717948719,4808.717948717949,3788.717948717949,4190.256410256411,4234.871794871796,4108.205128205129,4397.948717948719,4068.205128205129,4228.205128205129
97449,92.0,0.0,0.0,4486.666666666667,4154.871794871796,4332.820512820514,4806.153846153847,3783.589743589744,4189.2307692307695,4233.333333333334,4108.205128205129,4394.358974358975,4061.0256410256416,4227.179487179487
97450,93.0,0.0,291.0,4497.948717948719,4158.461538461539,4328.205128205129,4804.102564102564,3780.0000000000005,4188.205128205129,4230.256410256411,4112.820512820514,4391.282051282052,4058.9743589743593,4225.641025641026
97450,94.0,0.0,493.0,4517.435897435898,4167.179487179487,4336.410256410257,4810.256410256411,3782.0512820512827,4191.794871794872,4234.871794871796,4125.128205128206,4402.051282051282,4072.307692307693,4230.256410256411
97450,95.0,0.0,373.0,4513.333333333334,4168.205128205129,4342.051282051282,4813.333333333334,3784.615384615385,4196.923076923077,4236.923076923077,4129.74358974359,4409.743589743591,4080.5128205128212,4230.769230769231
97450,96.0,0.0,0.0,4477.435897435898,4160.512820512821,4341.025641025642,4808.717948717949,3784.615384615385,4194.871794871796,4237.435897435898,4117.948717948719,4403.589743589744,4074.8717948717954,4226.666666666667
97450,97.0,0.0,291.0,4467.6923076923085,4156.923076923077,4340.512820512821,4802.051282051282,3781.0256410256416,4190.769230769231,4242.564102564103,4110.769230769231,4403.076923076924,4074.358974358975,4227.6923076923085
97450,98.0,0.0,493.0,4501.538461538462,4166.153846153847,4340.000000000001,4808.717948717949,3781.0256410256416,4191.282051282052,4244.102564102564,4122.564102564103,4414.358974358975,4085.6410256410263,4231.282051282052
97451,99.0,0.0,373.0,4522.051282051282,4173.846153846154,4343.589743589744,4818.974358974359,3785.1282051282055,4184.102564102564,4236.923076923077,4130.256410256411,4420.000000000001,4093.333333333334,4230.256410256411
97451,100.0,0.0,0.0,4507.179487179488,4166.666666666667,4347.179487179487,4812.820512820514,3783.076923076924,4174.871794871796,4232.307692307693,4120.000000000001,4415.384615384616,4089.7435897435903,4229.2307692307695
97451,101.0,0.0,291.0,4494.871794871796,4163.589743589744,4344.615384615385,4810.769230769231,3775.8974358974365,4182.051282051282,4237.435897435898,4113.846153846154,4412.307692307693,4084.615384615385,4227.6923076923085
97451,102.0,0.0,493.0,4494.358974358975,4168.717948717949,4338.974358974359,4814.358974358975,3771.794871794872,4190.769230769231,4241.025641025642,4113.333333333334,4408.717948717949,4082.0512820512827,4224.615384615385
97451,103.0,0.0,373.0,4496.410256410257,4165.641025641026,4334.871794871796,4808.717948717949,3773.8461538461543,4191.282051282052,4236.410256410257,4109.74358974359,4403.076923076924,4073.8461538461543,4227.179487179487
97451,104.0,0.0,0.0,4507.6923076923085,4160.512820512821,4334.358974358975,4806.153846153847,3782.0512820512827,4192.307692307693,4234.358974358975,4112.820512820514,4403.076923076924,4065.1282051282055,4230.769230769231
97451,105.0,0.0,291.0,4509.2307692307695,4162.564102564103,4342.564102564103,4810.256410256411,3788.205128205129,4201.538461538462,4242.564102564103,4120.512820512821,4406.153846153847,4068.717948717949,4229.2307692307695
97451,106.0,0.0,493.0,4492.307692307693,4163.076923076924,4345.641025641026,4811.282051282052,3784.615384615385,4206.153846153847,4243.589743589744,4121.025641025642,4405.641025641026,4070.7692307692314,4228.205128205129
97702,107.0,0.0,373.0,4490.769230769231,4160.512820512821,4338.461538461539,4809.2307692307695,3774.8717948717954,4192.307692307693,4231.282051282052,4117.435897435898,4406.666666666667,4064.1025641025644,4225.641025641026
97702,108.0,0.0,0.0,4504.102564102564,4163.589743589744,4337.948717948719,4809.743589743591,3770.2564102564106,4180.512820512821,4227.6923076923085,4116.410256410257,4409.2307692307695,4067.1794871794878,4223.076923076924
97702,109.0,0.0,291.0,4510.769230769231,4167.179487179487,4347.6923076923085,4815.8974358974365,3775.8974358974365,4185.641025641026,4234.358974358975,4115.384615384616,4407.179487179487,4079.48717948718,4227.6923076923085
97703,110.0,0.0,493.0,4514.358974358975,4166.153846153847,4350.769230769231,4814.358974358975,3783.589743589744,4195.8974358974365,4239.48717948718,4116.923076923077,4406.666666666667,4088.717948717949,4229.2307692307695
97703,111.0,0.0,373.0,4516.410256410257,4166.666666666667,4349.743589743591,4813.846153846154,3783.589743589744,4204.615384615385,4243.589743589744,4128.205128205129,4417.435897435898,4091.2820512820517,4228.717948717949
97703,112.0,0.0,0.0,4506.153846153847,4166.666666666667,4351.794871794872,4816.923076923077,3780.512820512821,4202.564102564103,4250.256410256411,4134.871794871796,4421.538461538462,4089.7435897435903,4229.2307692307695
