timestamp,1,2,3,af3,f7,f3,fc5,t7,p7,o1,o2,p8,t8,fc6
304423,114.0,0.0,495.0,4488.717948717949,4179.48717948718,4337.948717948719,4824.615384615386,3794.358974358975,4207.6923076923085,4181.025641025642,4088.205128205129,4376.923076923077,4053.333333333334,4247.6923076923085
304423,115.0,0.0,371.0,4508.205128205129,4185.641025641026,4341.025641025642,4833.846153846154,3801.0256410256416,4208.205128205129,4181.538461538462,4088.717948717949,4377.948717948719,4057.9487179487182,4250.256410256411
304423,116.0,0.0,0.0,4487.6923076923085,4183.589743589744,4347.6923076923085,4833.333333333334,3795.8974358974365,4212.820512820514,4182.564102564103,4098.461538461539,4383.589743589744,4064.615384615385,4254.358974358975
304423,117.0,0.0,313.0,4477.948717948719,4180.512820512821,4344.102564102564,4829.2307692307695,3787.1794871794878,4213.333333333334,4184.102564102564,4098.461538461539,4384.615384615385,4063.076923076924,4249.74358974359
304423,118.0,0.0,495.0,4467.6923076923085,4175.384615384616,4337.948717948719,4827.179487179488,3787.1794871794878,4209.74358974359,4185.641025641026,4090.2564102564106,4379.48717948718,4061.0256410256416,4246.666666666667
304423,119.0,0.0,371.0,4465.641025641026,4167.179487179487,4336.410256410257,4819.48717948718,3787.1794871794878,4212.307692307693,4191.794871794872,4093.333333333334,4377.435897435898,4062.564102564103,4249.74358974359
304423,120.0,0.0,0.0,4497.435897435898,4169.74358974359,4327.6923076923085,4827.179487179488,3791.2820512820517,4215.8974358974365,4193.846153846154,4098.974358974359,4378.974358974359,4061.0256410256416,4252.820512820514
304423,121.0,0.0,313.0,4509.743589743591,4176.923076923077,4318.974358974359,4828.717948717949,3791.2820512820517,4211.282051282052,4188.205128205129,4094.358974358975,4376.923076923077,4057.9487179487182,4250.256410256411
304423,122.0,0.0,495.0,4484.615384615385,4177.435897435898,4322.051282051282,4825.128205128206,3786.666666666667,4208.717948717949,4184.102564102564,4084.1025641025644,4373.333333333334,4057.9487179487182,4247.6923076923085
304424,123.0,0.0,371.0,4469.743589743591,4174.871794871796,4326.666666666667,4828.205128205129,3785.6410256410263,4208.717948717949,4182.051282051282,4082.0512820512827,4373.846153846154,4056.410256410257,4250.769230769231
304424,124.0,0.0,0.0,4462.564102564103,4171.794871794872,4327.179487179487,4824.102564102564,3783.076923076924,4204.615384615385,4186.153846153847,4089.7435897435903,4376.410256410257,4055.8974358974365,4251.794871794872
304424,125.0,0.0,313.0,4449.743589743591,4170.769230769231,4328.717948717949,4825.641025641026,3785.1282051282055,4197.948717948719,4186.666666666667,4089.7435897435903,4374.358974358975,4053.8461538461543,4250.769230769231
304424,126.0,0.0,495.0,4464.102564102564,4168.717948717949,4328.717948717949,4824.615384615386,3785.1282051282055,4199.48717948718,4181.538461538462,4085.1282051282055,4372.307692307693,4055.3846153846157,4251.282051282052
304424,127.0,0.0,371.0,4486.153846153847,4168.205128205129,4321.538461538462,4822.564102564103,3779.48717948718,4207.179487179487,4183.076923076924,4087.1794871794878,4376.410256410257,4060.0000000000005,4251.794871794872
304424,128.0,0.0,0.0,4473.846153846154,4170.769230769231,4313.333333333334,4827.179487179488,3782.0512820512827,4207.6923076923085,4188.205128205129,4084.615384615385,4375.384615384616,4054.8717948717954,4250.769230769231
304424,0.0,0.0,475.0,4464.102564102564,4172.820512820514,4315.8974358974365,4823.076923076924,3782.564102564103,4206.666666666667,4186.666666666667,4083.076923076924,4373.333333333334,4053.333333333334,4249.2307692307695
304456,1.0,0.0,313.0,4474.358974358975,4176.410256410257,4324.102564102564,4827.179487179488,3781.538461538462,4206.153846153847,4180.000000000001,4088.205128205129,4377.948717948719,4058.461538461539,4252.307692307693
304456,2.0,0.0,503.0,4475.8974358974365,4177.435897435898,4326.666666666667,4829.743589743591,3781.0256410256416,4209.2307692307695,4181.025641025642,4089.7435897435903,4380.000000000001,4057.435897435898,4251.794871794872
304456,3.0,0.0,443.0,4476.923076923077,4174.358974358975,4326.153846153847,4824.615384615386,3781.0256410256416,4213.846153846154,4187.179487179487,4086.1538461538466,4372.820512820514,4054.8717948717954,4248.717948717949
304456,4.0,0.0,112.0,4486.666666666667,4174.871794871796,4327.6923076923085,4831.282051282052,3781.0256410256416,4204.102564102564,4186.666666666667,4085.6410256410263,4365.641025641026,4051.2820512820517,4251.794871794872
304552,5.0,0.0,550.0,4478.461538461539,4174.358974358975,4336.410256410257,4828.205128205129,3778.461538461539,4198.461538461539,4188.205128205129,4089.7435897435903,4372.307692307693,4051.7948717948725,4249.2307692307695
304552,6.0,0.0,534.0,4460.512820512821,4170.256410256411,4338.974358974359,4826.666666666667,3783.076923076924,4208.205128205129,4188.717948717949,4089.23076923077,4375.8974358974365,4054.358974358975,4247.179487179487
304552,7.0,0.0,462.0,4463.589743589744,4165.641025641026,4324.615384615385,4826.153846153847,3785.6410256410263,4210.769230769231,4186.153846153847,4085.1282051282055,4372.307692307693,4051.2820512820517,4249.74358974359
304552,8.0,0.0,388.0,4475.8974358974365,4163.589743589744,4318.974358974359,4819.48717948718,3777.9487179487182,4210.256410256411,4192.307692307693,4091.2820512820517,4374.871794871796,4049.23076923077,4249.74358974359
304552,9.0,0.0,464.0,4490.256410256411,4166.666666666667,4327.6923076923085,4825.128205128206,3785.1282051282055,4209.74358974359,4192.820512820514,4092.820512820513,4374.871794871796,4048.205128205129,4248.717948717949
304552,10.0,0.0,495.0,4504.615384615385,4168.205128205129,4330.256410256411,4824.615384615386,3794.358974358975,4207.179487179487,4185.128205128206,4088.717948717949,4375.384615384616,4050.2564102564106,4247.179487179487
304552,11.0,0.0,371.0,4488.717948717949,4168.717948717949,4332.820512820514,4826.153846153847,3793.333333333334,4205.641025641026,4185.641025641026,4090.7692307692314,4379.48717948718,4054.358974358975,4248.717948717949
304552,12.0,0.0,0.0,4467.6923076923085,4169.2307692307695,4342.564102564103,4831.282051282052,3789.2307692307695,4207.179487179487,4190.256410256411,4088.717948717949,4374.358974358975,4053.8461538461543,4251.794871794872
304553,13.0,0.0,313.0,4478.974358974359,4167.179487179487,4343.076923076924,4824.102564102564,3784.1025641025644,4211.282051282052,4189.2307692307695,4084.1025641025644,4371.282051282052,4053.333333333334,4248.717948717949
304553,14.0,0.0,495.0,4490.769230769231,4166.153846153847,4331.794871794872,4824.615384615386,3789.2307692307695,4203.589743589744,4184.615384615385,4082.0512820512827,4373.846153846154,4053.8461538461543,4248.205128205129
304553,15.0,0.0,371.0,4496.410256410257,4163.589743589744,4330.256410256411,4819.48717948718,3792.307692307693,4197.435897435898,4189.74358974359,4085.6410256410263,4375.384615384616,4054.358974358975,4249.2307692307695
304553,16.0,0.0,0.0,4498.974358974359,4163.589743589744,4331.282051282052,4816.410256410257,3793.8461538461543,4204.615384615385,4197.948717948719,4093.8461538461543,4378.461538461539,4054.8717948717954,4250.256410256411
304674,17.0,0.0,0.0,4476.410256410257,4164.615384615385,4324.102564102564,4823.076923076924,3794.8717948717954,4204.102564102564,4191.794871794872,4093.333333333334,4378.974358974359,4055.8974358974365,4251.794871794872
304674,18.0,0.0,0.0,4466.153846153847,4161.538461538462,4329.743589743591,4816.410256410257,3787.1794871794878,4194.871794871796,4184.102564102564,4089.7435897435903,4380.000000000001,4061.0256410256416,4250.769230769231
304674,19.0,0.0,0.0,4491.794871794872,4166.153846153847,4341.538461538462,4823.589743589744,3792.820512820513,4192.820512820514,4186.153846153847,4090.2564102564106,4379.48717948718,4064.615384615385,4250.256410256411
304674,20.0,0.0,0.0,4504.615384615385,4170.256410256411,4336.923076923077,4826.666666666667,3796.410256410257,4201.538461538462,4187.179487179487,4089.7435897435903,4374.358974358975,4060.5128205128212,4249.74358974359
304674,21.0,0.0,0.0,4489.743589743591,4169.2307692307695,4329.2307692307695,4822.564102564103,3790.2564102564106,4209.74358974359,4180.512820512821,4085.1282051282055,4370.256410256411,4057.435897435898,4250.256410256411
304674,22.0,0.0,0.0,4480.512820512821,4167.179487179487,4330.256410256411,4829.2307692307695,3790.2564102564106,4212.307692307693,4176.923076923077,4080.5128205128212,4369.2307692307695,4054.8717948717954,4250.256410256411
304675,23.0,0.0,0.0,4484.102564102564,4166.153846153847,4336.410256410257,4823.589743589744,3785.1282051282055,4217.435897435898,4186.153846153847,4091.2820512820517,4374.871794871796,4055.3846153846157,4247.179487179487
304675,24.0,0.0,0.0,4478.974358974359,4167.6923076923085,4338.461538461539,4825.128205128206,3787.1794871794878,4215.8974358974365,4193.333333333334,4101.025641025642,4379.48717948718,4057.9487179487182,4249.74358974359
304675,25.0,0.0,0.0,4468.205128205129,4164.102564102564,4336.923076923077,4823.589743589744,3791.2820512820517,4212.307692307693,4194.871794871796,4100.512820512821,4381.538461538462,4062.564102564103,4252.307692307693
304675,26.0,0.0,0.0,4473.333333333334,4161.025641025642,4336.410256410257,4814.871794871796,3786.1538461538466,4220.000000000001,4197.948717948719,4098.974358974359,4380.000000000001,4065.1282051282055,4252.307692307693
304675,27.0,0.0,0.0,4483.076923076924,4164.615384615385,4328.717948717949,4823.076923076924,3790.7692307692314,4219.48717948718,4194.358974358975,4090.7692307692314,4371.282051282052,4057.435897435898,4251.282051282052
304675,28.0,0.0,0.0,4482.051282051282,4162.564102564103,4318.974358974359,4821.538461538462,3788.205128205129,4212.307692307693,4191.282051282052,4089.7435897435903,4370.769230769231,4054.358974358975,4246.666666666667
304675,29.0,0.0,0.0,4478.974358974359,4160.000000000001,4317.435897435898,4819.48717948718,3784.615384615385,4205.641025641026,4187.6923076923085,4093.8461538461543,4376.923076923077,4053.8461538461543,4249.74358974359
304675,30.0,0.0,0.0,4488.205128205129,4162.564102564103,4320.000000000001,4821.538461538462,3787.692307692308,4198.974358974359,4180.000000000001,4083.076923076924,4371.794871794872,4046.1538461538466,4252.307692307693
304675,31.0,0.0,0.0,4488.205128205129,4161.538461538462,4321.538461538462,4816.923076923077,3787.1794871794878,4197.948717948719,4180.512820512821,4073.333333333334,4360.512820512821,4043.076923076924,4245.128205128206
304676,32.0,0.0,0.0,4460.000000000001,4157.948717948719,4323.589743589744,4820.000000000001,3789.2307692307695,4201.538461538462,4187.179487179487,4077.435897435898,4359.48717948718,4043.589743589744,4247.6923076923085
304968,33.0,0.0,0.0,4451.794871794872,4155.8974358974365,4327.179487179487,4814.871794871796,3786.666666666667,4209.2307692307695,4189.74358974359,4087.692307692308,4372.307692307693,4047.692307692308,4252.307692307693
304968,34.0,0.0,0.0,4477.948717948719,4158.974358974359,4325.641025641026,4816.410256410257,3784.1025641025644,4208.717948717949,4187.179487179487,4087.1794871794878,4374.358974358975,4048.205128205129,4250.256410256411
304969,35.0,0.0,0.0,4489.2307692307695,4166.153846153847,4318.974358974359,4823.076923076924,3785.6410256410263,4197.948717948719,4184.102564102564,4080.0000000000005,4365.128205128206,4042.0512820512827,4250.256410256411
304969,36.0,0.0,0.0,4484.615384615385,4166.666666666667,4321.538461538462,4819.48717948718,3783.076923076924,4198.461538461539,4185.641025641026,4084.1025641025644,4370.256410256411,4043.076923076924,4251.282051282052
304969,37.0,0.0,0.0,4481.538461538462,4164.615384615385,4329.2307692307695,4825.128205128206,3790.2564102564106,4202.564102564103,4186.153846153847,4090.7692307692314,4375.8974358974365,4046.1538461538466,4253.333333333334
304969,38.0,0.0,0.0,4477.435897435898,4162.051282051282,4332.307692307693,4819.48717948718,3789.2307692307695,4201.538461538462,4185.128205128206,4092.307692307693,4372.307692307693,4049.7435897435903,4251.282051282052
304969,39.0,0.0,0.0,4486.153846153847,4164.615384615385,4332.820512820514,4815.384615384616,3782.564102564103,4203.589743589744,4186.666666666667,4094.8717948717954,4373.846153846154,4057.9487179487182,4250.256410256411
304969,40.0,0.0,0.0,4505.641025641026,4171.794871794872,4329.2307692307695,4828.717948717949,3788.717948717949,4208.717948717949,4186.666666666667,4094.8717948717954,4380.000000000001,4063.589743589744,4251.794871794872
304970,41.0,0.0,0.0,4497.435897435898,4169.74358974359,4329.743589743591,4824.615384615386,3789.7435897435903,4214.871794871796,4184.102564102564,4093.333333333334,4383.589743589744,4066.666666666667,4249.2307692307695
304970,42.0,0.0,0.0,4470.769230769231,4166.153846153847,4327.6923076923085,4822.051282051282,3790.7692307692314,4213.846153846154,4179.48717948718,4086.666666666667,4377.435897435898,4062.0512820512827,4252.307692307693
304970,43.0,0.0,0.0,4471.282051282052,4165.641025641026,4320.512820512821,4818.461538461539,3788.717948717949,4212.820512820514,4177.435897435898,4082.0512820512827,4372.307692307693,4056.410256410257,4252.820512820514
304971,44.0,0.0,0.0,4486.153846153847,4167.179487179487,4323.076923076924,4815.8974358974365,3784.615384615385,4217.948717948719,4176.410256410257,4085.6410256410263,4378.974358974359,4059.48717948718,4246.153846153847
304971,45.0,0.0,0.0,4480.512820512821,4166.666666666667,4326.153846153847,4823.076923076924,3792.307692307693,4214.358974358975,4173.333333333334,4087.692307692308,4378.974358974359,4060.5128205128212,4248.205128205129
304971,46.0,0.0,0.0,4474.871794871796,4162.564102564103,4324.615384615385,4814.358974358975,3786.666666666667,4211.282051282052,4181.538461538462,4092.307692307693,4375.8974358974365,4062.564102564103,4250.769230769231
304971,47.0,0.0,0.0,4482.564102564103,4166.153846153847,4328.205128205129,4817.948717948719,3783.589743589744,4213.333333333334,4188.717948717949,4094.358974358975,4378.461538461539,4066.666666666667,4252.307692307693
304971,48.0,0.0,0.0,4486.666666666667,4171.282051282052,4332.307692307693,4823.076923076924,3791.7948717948725,4211.794871794872,4184.102564102564,4086.666666666667,4378.974358974359,4065.6410256410263,4252.820512820514
304971,49.0,0.0,0.0,4493.333333333334,4170.769230769231,4331.794871794872,4818.461538461539,3791.2820512820517,4214.871794871796,4185.128205128206,4087.1794871794878,4379.48717948718,4064.1025641025644,4249.74358974359
304972,50.0,0.0,0.0,4493.846153846154,4172.307692307693,4328.205128205129,4827.179487179488,3790.2564102564106,4218.974358974359,4186.666666666667,4089.7435897435903,4378.974358974359,4062.564102564103,4251.794871794872
304972,51.0,0.0,0.0,4479.48717948718,4167.179487179487,4328.205128205129,4819.48717948718,3783.076923076924,4217.435897435898,4184.102564102564,4088.717948717949,4380.000000000001,4067.1794871794878,4250.256410256411
304972,52.0,0.0,0.0,4473.333333333334,4167.6923076923085,4332.307692307693,4819.48717948718,3780.0000000000005,4212.820512820514,4185.128205128206,4093.8461538461543,4383.076923076924,4073.333333333334,4251.282051282052
304972,53.0,0.0,0.0,4483.076923076924,4176.923076923077,4334.358974358975,4827.6923076923085,3783.589743589744,4215.8974358974365,4187.6923076923085,4097.435897435898,4387.179487179487,4073.333333333334,4252.820512820514
304972,54.0,0.0,0.0,4490.256410256411,4174.871794871796,4333.333333333334,4820.000000000001,3781.0256410256416,4224.615384615385,4189.74358974359,4097.948717948719,4389.2307692307695,4074.358974358975,4249.74358974359
304973,55.0,0.0,0.0,4482.564102564103,4171.282051282052,4335.384615384616,4824.615384615386,3783.076923076924,4220.000000000001,4186.153846153847,4098.974358974359,4386.153846153847,4075.3846153846157,4252.820512820514
304973,56.0,0.0,0.0,4478.461538461539,4171.282051282052,4341.538461538462,4822.564102564103,3781.0256410256416,4218.461538461539,4188.717948717949,4104.102564102564,4385.128205128206,4074.8717948717954,4250.256410256411
304973,57.0,0.0,0.0,4495.8974358974365,4171.794871794872,4336.410256410257,4818.974358974359,3783.076923076924,4230.256410256411,4194.358974358975,4094.8717948717954,4378.461538461539,4069.7435897435903,4248.205128205129
304973,58.0,0.0,0.0,4503.589743589744,4172.820512820514,4323.589743589744,4823.076923076924,3787.692307692308,4231.282051282052,4191.282051282052,4077.9487179487187,4371.282051282052,4062.0512820512827,4253.333333333334
304974,59.0,0.0,0.0,4475.8974358974365,4169.74358974359,4326.666666666667,4813.333333333334,3781.0256410256416,4225.128205128206,4192.820512820514,4089.23076923077,4381.025641025642,4067.1794871794878,4250.769230769231
304974,60.0,0.0,0.0,4466.666666666667,4171.794871794872,4336.410256410257,4820.512820512821,3782.564102564103,4220.512820512821,4195.384615384616,4103.076923076924,4388.717948717949,4075.8974358974365,4250.256410256411
304974,61.0,0.0,0.0,4500.512820512821,4177.435897435898,4328.205128205129,4826.153846153847,3783.076923076924,4220.512820512821,4188.717948717949,4092.820512820513,4383.076923076924,4073.8461538461543,4249.74358974359
304974,62.0,0.0,0.0,4509.743589743591,4178.461538461539,4320.000000000001,4825.128205128206,3781.0256410256416,4226.153846153847,4183.589743589744,4084.615384615385,4380.512820512821,4065.6410256410263,4247.179487179487
304974,63.0,0.0,0.0,4491.282051282052,4178.974358974359,4332.307692307693,4832.307692307693,3787.692307692308,4233.846153846154,4187.6923076923085,4089.23076923077,4382.051282051282,4064.1025641025644,4250.256410256411
304974,64.0,0.0,475.0,4488.205128205129,4180.000000000001,4342.051282051282,4826.666666666667,3785.1282051282055,4236.410256410257,4192.307692307693,4097.948717948719,4383.076923076924,4070.2564102564106,4246.666666666667
304974,65.0,0.0,312.0,4480.512820512821,4181.025641025642,4336.410256410257,4827.6923076923085,3783.076923076924,4229.74358974359,4186.666666666667,4094.358974358975,4382.564102564103,4071.2820512820517,4246.666666666667
304975,66.0,0.0,503.0,4481.538461538462,4176.410256410257,4329.743589743591,4824.102564102564,3784.615384615385,4227.179487179487,4186.666666666667,4089.7435897435903,4382.564102564103,4071.7948717948725,4251.282051282052
304975,67.0,0.0,443.0,4516.923076923077,4177.435897435898,4327.179487179487,4821.538461538462,3783.589743589744,4234.871794871796,4195.384615384616,4101.538461538462,4385.641025641026,4076.9230769230776,4249.2307692307695
304975,68.0,0.0,112.0,4525.641025641026,4188.717948717949,4327.179487179487,4837.435897435898,3786.666666666667,4232.307692307693,4194.358974358975,4106.153846153847,4387.179487179487,4077.9487179487187,4248.717948717949
304975,69.0,0.0,550.0,4496.923076923077,4188.205128205129,4332.820512820514,4829.2307692307695,3785.1282051282055,4225.641025641026,4190.769230769231,4101.025641025642,4387.179487179487,4078.9743589743593,4248.205128205129
304975,70.0,0.0,534.0,4490.769230769231,4184.615384615385,4335.384615384616,4829.743589743591,3786.666666666667,4224.102564102564,4193.846153846154,4100.000000000001,4386.666666666667,4082.0512820512827,4250.769230769231
304975,71.0,0.0,462.0,4496.410256410257,4185.641025641026,4332.307692307693,4832.820512820514,3787.1794871794878,4222.564102564103,4192.307692307693,4097.948717948719,4384.615384615385,4080.5128205128212,4250.256410256411
304975,72.0,0.0,388.0,4485.641025641026,4180.512820512821,4333.333333333334,4817.948717948719,3778.9743589743593,4225.641025641026,4185.641025641026,4095.3846153846157,4383.076923076924,4076.9230769230776,4247.179487179487
304996,73.0,0.0,464.0,4490.256410256411,4180.000000000001,4331.794871794872,4827.6923076923085,3784.1025641025644,4225.128205128206,4187.6923076923085,4100.512820512821,4384.102564102564,4073.8461538461543,4251.794871794872
304996,74.0,0.0,495.0,4510.256410256411,4183.076923076924,4329.2307692307695,4827.6923076923085,3786.666666666667,4225.128205128206,4200.000000000001,4110.769230769231,4389.743589743591,4075.8974358974365,4250.256410256411
304996,75.0,0.0,371.0,4502.564102564103,4184.102564102564,4331.282051282052,4823.589743589744,3784.615384615385,4225.641025641026,4203.589743589744,4111.794871794872,4391.282051282052,4078.9743589743593,4247.6923076923085
304996,76.0,0.0,0.0,4478.461538461539,4183.589743589744,4331.794871794872,4826.666666666667,3785.1282051282055,4221.538461538462,4195.384615384616,4105.128205128206,4385.128205128206,4080.0000000000005,4251.282051282052
305402,77.0,0.0,313.0,4476.923076923077,4180.000000000001,4333.846153846154,4818.461538461539,3780.512820512821,4220.000000000001,4192.820512820514,4104.615384615385,4382.564102564103,4082.0512820512827,4250.769230769231
305402,78.0,0.0,495.0,4500.512820512821,4185.128205128206,4333.333333333334,4833.333333333334,3785.1282051282055,4218.974358974359,4191.282051282052,4102.564102564103,4382.564102564103,4080.0000000000005,4248.717948717949
305402,79.0,0.0,371.0,4527.179487179488,4189.2307692307695,4328.205128205129,4832.820512820514,3789.2307692307695,4223.076923076924,4192.820512820514,4105.641025641026,4384.615384615385,4081.538461538462,4246.666666666667
305402,80.0,0.0,0.0,4530.256410256411,4188.205128205129,4332.820512820514,4825.641025641026,3786.666666666667,4234.358974358975,4199.48717948718,4115.384615384616,4387.6923076923085,4084.1025641025644,4248.205128205129
305402,81.0,0.0,313.0,4509.2307692307695,4189.2307692307695,4341.538461538462,4838.461538461539,3788.205128205129,4233.846153846154,4197.435897435898,4106.153846153847,4380.000000000001,4073.8461538461543,4249.2307692307695
305402,82.0,0.0,495.0,4496.923076923077,4188.205128205129,4341.538461538462,4829.2307692307695,3787.1794871794878,4227.179487179487,4195.384615384616,4092.307692307693,4375.8974358974365,4069.7435897435903,4245.128205128206
305403,83.0,0.0,371.0,4499.48717948718,4188.205128205129,4336.923076923077,4828.717948717949,3790.2564102564106,4224.102564102564,4195.8974358974365,4090.7692307692314,4376.923076923077,4071.7948717948725,4247.179487179487
305403,84.0,0.0,0.0,4493.846153846154,4185.128205128206,4338.974358974359,4825.641025641026,3789.7435897435903,4224.102564102564,4193.333333333334,4089.23076923077,4374.358974358975,4068.717948717949,4247.6923076923085
305403,85.0,0.0,313.0,4484.615384615385,4182.051282051282,4347.179487179487,4820.512820512821,3790.2564102564106,4225.128205128206,4191.282051282052,4087.1794871794878,4375.8974358974365,4071.7948717948725,4245.641025641026
305403,86.0,0.0,495.0,4503.076923076924,4187.6923076923085,4351.794871794872,4834.358974358975,3796.9230769230776,4224.102564102564,4189.2307692307695,4090.2564102564106,4379.48717948718,4079.48717948718,4247.179487179487
305403,87.0,0.0,371.0,4530.256410256411,4190.769230769231,4349.743589743591,4829.743589743591,3792.820512820513,4227.179487179487,4191.794871794872,4093.333333333334,4381.538461538462,4081.0256410256416,4247.6923076923085
305403,88.0,0.0,0.0,4522.051282051282,4190.769230769231,4347.6923076923085,4832.820512820514,3792.820512820513,4230.769230769231,4190.769230769231,4091.2820512820517,4378.461538461539,4077.435897435898,4246.153846153847
305404,89.0,0.0,313.0,4498.974358974359,4188.717948717949,4347.179487179487,4831.794871794872,3793.333333333334,4232.820512820514,4186.666666666667,4095.8974358974365,4376.410256410257,4074.8717948717954,4245.128205128206
305404,90.0,0.0,495.0,4506.153846153847,4185.641025641026,4344.615384615385,4821.538461538462,3786.666666666667,4236.923076923077,4188.205128205129,4104.102564102564,4380.512820512821,4075.8974358974365,4246.666666666667
305404,91.0,0.0,371.0,4511.794871794872,4185.641025641026,4337.435897435898,4835.384615384616,3787.692307692308,4238.974358974359,4190.256410256411,4102.051282051282,4380.512820512821,4073.333333333334,4247.179487179487
305404,92.0,0.0,0.0,4484.615384615385,4180.512820512821,4336.410256410257,4825.641025641026,3786.666666666667,4240.512820512821,4194.358974358975,4101.538461538462,4382.051282051282,4071.2820512820517,4243.589743589744
305404,93.0,0.0,313.0,4468.717948717949,4176.923076923077,4336.923076923077,4815.8974358974365,3786.666666666667,4236.923076923077,4197.948717948719,4102.564102564103,4381.538461538462,4069.23076923077,4243.076923076924
305404,94.0,0.0,495.0,4485.641025641026,4180.000000000001,4330.769230769231,4822.051282051282,3788.205128205129,4238.974358974359,4200.000000000001,4096.923076923077,4376.923076923077,4063.589743589744,4244.615384615385
305404,95.0,0.0,371.0,4511.282051282052,4183.589743589744,4329.743589743591,4821.538461538462,3784.615384615385,4253.846153846154,4206.153846153847,4094.358974358975,4376.923076923077,4064.615384615385,4246.666666666667
305405,96.0,0.0,0.0,4506.666666666667,4187.6923076923085,4338.974358974359,4830.769230769231,3786.666666666667,4251.794871794872,4208.717948717949,4097.435897435898,4381.025641025642,4069.7435897435903,4247.6923076923085
305405,97.0,0.0,313.0,4477.948717948719,4182.564102564103,4344.615384615385,4824.102564102564,3788.205128205129,4240.512820512821,4206.666666666667,4108.717948717949,4386.153846153847,4074.8717948717954,4244.102564102564
305405,98.0,0.0,495.0,4477.948717948719,4179.48717948718,4334.358974358975,4818.461538461539,3787.692307692308,4241.538461538462,4205.641025641026,4115.8974358974365,4384.102564102564,4075.3846153846157,4246.153846153847
305405,99.0,0.0,371.0,4507.179487179488,4185.641025641026,4319.48717948718,4826.666666666667,3788.717948717949,4245.128205128206,4204.615384615385,4106.153846153847,4379.48717948718,4071.7948717948725,4249.2307692307695
305405,100.0,0.0,0.0,4523.076923076924,4186.666666666667,4315.8974358974365,4823.076923076924,3784.615384615385,4247.179487179487,4203.589743589744,4097.948717948719,4381.025641025642,4070.7692307692314,4245.641025641026
305405,101.0,0.0,313.0,4507.6923076923085,4179.48717948718,4315.8974358974365,4823.589743589744,3782.564102564103,4249.74358974359,4204.615384615385,4098.461538461539,4375.384615384616,4065.6410256410263,4244.615384615385
305406,102.0,0.0,495.0,4487.6923076923085,4174.871794871796,4318.461538461539,4818.461538461539,3782.564102564103,4248.717948717949,4207.6923076923085,4099.48717948718,4370.256410256411,4064.1025641025644,4245.641025641026
305406,103.0,0.0,371.0,4473.333333333334,4177.435897435898,4330.769230769231,4815.384615384616,3788.205128205129,4247.179487179487,4211.794871794872,4102.564102564103,4383.076923076924,4074.358974358975,4246.153846153847
305407,104.0,0.0,0.0,4461.025641025642,4176.923076923077,4339.48717948718,4818.461538461539,3795.8974358974365,4248.205128205129,4212.307692307693,4107.6923076923085,4394.871794871796,4081.538461538462,4244.615384615385
305407,105.0,0.0,313.0,4467.6923076923085,4171.282051282052,4335.8974358974365,4815.8974358974365,3792.820512820513,4247.6923076923085,4210.256410256411,4108.205128205129,4390.256410256411,4078.9743589743593,4242.051282051282
305407,106.0,0.0,495.0,4494.871794871796,4174.358974358975,4326.666666666667,4822.564102564103,3790.2564102564106,4249.2307692307695,4209.74358974359,4106.666666666667,4387.6923076923085,4079.48717948718,4242.051282051282
305407,107.0,0.0,371.0,4515.8974358974365,4181.538461538462,4323.589743589744,4822.564102564103,3791.7948717948725,4252.820512820514,4211.282051282052,4108.205128205129,4392.820512820514,4082.564102564103,4244.102564102564
305407,108.0,0.0,0.0,4511.282051282052,4182.051282051282,4333.333333333334,4817.948717948719,3790.2564102564106,4245.641025641026,4208.205128205129,4108.717948717949,4390.256410256411,4078.461538461539,4248.205128205129
305407,109.0,0.0,313.0,4494.871794871796,4180.000000000001,4341.025641025642,4819.48717948718,3789.2307692307695,4236.923076923077,4205.641025641026,4105.641025641026,4384.102564102564,4073.8461538461543,4248.717948717949
305408,110.0,0.0,495.0,4487.6923076923085,4176.410256410257,4337.435897435898,4818.974358974359,3785.6410256410263,4241.538461538462,4210.256410256411,4101.025641025642,4383.076923076924,4072.820512820513,4245.128205128206
305408,111.0,0.0,371.0,4494.358974358975,4176.923076923077,4335.8974358974365,4820.512820512821,3783.076923076924,4245.641025641026,4210.256410256411,4097.435897435898,4381.538461538462,4070.2564102564106,4246.666666666667
305408,112.0,0.0,0.0,4507.179487179488,4179.48717948718,4340.000000000001,4819.48717948718,3780.0000000000005,4247.6923076923085,4211.282051282052,4100.512820512821,4384.102564102564,4073.8461538461543,4245.128205128206
305408,113.0,0.0,313.0,4507.6923076923085,4178.974358974359,4334.871794871796,4817.948717948719,3780.0000000000005,4254.358974358975,4215.8974358974365,4102.564102564103,4385.128205128206,4074.358974358975,4242.051282051282
305408,114.0,0.0,495.0,4489.2307692307695,4175.8974358974365,4329.2307692307695,4818.974358974359,3783.076923076924,4252.820512820514,4210.769230769231,4097.435897435898,4379.48717948718,4065.1282051282055,4244.102564102564
305408,115.0,0.0,371.0,4472.307692307693,4171.794871794872,4335.384615384616,4814.358974358975,3782.564102564103,4240.000000000001,4201.025641025642,4099.48717948718,4377.948717948719,4062.0512820512827,4245.641025641026
305408,116.0,0.0,0.0,4481.025641025642,4173.333333333334,4340.000000000001,4816.923076923077,3785.6410256410263,4236.410256410257,4194.871794871796,4097.948717948719,4379.48717948718,4063.076923076924,4246.153846153847
305409,117.0,0.0,313.0,4501.538461538462,4177.435897435898,4331.794871794872,4816.923076923077,3787.692307692308,4241.538461538462,4193.846153846154,4089.23076923077,4375.8974358974365,4056.9230769230776,4245.641025641026
305409,118.0,0.0,495.0,4488.205128205129,4176.410256410257,4325.128205128206,4816.923076923077,3786.1538461538466,4245.641025641026,4202.564102564103,4100.000000000001,4380.512820512821,4059.48717948718,4244.102564102564
305409,119.0,0.0,371.0,4474.358974358975,4177.435897435898,4332.820512820514,4826.153846153847,3787.692307692308,4243.589743589744,4212.307692307693,4114.871794871796,4390.769230769231,4070.2564102564106,4244.102564102564
305409,120.0,0.0,0.0,4504.615384615385,4182.564102564103,4338.974358974359,4822.564102564103,3790.7692307692314,4245.641025641026,4210.256410256411,4112.307692307693,4391.794871794872,4075.3846153846157,4245.128205128206
305409,121.0,0.0,313.0,4515.8974358974365,4181.538461538462,4336.410256410257,4819.48717948718,3787.692307692308,4251.282051282052,4206.666666666667,4108.717948717949,4387.6923076923085,4075.3846153846157,4245.641025641026
305409,122.0,0.0,495.0,4492.820512820514,4176.410256410257,4334.871794871796,4821.025641025642,3783.076923076924,4248.717948717949,4210.256410256411,4112.307692307693,4386.666666666667,4071.7948717948725,4245.641025641026
305409,123.0,0.0,371.0,4487.6923076923085,4176.410256410257,4336.410256410257,4822.051282051282,3783.589743589744,4242.564102564103,4211.794871794872,4113.333333333334,4384.102564102564,4068.717948717949,4245.128205128206
305410,124.0,0.0,0.0,4500.000000000001,4177.948717948719,4334.871794871796,4825.641025641026,3785.1282051282055,4240.000000000001,4207.6923076923085,4109.2307692307695,4380.512820512821,4069.7435897435903,4244.102564102564
305410,125.0,0.0,313.0,4506.666666666667,4173.846153846154,4329.743589743591,4820.000000000001,3782.564102564103,4240.512820512821,4203.589743589744,4100.512820512821,4378.974358974359,4067.692307692308,4243.589743589744
305410,126.0,0.0,495.0,4503.076923076924,4173.846153846154,4322.564102564103,4817.435897435898,3785.1282051282055,4240.512820512821,4200.512820512821,4093.333333333334,4374.871794871796,4060.0000000000005,4244.102564102564
305410,127.0,0.0,371.0,4482.564102564103,4175.384615384616,4323.589743589744,4817.435897435898,3785.1282051282055,4236.923076923077,4196.923076923077,4091.2820512820517,4372.307692307693,4057.435897435898,4243.589743589744
305410,128.0,0.0,0.0,4470.769230769231,4173.333333333334,4333.333333333334,4814.871794871796,3778.9743589743593,4234.358974358975,4194.358974358975,4090.2564102564106,4376.410256410257,4064.615384615385,4244.615384615385
305431,0.0,0.0,475.0,4495.8974358974365,4175.384615384616,4329.743589743591,4821.025641025642,3781.538461538462,4235.384615384616,4187.6923076923085,4090.7692307692314,4380.512820512821,4066.1538461538466,4245.128205128206
305431,1.0,0.0,312.0,4513.333333333334,4178.974358974359,4323.589743589744,4820.512820512821,3785.6410256410263,4238.974358974359,4184.615384615385,4097.948717948719,4381.538461538462,4066.1538461538466,4242.564102564103
305431,2.0,0.0,503.0,4504.615384615385,4182.564102564103,4327.179487179487,4821.025641025642,3778.9743589743593,4238.974358974359,4189.2307692307695,4100.512820512821,4381.538461538462,4071.2820512820517,4245.641025641026
305431,3.0,0.0,442.0,4498.461538461539,4185.641025641026,4326.153846153847,4825.128205128206,3773.8461538461543,4238.974358974359,4192.820512820514,4095.3846153846157,4379.48717948718,4070.2564102564106,4246.153846153847
305780,4.0,0.0,109.0,4493.846153846154,4185.128205128206,4328.717948717949,4824.615384615386,3776.410256410257,4242.051282051282,4195.384615384616,4094.8717948717954,4377.948717948719,4066.1538461538466,4241.538461538462
305780,5.0,0.0,550.0,4487.6923076923085,4184.615384615385,4338.974358974359,4826.666666666667,3778.9743589743593,4246.666666666667,4201.538461538462,4098.974358974359,4380.000000000001,4067.1794871794878,4243.589743589744
305780,6.0,0.0,534.0,4502.564102564103,4183.589743589744,4333.846153846154,4823.589743589744,3778.461538461539,4253.333333333334,4206.666666666667,4104.102564102564,4386.153846153847,4068.717948717949,4245.128205128206
305780,7.0,0.0,462.0,4523.589743589744,4187.179487179487,4323.589743589744,4824.615384615386,3783.076923076924,4257.435897435898,4206.153846153847,4109.2307692307695,4390.256410256411,4068.717948717949,4243.589743589744
305780,8.0,0.0,388.0,4516.410256410257,4192.307692307693,4327.179487179487,4830.769230769231,3786.1538461538466,4252.820512820514,4203.076923076924,4108.717948717949,4387.6923076923085,4071.2820512820517,4244.102564102564
305780,9.0,0.0,464.0,4506.666666666667,4188.717948717949,4329.2307692307695,4826.666666666667,3782.0512820512827,4248.205128205129,4206.666666666667,4109.2307692307695,4387.6923076923085,4075.3846153846157,4244.102564102564
305780,10.0,0.0,495.0,4505.641025641026,4184.102564102564,4330.769230769231,4825.641025641026,3781.0256410256416,4246.666666666667,4210.256410256411,4115.8974358974365,4392.820512820514,4078.461538461539,4244.102564102564
305780,11.0,0.0,372.0,4496.923076923077,4183.589743589744,4335.8974358974365,4822.564102564103,3780.0000000000005,4243.589743589744,4207.179487179487,4114.871794871796,4390.769230769231,4076.410256410257,4244.102564102564
305780,12.0,0.0,0.0,4502.564102564103,4185.128205128206,4330.769230769231,4822.564102564103,3780.0000000000005,4242.051282051282,4206.666666666667,4108.205128205129,4387.6923076923085,4070.2564102564106,4243.076923076924
305780,13.0,0.0,313.0,4522.564102564103,4185.641025641026,4322.564102564103,4828.205128205129,3785.1282051282055,4244.102564102564,4212.820512820514,4113.333333333334,4390.256410256411,4072.820512820513,4243.589743589744
305780,14.0,0.0,495.0,4521.538461538462,4183.589743589744,4326.153846153847,4824.102564102564,3786.666666666667,4247.6923076923085,4219.48717948718,4118.974358974359,4391.282051282052,4078.461538461539,4244.102564102564
305780,15.0,0.0,372.0,4504.615384615385,4185.128205128206,4337.435897435898,4824.615384615386,3786.666666666667,4249.2307692307695,4221.538461538462,4113.333333333334,4387.6923076923085,4076.410256410257,4243.076923076924
305781,16.0,0.0,0.0,4506.153846153847,4190.769230769231,4342.564102564103,4828.717948717949,3792.307692307693,4249.74358974359,4220.000000000001,4109.2307692307695,4387.6923076923085,4074.358974358975,4243.076923076924
305781,17.0,0.0,0.0,4520.000000000001,4189.74358974359,4338.461538461539,4828.717948717949,3795.8974358974365,4250.256410256411,4216.410256410257,4106.153846153847,4388.717948717949,4076.9230769230776,4245.128205128206
305781,18.0,0.0,0.0,4515.384615384616,4186.153846153847,4332.820512820514,4827.179487179488,3790.2564102564106,4248.717948717949,4208.205128205129,4093.333333333334,4385.128205128206,4074.358974358975,4243.076923076924
305781,19.0,0.0,0.0,4504.615384615385,4186.666666666667,4330.769230769231,4825.641025641026,3784.1025641025644,4249.74358974359,4205.641025641026,4090.7692307692314,4384.102564102564,4072.307692307693,4241.538461538462
305781,20.0,0.0,0.0,4513.846153846154,4192.307692307693,4329.743589743591,4830.769230769231,3786.666666666667,4252.820512820514,4210.769230769231,4106.666666666667,4387.6923076923085,4078.9743589743593,4245.128205128206
305781,21.0,0.0,0.0,4517.948717948719,4192.307692307693,4328.205128205129,4829.2307692307695,3787.692307692308,4252.307692307693,4212.307692307693,4116.410256410257,4388.205128205129,4080.5128205128212,4244.102564102564
305781,22.0,0.0,0.0,4496.923076923077,4185.128205128206,4331.282051282052,4826.153846153847,3784.1025641025644,4251.794871794872,4209.74358974359,4110.769230769231,4387.6923076923085,4073.333333333334,4241.025641025642
305781,23.0,0.0,0.0,4495.384615384616,4185.128205128206,4334.358974358975,4831.794871794872,3786.1538461538466,4249.74358974359,4211.282051282052,4105.641025641026,4388.205128205129,4070.2564102564106,4244.102564102564
305781,24.0,0.0,0.0,4517.948717948719,4189.74358974359,4333.333333333334,4828.205128205129,3787.1794871794878,4248.205128205129,4217.435897435898,4111.794871794872,4389.743589743591,4076.410256410257,4245.641025641026
305782,25.0,0.0,0.0,4527.179487179488,4192.820512820514,4330.769230769231,4827.179487179488,3787.1794871794878,4248.205128205129,4216.410256410257,4117.948717948719,4392.307692307693,4081.538461538462,4245.641025641026
305782,26.0,0.0,0.0,4519.48717948718,4192.307692307693,4331.282051282052,4833.846153846154,3791.7948717948725,4243.589743589744,4209.74358974359,4111.794871794872,4391.282051282052,4082.564102564103,4245.641025641026
305782,27.0,0.0,0.0,4505.128205128206,4190.769230769231,4335.8974358974365,4831.282051282052,3792.820512820513,4233.333333333334,4204.615384615385,4098.974358974359,4383.589743589744,4081.0256410256416,4246.153846153847
305782,28.0,0.0,0.0,4502.564102564103,4190.256410256411,4333.846153846154,4827.179487179488,3788.205128205129,4228.717948717949,4204.102564102564,4092.820512820513,4376.923076923077,4074.8717948717954,4248.205128205129
305783,29.0,0.0,0.0,4514.871794871796,4188.717948717949,4327.6923076923085,4825.128205128206,3785.6410256410263,4233.333333333334,4204.615384615385,4095.3846153846157,4377.435897435898,4069.7435897435903,4243.589743589744
305783,30.0,0.0,0.0,4510.256410256411,4189.2307692307695,4328.717948717949,4827.6923076923085,3787.1794871794878,4236.923076923077,4200.512820512821,4092.307692307693,4376.410256410257,4066.666666666667,4238.974358974359
305783,31.0,0.0,0.0,4491.282051282052,4187.179487179487,4331.794871794872,4827.179487179488,3789.2307692307695,4233.846153846154,4198.461538461539,4083.589743589744,4374.358974358975,4061.538461538462,4244.615384615385
305783,32.0,0.0,0.0,4493.333333333334,4183.076923076924,4332.820512820514,4821.538461538462,3788.717948717949,4228.205128205129,4203.589743589744,4090.7692307692314,4376.923076923077,4064.615384615385,4247.6923076923085
305783,33.0,0.0,0.0,4508.717948717949,4182.564102564103,4333.333333333334,4823.076923076924,3789.2307692307695,4225.641025641026,4207.179487179487,4105.128205128206,4380.512820512821,4072.307692307693,4243.589743589744
305783,34.0,0.0,0.0,4507.179487179488,4183.589743589744,4332.820512820514,4823.076923076924,3787.692307692308,4230.769230769231,4207.179487179487,4103.589743589744,4382.051282051282,4069.7435897435903,4242.564102564103
305783,35.0,0.0,0.0,4500.512820512821,4185.128205128206,4333.846153846154,4824.615384615386,3786.666666666667,4241.538461538462,4208.205128205129,4096.923076923077,4382.564102564103,4067.692307692308,4243.076923076924
305783,36.0,0.0,0.0,4502.564102564103,4187.6923076923085,4334.358974358975,4826.666666666667,3789.2307692307695,4249.2307692307695,4207.179487179487,4092.307692307693,4379.48717948718,4072.307692307693,4242.051282051282
305784,37.0,0.0,0.0,4510.256410256411,4184.615384615385,4328.205128205129,4821.025641025642,3787.1794871794878,4246.153846153847,4199.48717948718,4085.6410256410263,4375.8974358974365,4069.23076923077,4241.538461538462
305784,38.0,0.0,0.0,4512.820512820514,4180.000000000001,4320.512820512821,4821.538461538462,3781.538461538462,4237.948717948719,4191.282051282052,4079.48717948718,4374.358974358975,4059.48717948718,4242.564102564103
305784,39.0,0.0,0.0,4506.153846153847,4182.051282051282,4317.435897435898,4823.589743589744,3781.538461538462,4238.974358974359,4190.769230769231,4076.9230769230776,4373.846153846154,4059.48717948718,4242.051282051282
305784,40.0,0.0,0.0,4514.358974358975,4189.2307692307695,4322.564102564103,4827.6923076923085,3786.1538461538466,4243.076923076924,4195.8974358974365,4083.076923076924,4375.384615384616,4068.717948717949,4242.564102564103
305784,41.0,0.0,0.0,4527.6923076923085,4193.333333333334,4333.846153846154,4834.871794871796,3788.205128205129,4238.974358974359,4199.48717948718,4095.8974358974365,4382.564102564103,4077.435897435898,4245.128205128206
305784,42.0,0.0,0.0,4510.256410256411,4190.256410256411,4338.461538461539,4826.666666666667,3785.1282051282055,4241.025641025642,4203.589743589744,4106.153846153847,4391.282051282052,4081.0256410256416,4242.564102564103
305784,43.0,0.0,0.0,4494.871794871796,4187.6923076923085,4331.282051282052,4824.615384615386,3785.6410256410263,4251.794871794872,4207.179487179487,4106.153846153847,4391.282051282052,4078.461538461539,4241.025641025642
305785,44.0,0.0,0.0,4513.333333333334,4188.717948717949,4325.641025641026,4830.256410256411,3788.205128205129,4256.923076923077,4205.128205128206,4098.461538461539,4383.589743589744,4072.820512820513,4243.076923076924
305785,45.0,0.0,0.0,4524.615384615385,4190.769230769231,4324.102564102564,4829.743589743591,3786.1538461538466,4257.948717948719,4203.589743589744,4094.8717948717954,4383.589743589744,4072.820512820513,4244.102564102564
305785,46.0,0.0,0.0,4508.205128205129,4191.794871794872,4322.051282051282,4831.282051282052,3784.615384615385,4262.564102564103,4206.666666666667,4102.051282051282,4387.6923076923085,4075.3846153846157,4243.589743589744
305785,47.0,0.0,0.0,4491.794871794872,4189.74358974359,4320.512820512821,4826.666666666667,3783.589743589744,4264.615384615385,4207.6923076923085,4108.717948717949,4385.128205128206,4075.3846153846157,4242.564102564103
305905,48.0,0.0,0.0,4499.48717948718,4190.256410256411,4318.974358974359,4825.128205128206,3783.589743589744,4257.948717948719,4205.128205128206,4104.102564102564,4381.025641025642,4072.820512820513,4241.025641025642
305905,49.0,0.0,0.0,4520.000000000001,4191.282051282052,4315.384615384616,4831.282051282052,3783.076923076924,4249.2307692307695,4203.589743589744,4098.974358974359,4382.051282051282,4070.2564102564106,4241.025641025642
305905,50.0,0.0,0.0,4510.769230769231,4188.205128205129,4314.871794871796,4829.2307692307695,3782.0512820512827,4244.615384615385,4204.102564102564,4097.948717948719,4382.051282051282,4067.692307692308,4241.538461538462
305905,51.0,0.0,0.0,4476.923076923077,4184.615384615385,4318.974358974359,4824.615384615386,3781.538461538462,4245.128205128206,4201.538461538462,4097.948717948719,4380.000000000001,4065.6410256410263,4242.051282051282
305906,52.0,0.0,0.0,4478.461538461539,4180.512820512821,4322.051282051282,4817.948717948719,3782.564102564103,4249.2307692307695,4200.512820512821,4097.435897435898,4380.000000000001,4066.1538461538466,4239.48717948718
305906,53.0,0.0,0.0,4507.179487179488,4177.948717948719,4324.615384615385,4819.48717948718,3784.615384615385,4250.769230769231,4203.076923076924,4093.8461538461543,4378.974358974359,4064.615384615385,4240.000000000001
305906,54.0,0.0,0.0,4496.923076923077,4178.461538461539,4322.564102564103,4823.589743589744,3781.0256410256416,4248.205128205129,4201.538461538462,4090.2564102564106,4379.48717948718,4062.0512820512827,4244.102564102564
305906,55.0,0.0,0.0,4469.2307692307695,4176.923076923077,4316.923076923077,4816.923076923077,3776.410256410257,4243.589743589744,4193.333333333334,4084.1025641025644,4377.435897435898,4058.9743589743593,4242.564102564103
305906,56.0,0.0,0.0,4487.179487179488,4178.974358974359,4314.358974358975,4816.410256410257,3782.564102564103,4236.410256410257,4187.6923076923085,4070.7692307692314,4368.205128205129,4049.7435897435903,4239.48717948718
305906,57.0,0.0,0.0,4520.512820512821,4184.102564102564,4315.384615384616,4820.000000000001,3787.692307692308,4235.384615384616,4189.74358974359,4068.717948717949,4365.641025641026,4043.589743589744,4240.000000000001
305906,58.0,0.0,0.0,4520.000000000001,4189.2307692307695,4315.8974358974365,4825.128205128206,3785.1282051282055,4243.589743589744,4194.358974358975,4084.1025641025644,4373.333333333334,4051.2820512820517,4241.025641025642
305906,59.0,0.0,0.0,4500.512820512821,4190.769230769231,4316.923076923077,4832.307692307693,3786.1538461538466,4249.2307692307695,4197.435897435898,4092.307692307693,4376.923076923077,4059.48717948718,4237.435897435898
305906,60.0,0.0,0.0,4498.974358974359,4189.74358974359,4319.48717948718,4827.179487179488,3789.7435897435903,4250.256410256411,4199.48717948718,4088.717948717949,4375.8974358974365,4060.0000000000005,4236.410256410257
305906,61.0,0.0,0.0,4504.102564102564,4191.282051282052,4323.589743589744,4826.666666666667,3789.7435897435903,4247.179487179487,4200.000000000001,4091.2820512820517,4376.923076923077,4065.6410256410263,4243.589743589744
305906,62.0,0.0,0.0,4495.8974358974365,4193.333333333334,4327.179487179487,4828.717948717949,3789.7435897435903,4246.153846153847,4202.564102564103,4098.461538461539,4382.564102564103,4076.9230769230776,4243.589743589744
305906,63.0,0.0,0.0,4502.051282051282,4194.358974358975,4324.615384615385,4830.256410256411,3792.307692307693,4256.410256410257,4208.717948717949,4100.512820512821,4391.282051282052,4082.564102564103,4239.48717948718
305958,64.0,0.0,475.0,4517.948717948719,4196.410256410257,4323.589743589744,4837.435897435898,3793.333333333334,4265.128205128206,4211.282051282052,4096.923076923077,4389.2307692307695,4079.48717948718,4241.025641025642
305958,65.0,0.0,303.0,4512.307692307693,4193.846153846154,4324.615384615385,4832.307692307693,3790.2564102564106,4256.923076923077,4206.153846153847,4092.820512820513,4375.8974358974365,4069.7435897435903,4241.025641025642
305958,66.0,0.0,503.0,4498.461538461539,4189.74358974359,4319.48717948718,4826.666666666667,3787.692307692308,4243.076923076924,4197.948717948719,4091.2820512820517,4373.333333333334,4061.538461538462,4238.461538461539
305958,67.0,0.0,438.0,4504.615384615385,4191.282051282052,4314.358974358975,4828.205128205129,3786.1538461538466,4240.000000000001,4198.461538461539,4095.3846153846157,4382.051282051282,4064.615384615385,4238.974358974359
305958,68.0,0.0,109.0,4520.512820512821,4193.333333333334,4317.948717948719,4832.307692307693,3784.1025641025644,4244.102564102564,4200.512820512821,4095.8974358974365,4381.538461538462,4071.2820512820517,4240.000000000001
305958,69.0,0.0,550.0,4519.48717948718,4192.307692307693,4319.48717948718,4834.358974358975,3783.589743589744,4243.076923076924,4193.846153846154,4088.205128205129,4375.384615384616,4069.23076923077,4238.974358974359
305959,70.0,0.0,534.0,4506.666666666667,4189.2307692307695,4316.923076923077,4826.153846153847,3785.6410256410263,4236.410256410257,4189.74358974359,4088.717948717949,4380.000000000001,4067.692307692308,4238.974358974359
305959,71.0,0.0,462.0,4503.076923076924,4188.717948717949,4324.102564102564,4826.666666666667,3792.307692307693,4235.8974358974365,4192.820512820514,4095.3846153846157,4383.589743589744,4075.3846153846157,4242.051282051282
306023,72.0,0.0,388.0,4507.179487179488,4190.256410256411,4329.743589743591,4830.769230769231,3797.435897435898,4244.102564102564,4190.256410256411,4089.7435897435903,4377.435897435898,4076.410256410257,4241.025641025642
306023,73.0,0.0,464.0,4507.6923076923085,4190.769230769231,4315.8974358974365,4827.6923076923085,3790.2564102564106,4244.102564102564,4185.641025641026,4081.0256410256416,4374.358974358975,4068.717948717949,4239.48717948718
306023,74.0,0.0,495.0,4516.923076923077,4189.74358974359,4302.051282051282,4827.6923076923085,3784.615384615385,4238.461538461539,4185.641025641026,4084.615384615385,4375.8974358974365,4067.692307692308,4241.025641025642
306023,75.0,0.0,372.0,4527.6923076923085,4188.205128205129,4307.179487179487,4824.615384615386,3785.6410256410263,4234.871794871796,4185.641025641026,4087.692307692308,4376.410256410257,4070.2564102564106,4239.48717948718
306023,76.0,0.0,0.0,4503.589743589744,4189.74358974359,4320.512820512821,4826.666666666667,3782.0512820512827,4229.2307692307695,4183.076923076924,4079.48717948718,4374.871794871796,4063.589743589744,4237.435897435898
306024,77.0,0.0,313.0,4481.025641025642,4191.282051282052,4326.153846153847,4832.307692307693,3780.512820512821,4227.179487179487,4185.641025641026,4075.3846153846157,4373.333333333334,4057.435897435898,4239.48717948718
306024,78.0,0.0,495.0,4511.794871794872,4190.769230769231,4326.666666666667,4830.769230769231,3781.538461538462,4238.461538461539,4194.358974358975,4085.1282051282055,4375.8974358974365,4062.0512820512827,4239.48717948718
306024,79.0,0.0,372.0,4540.512820512821,4192.307692307693,4322.564102564103,4832.820512820514,3782.564102564103,4246.153846153847,4196.410256410257,4090.2564102564106,4380.000000000001,4063.589743589744,4238.461538461539
306153,80.0,0.0,0.0,4519.48717948718,4191.794871794872,4317.435897435898,4829.743589743591,3784.1025641025644,4243.589743589744,4192.820512820514,4090.2564102564106,4381.025641025642,4062.564102564103,4236.923076923077
306153,81.0,0.0,313.0,4500.000000000001,4189.74358974359,4323.589743589744,4827.179487179488,3789.7435897435903,4244.615384615385,4195.384615384616,4100.000000000001,4383.589743589744,4073.8461538461543,4236.410256410257
306153,82.0,0.0,495.0,4513.333333333334,4193.333333333334,4334.358974358975,4832.820512820514,3790.2564102564106,4249.74358974359,4200.000000000001,4110.769230769231,4389.2307692307695,4087.1794871794878,4240.000000000001
306153,83.0,0.0,372.0,4520.512820512821,4191.794871794872,4328.717948717949,4828.205128205129,3785.1282051282055,4250.256410256411,4198.461538461539,4108.205128205129,4389.2307692307695,4086.1538461538466,4240.512820512821
306153,84.0,0.0,0.0,4508.717948717949,4182.051282051282,4313.333333333334,4821.025641025642,3785.6410256410263,4245.641025641026,4192.307692307693,4098.974358974359,4381.025641025642,4075.8974358974365,4240.512820512821
306153,85.0,0.0,313.0,4514.871794871796,4177.435897435898,4311.282051282052,4818.974358974359,3787.1794871794878,4242.051282051282,4189.74358974359,4092.820512820513,4376.923076923077,4067.1794871794878,4241.025641025642
306153,86.0,0.0,495.0,4512.307692307693,4180.512820512821,4316.923076923077,4823.076923076924,3786.666666666667,4241.025641025642,4192.820512820514,4089.7435897435903,4375.8974358974365,4062.0512820512827,4238.974358974359
306153,87.0,0.0,372.0,4486.666666666667,4180.512820512821,4316.410256410257,4825.641025641026,3787.1794871794878,4235.8974358974365,4193.846153846154,4089.23076923077,4372.307692307693,4057.9487179487182,4234.871794871796
306153,88.0,0.0,0.0,4487.179487179488,4177.948717948719,4317.948717948719,4818.461538461539,3786.666666666667,4229.74358974359,4194.358974358975,4094.358974358975,4374.358974358975,4055.3846153846157,4235.8974358974365
306153,89.0,0.0,313.0,4502.564102564103,4184.102564102564,4324.615384615385,4821.538461538462,3788.205128205129,4230.256410256411,4193.846153846154,4094.358974358975,4380.512820512821,4056.410256410257,4238.974358974359
306153,90.0,0.0,495.0,4496.923076923077,4190.256410256411,4326.153846153847,4827.179487179488,3789.2307692307695,4226.666666666667,4185.128205128206,4084.1025641025644,4376.923076923077,4056.410256410257,4235.8974358974365
306153,91.0,0.0,372.0,4504.102564102564,4186.666666666667,4321.538461538462,4823.076923076924,3786.666666666667,4215.8974358974365,4179.48717948718,4080.5128205128212,4371.794871794872,4053.8461538461543,4234.871794871796
306155,92.0,0.0,0.0,4525.641025641026,4185.641025641026,4319.48717948718,4824.102564102564,3788.205128205129,4219.48717948718,4183.589743589744,4088.205128205129,4375.8974358974365,4055.3846153846157,4235.8974358974365
306155,93.0,0.0,313.0,4510.256410256411,4183.076923076924,4328.205128205129,4822.051282051282,3790.2564102564106,4232.307692307693,4188.717948717949,4091.7948717948725,4378.974358974359,4060.0000000000005,4233.846153846154
306155,94.0,0.0,495.0,4489.2307692307695,4183.076923076924,4334.358974358975,4823.076923076924,3787.692307692308,4232.307692307693,4191.282051282052,4088.717948717949,4376.410256410257,4061.538461538462,4236.410256410257
306155,95.0,0.0,372.0,4505.641025641026,4190.256410256411,4326.153846153847,4828.205128205129,3788.717948717949,4228.717948717949,4195.8974358974365,4088.717948717949,4375.384615384616,4064.615384615385,4239.48717948718
306281,96.0,0.0,0.0,4514.871794871796,4191.282051282052,4315.384615384616,4825.128205128206,3792.307692307693,4236.923076923077,4196.410256410257,4090.7692307692314,4377.435897435898,4067.1794871794878,4234.871794871796
306281,97.0,0.0,313.0,4505.128205128206,4184.615384615385,4314.358974358975,4824.615384615386,3790.7692307692314,4237.948717948719,4191.282051282052,4090.2564102564106,4376.923076923077,4060.5128205128212,4233.846153846154
306282,98.0,0.0,495.0,4501.025641025642,4181.025641025642,4313.846153846154,4820.512820512821,3789.2307692307695,4225.641025641026,4190.256410256411,4087.692307692308,4370.769230769231,4055.3846153846157,4234.871794871796
306282,99.0,0.0,372.0,4503.076923076924,4183.076923076924,4313.333333333334,4821.538461538462,3790.7692307692314,4220.000000000001,4192.307692307693,4086.666666666667,4370.769230769231,4061.538461538462,4237.435897435898
306282,100.0,0.0,0.0,4500.000000000001,4186.666666666667,4322.564102564103,4828.717948717949,3792.307692307693,4225.128205128206,4194.358974358975,4096.923076923077,4380.512820512821,4069.23076923077,4241.025641025642
306282,101.0,0.0,313.0,4495.8974358974365,4185.641025641026,4333.333333333334,4825.128205128206,3788.717948717949,4228.205128205129,4196.410256410257,4108.205128205129,4385.641025641026,4069.7435897435903,4237.948717948719
306282,102.0,0.0,495.0,4508.717948717949,4184.102564102564,4329.2307692307695,4824.102564102564,3785.6410256410263,4225.128205128206,4196.410256410257,4102.051282051282,4383.076923076924,4067.692307692308,4236.410256410257
306282,103.0,0.0,372.0,4520.000000000001,4184.615384615385,4317.435897435898,4825.641025641026,3782.564102564103,4224.615384615385,4193.846153846154,4092.307692307693,4381.538461538462,4066.666666666667,4237.435897435898
306283,104.0,0.0,0.0,4506.153846153847,4186.153846153847,4318.974358974359,4828.205128205129,3783.589743589744,4226.666666666667,4194.871794871796,4093.8461538461543,4381.538461538462,4064.615384615385,4234.871794871796
306283,105.0,0.0,313.0,4486.666666666667,4185.641025641026,4326.666666666667,4830.256410256411,3786.1538461538466,4224.102564102564,4197.435897435898,4091.7948717948725,4378.974358974359,4061.538461538462,4233.846153846154
306283,106.0,0.0,495.0,4477.435897435898,4181.538461538462,4326.666666666667,4824.615384615386,3783.589743589744,4224.615384615385,4197.948717948719,4086.666666666667,4379.48717948718,4062.564102564103,4236.923076923077
306283,107.0,0.0,372.0,4485.641025641026,4180.512820512821,4323.589743589744,4824.102564102564,3785.1282051282055,4227.179487179487,4194.871794871796,4086.666666666667,4377.435897435898,4061.538461538462,4239.48717948718
306283,108.0,0.0,0.0,4514.871794871796,4183.076923076924,4317.948717948719,4825.641025641026,3786.666666666667,4226.153846153847,4188.717948717949,4083.076923076924,4372.820512820514,4053.333333333334,4238.461538461539
306283,109.0,0.0,313.0,4527.6923076923085,4186.666666666667,4311.282051282052,4826.666666666667,3784.615384615385,4221.538461538462,4187.179487179487,4080.0000000000005,4375.8974358974365,4057.435897435898,4237.948717948719
306283,110.0,0.0,495.0,4507.179487179488,4185.641025641026,4313.846153846154,4830.769230769231,3790.2564102564106,4213.846153846154,4189.2307692307695,4086.1538461538466,4382.051282051282,4070.7692307692314,4239.48717948718
306283,111.0,0.0,372.0,4500.000000000001,4181.025641025642,4321.025641025642,4823.076923076924,3790.7692307692314,4209.74358974359,4190.256410256411,4093.333333333334,4382.564102564103,4073.8461538461543,4240.000000000001
306398,112.0,0.0,0.0,4512.307692307693,4181.538461538462,4324.615384615385,4822.564102564103,3781.538461538462,4210.769230769231,4189.2307692307695,4096.923076923077,4380.512820512821,4073.333333333334,4238.974358974359
306398,113.0,0.0,313.0,4505.641025641026,4181.025641025642,4324.615384615385,4825.641025641026,3778.461538461539,4206.153846153847,4183.076923076924,4094.358974358975,4379.48717948718,4070.2564102564106,4236.923076923077
306398,114.0,0.0,495.0,4477.948717948719,4173.846153846154,4320.000000000001,4818.974358974359,3781.538461538462,4196.923076923077,4175.8974358974365,4083.589743589744,4373.846153846154,4061.0256410256416,4237.435897435898
306398,115.0,0.0,372.0,4467.6923076923085,4171.794871794872,4314.358974358975,4816.410256410257,3780.0000000000005,4190.256410256411,4172.820512820514,4073.333333333334,4367.6923076923085,4054.358974358975,4241.025641025642
306398,116.0,0.0,0.0,4483.076923076924,4170.769230769231,4311.282051282052,4812.307692307693,3780.0000000000005,4191.794871794872,4172.307692307693,4075.3846153846157,4371.282051282052,4054.358974358975,4237.948717948719
306399,117.0,0.0,313.0,4502.564102564103,4167.179487179487,4304.615384615385,4812.820512820514,3786.666666666667,4192.307692307693,4171.282051282052,4080.0000000000005,4376.410256410257,4055.3846153846157,4235.8974358974365
306399,118.0,0.0,495.0,4506.153846153847,4170.256410256411,4295.8974358974365,4818.461538461539,3789.7435897435903,4188.205128205129,4169.74358974359,4078.9743589743593,4373.333333333334,4055.8974358974365,4237.435897435898
306399,119.0,0.0,372.0,4496.410256410257,4171.794871794872,4293.333333333334,4814.358974358975,3786.666666666667,4188.717948717949,4169.74358974359,4075.3846153846157,4372.307692307693,4054.358974358975,4235.8974358974365
306399,120.0,0.0,0.0,4491.794871794872,4166.666666666667,4294.871794871796,4810.769230769231,3787.1794871794878,4193.333333333334,4166.153846153847,4065.6410256410263,4375.384615384616,4048.205128205129,4234.871794871796
306400,121.0,0.0,313.0,4481.025641025642,4162.051282051282,4296.410256410257,4808.205128205129,3788.205128205129,4194.871794871796,4164.102564102564,4059.48717948718,4373.333333333334,4046.1538461538466,4234.358974358975
306400,122.0,0.0,495.0,4471.282051282052,4166.666666666667,4303.076923076924,4811.794871794872,3786.1538461538466,4194.871794871796,4168.717948717949,4071.7948717948725,4375.384615384616,4053.8461538461543,4234.871794871796
306400,123.0,0.0,372.0,4484.615384615385,4173.333333333334,4310.256410256411,4818.974358974359,3785.6410256410263,4199.48717948718,4172.307692307693,4080.0000000000005,4379.48717948718,4058.461538461539,4235.8974358974365
306400,124.0,0.0,0.0,4502.051282051282,4173.846153846154,4310.256410256411,4816.923076923077,3786.1538461538466,4202.051282051282,4168.205128205129,4067.692307692308,4371.282051282052,4053.8461538461543,4235.384615384616
306400,125.0,0.0,313.0,4495.8974358974365,4174.871794871796,4305.128205128206,4816.410256410257,3787.692307692308,4198.974358974359,4164.102564102564,4063.076923076924,4364.615384615385,4050.7692307692314,4235.8974358974365
306400,126.0,0.0,495.0,4491.282051282052,4178.461538461539,4307.179487179487,4817.948717948719,3784.1025641025644,4205.128205128206,4169.74358974359,4078.9743589743593,4376.410256410257,4061.0256410256416,4235.8974358974365
306401,127.0,0.0,372.0,4508.717948717949,4181.025641025642,4314.871794871796,4821.538461538462,3781.538461538462,4210.769230769231,4176.923076923077,4087.1794871794878,4385.128205128206,4068.717948717949,4235.8974358974365
306433,128.0,0.0,0.0,4505.128205128206,4177.948717948719,4315.8974358974365,4823.589743589744,3783.589743589744,4199.48717948718,4174.871794871796,4081.538461538462,4378.461538461539,4064.1025641025644,4235.8974358974365
306433,0.0,0.0,475.0,4492.307692307693,4174.358974358975,4310.769230769231,4816.410256410257,3783.589743589744,4193.333333333334,4172.820512820514,4080.0000000000005,4374.358974358975,4062.564102564103,4235.384615384616
306433,1.0,0.0,305.0,4501.538461538462,4175.8974358974365,4307.179487179487,4818.974358974359,3786.1538461538466,4201.538461538462,4176.410256410257,4083.076923076924,4377.435897435898,4066.1538461538466,4236.923076923077
306433,2.0,0.0,503.0,4503.589743589744,4176.923076923077,4305.128205128206,4820.512820512821,3787.692307692308,4193.846153846154,4174.358974358975,4081.538461538462,4376.410256410257,4065.1282051282055,4237.948717948719
306934,3.0,0.0,438.0,4493.333333333334,4173.333333333334,4304.102564102564,4816.410256410257,3785.6410256410263,4171.794871794872,4164.102564102564,4076.9230769230776,4374.358974358975,4060.0000000000005,4236.410256410257
306934,4.0,0.0,110.0,4501.025641025642,4173.333333333334,4307.6923076923085,4820.512820512821,3787.692307692308,4169.74358974359,4162.564102564103,4074.358974358975,4376.923076923077,4060.5128205128212,4236.410256410257
306934,5.0,0.0,550.0,4505.641025641026,4172.307692307693,4310.256410256411,4815.8974358974365,3787.692307692308,4183.589743589744,4169.2307692307695,4075.8974358974365,4377.435897435898,4062.0512820512827,4236.410256410257
306934,6.0,0.0,534.0,4481.025641025642,4167.6923076923085,4305.641025641026,4810.256410256411,3780.0000000000005,4186.153846153847,4168.717948717949,4077.9487179487187,4373.846153846154,4058.9743589743593,4235.384615384616
306934,7.0,0.0,462.0,4462.564102564103,4165.128205128206,4306.666666666667,4812.307692307693,3775.3846153846157,4181.538461538462,4168.717948717949,4082.0512820512827,4377.948717948719,4055.8974358974365,4234.358974358975
306934,8.0,0.0,388.0,4477.435897435898,4168.205128205129,4316.923076923077,4813.333333333334,3781.0256410256416,4185.641025641026,4176.410256410257,4093.333333333334,4387.179487179487,4062.564102564103,4235.384615384616
306934,9.0,0.0,464.0,4511.794871794872,4172.307692307693,4315.8974358974365,4816.410256410257,3787.1794871794878,4189.74358974359,4178.974358974359,4093.8461538461543,4385.128205128206,4071.7948717948725,4237.948717948719
306934,10.0,0.0,495.0,4522.051282051282,4168.205128205129,4300.512820512821,4812.820512820514,3784.615384615385,4186.666666666667,4174.871794871796,4083.589743589744,4378.461538461539,4069.7435897435903,4236.410256410257
306934,11.0,0.0,372.0,4493.846153846154,4164.615384615385,4300.000000000001,4811.794871794872,3783.076923076924,4185.641025641026,4174.871794871796,4085.1282051282055,4381.538461538462,4062.0512820512827,4237.948717948719
306934,12.0,0.0,0.0,4472.307692307693,4168.205128205129,4313.333333333334,4815.384615384616,3785.6410256410263,4187.6923076923085,4174.358974358975,4091.7948717948725,4383.076923076924,4060.0000000000005,4237.948717948719
306935,13.0,0.0,312.0,4474.871794871796,4166.666666666667,4314.358974358975,4811.282051282052,3785.6410256410263,4190.256410256411,4172.820512820514,4091.7948717948725,4380.512820512821,4062.0512820512827,4234.871794871796
306935,14.0,0.0,495.0,4492.820512820514,4164.615384615385,4309.2307692307695,4812.307692307693,3787.1794871794878,4192.820512820514,4171.794871794872,4090.2564102564106,4378.974358974359,4060.0000000000005,4236.410256410257
306935,15.0,0.0,372.0,4512.820512820514,4170.256410256411,4311.794871794872,4815.384615384616,3788.717948717949,4193.333333333334,4170.256410256411,4086.666666666667,4376.410256410257,4055.8974358974365,4235.8974358974365
306935,16.0,0.0,0.0,4514.871794871796,4174.871794871796,4314.871794871796,4818.461538461539,3785.6410256410263,4195.8974358974365,4170.256410256411,4080.0000000000005,4374.871794871796,4054.358974358975,4234.358974358975
306935,17.0,0.0,0.0,4507.179487179488,4174.871794871796,4314.358974358975,4822.051282051282,3785.6410256410263,4196.410256410257,4175.8974358974365,4080.5128205128212,4375.8974358974365,4055.8974358974365,4235.384615384616
306935,18.0,0.0,0.0,4504.102564102564,4173.333333333334,4320.512820512821,4818.461538461539,3788.717948717949,4193.846153846154,4182.564102564103,4086.666666666667,4377.948717948719,4060.5128205128212,4233.846153846154
306935,19.0,0.0,0.0,4494.871794871796,4172.820512820514,4325.128205128206,4817.948717948719,3790.2564102564106,4190.769230769231,4182.051282051282,4084.1025641025644,4377.435897435898,4061.0256410256416,4235.384615384616
306935,20.0,0.0,0.0,4484.102564102564,4169.2307692307695,4318.974358974359,4814.871794871796,3788.205128205129,4190.256410256411,4176.410256410257,4077.9487179487187,4375.8974358974365,4054.8717948717954,4237.435897435898
306935,21.0,0.0,0.0,4501.025641025642,4169.2307692307695,4315.384615384616,4814.358974358975,3785.6410256410263,4193.333333333334,4173.846153846154,4079.48717948718,4374.871794871796,4051.7948717948725,4235.8974358974365
306935,22.0,0.0,0.0,4519.48717948718,4175.384615384616,4317.435897435898,4822.051282051282,3787.692307692308,4195.8974358974365,4175.384615384616,4081.0256410256416,4375.384615384616,4054.358974358975,4235.8974358974365
306935,23.0,0.0,0.0,4513.333333333334,4175.8974358974365,4319.48717948718,4822.564102564103,3784.1025641025644,4198.461538461539,4175.8974358974365,4081.0256410256416,4376.410256410257,4056.410256410257,4236.410256410257
306935,24.0,0.0,0.0,4504.102564102564,4173.846153846154,4322.051282051282,4818.974358974359,3778.9743589743593,4200.512820512821,4174.358974358975,4086.666666666667,4376.923076923077,4058.461538461539,4235.384615384616
306935,25.0,0.0,0.0,4490.256410256411,4172.820512820514,4324.615384615385,4814.871794871796,3781.0256410256416,4200.000000000001,4176.923076923077,4091.2820512820517,4378.974358974359,4064.1025641025644,4234.871794871796
306936,26.0,0.0,0.0,4482.564102564103,4171.282051282052,4323.076923076924,4816.923076923077,3785.6410256410263,4200.000000000001,4181.538461538462,4090.2564102564106,4383.076923076924,4071.2820512820517,4235.8974358974365
306936,27.0,0.0,0.0,4495.8974358974365,4172.820512820514,4315.384615384616,4825.641025641026,3791.7948717948725,4205.641025641026,4180.000000000001,4086.1538461538466,4381.538461538462,4070.7692307692314,4235.8974358974365
306936,28.0,0.0,0.0,4506.153846153847,4168.205128205129,4306.153846153847,4816.410256410257,3790.7692307692314,4204.102564102564,4170.256410256411,4075.8974358974365,4371.282051282052,4057.9487179487182,4234.358974358975
306936,29.0,0.0,0.0,4502.564102564103,4162.564102564103,4302.051282051282,4807.179487179488,3784.1025641025644,4185.641025641026,4162.051282051282,4064.615384615385,4363.589743589744,4044.615384615385,4234.358974358975
306936,30.0,0.0,0.0,4490.769230769231,4164.102564102564,4305.641025641026,4813.333333333334,3785.1282051282055,4176.923076923077,4164.615384615385,4068.717948717949,4368.717948717949,4046.666666666667,4236.923076923077
306936,31.0,0.0,0.0,4468.717948717949,4164.615384615385,4310.256410256411,4812.820512820514,3789.7435897435903,4188.205128205129,4171.794871794872,4080.5128205128212,4375.384615384616,4055.8974358974365,4237.948717948719
306936,32.0,0.0,0.0,4466.666666666667,4163.589743589744,4314.871794871796,4810.769230769231,3788.205128205129,4194.871794871796,4174.358974358975,4083.589743589744,4375.8974358974365,4059.48717948718,4235.384615384616
306936,33.0,0.0,0.0,4506.666666666667,4168.205128205129,4318.974358974359,4811.794871794872,3786.1538461538466,4190.769230769231,4178.461538461539,4083.076923076924,4374.358974358975,4058.9743589743593,4234.871794871796
306936,34.0,0.0,0.0,4524.615384615385,4173.333333333334,4315.384615384616,4818.461538461539,3787.692307692308,4190.769230769231,4180.512820512821,4081.538461538462,4374.358974358975,4058.9743589743593,4237.435897435898
306936,35.0,0.0,0.0,4490.769230769231,4172.820512820514,4317.435897435898,4821.538461538462,3784.1025641025644,4196.410256410257,4174.871794871796,4083.076923076924,4377.435897435898,4061.538461538462,4235.8974358974365
306936,36.0,0.0,0.0,4470.256410256411,4175.384615384616,4332.820512820514,4817.435897435898,3782.564102564103,4200.512820512821,4175.384615384616,4090.7692307692314,4385.641025641026,4069.7435897435903,4231.794871794872
306936,37.0,0.0,0.0,4490.769230769231,4179.48717948718,4337.948717948719,4821.538461538462,3788.717948717949,4202.564102564103,4178.974358974359,4093.333333333334,4388.717948717949,4074.8717948717954,4234.358974358975
306936,38.0,0.0,0.0,4513.846153846154,4178.974358974359,4331.282051282052,4822.051282051282,3786.666666666667,4202.051282051282,4175.384615384616,4084.1025641025644,4385.641025641026,4071.7948717948725,4237.948717948719
306936,39.0,0.0,0.0,4515.8974358974365,4181.025641025642,4330.256410256411,4822.051282051282,3783.076923076924,4201.025641025642,4173.333333333334,4079.48717948718,4383.589743589744,4071.7948717948725,4237.435897435898
306937,40.0,0.0,0.0,4509.2307692307695,4181.025641025642,4325.641025641026,4825.128205128206,3787.1794871794878,4198.974358974359,4175.8974358974365,4082.564102564103,4379.48717948718,4070.2564102564106,4236.410256410257
306937,41.0,0.0,0.0,4494.871794871796,4172.307692307693,4316.923076923077,4816.410256410257,3786.666666666667,4192.820512820514,4175.384615384616,4079.48717948718,4372.307692307693,4060.5128205128212,4234.871794871796
306937,42.0,0.0,0.0,4477.948717948719,4166.153846153847,4316.410256410257,4812.820512820514,3782.0512820512827,4191.282051282052,4174.358974358975,4073.8461538461543,4370.256410256411,4054.8717948717954,4235.8974358974365
306937,43.0,0.0,0.0,4483.589743589744,4168.717948717949,4317.435897435898,4815.384615384616,3780.512820512821,4198.974358974359,4176.923076923077,4076.410256410257,4374.358974358975,4062.564102564103,4236.923076923077
306937,44.0,0.0,0.0,4503.076923076924,4170.256410256411,4314.358974358975,4815.8974358974365,3784.615384615385,4198.974358974359,4176.410256410257,4078.9743589743593,4375.8974358974365,4067.692307692308,4235.8974358974365
306937,45.0,0.0,0.0,4495.8974358974365,4170.256410256411,4318.461538461539,4817.948717948719,3787.1794871794878,4194.871794871796,4172.820512820514,4075.3846153846157,4373.846153846154,4065.1282051282055,4235.8974358974365
306938,46.0,0.0,0.0,4471.794871794872,4170.256410256411,4326.666666666667,4815.384615384616,3784.615384615385,4204.615384615385,4176.923076923077,4078.9743589743593,4375.384615384616,4069.7435897435903,4234.871794871796
306938,47.0,0.0,0.0,4489.743589743591,4173.846153846154,4326.666666666667,4821.538461538462,3787.692307692308,4210.769230769231,4182.051282051282,4086.1538461538466,4380.512820512821,4077.435897435898,4235.384615384616
306938,48.0,0.0,0.0,4534.358974358975,4182.564102564103,4323.589743589744,4827.179487179488,3795.3846153846157,4201.025641025642,4178.461538461539,4088.205128205129,4384.615384615385,4078.461538461539,4234.358974358975
306938,49.0,0.0,0.0,4535.384615384616,4183.076923076924,4325.128205128206,4823.589743589744,3795.3846153846157,4198.974358974359,4176.410256410257,4088.205128205129,4383.589743589744,4076.410256410257,4233.333333333334
306939,50.0,0.0,0.0,4500.512820512821,4173.846153846154,4324.615384615385,4822.051282051282,3792.307692307693,4203.076923076924,4177.435897435898,4086.1538461538466,4376.923076923077,4071.2820512820517,4233.846153846154
306939,51.0,0.0,0.0,4489.743589743591,4171.282051282052,4323.589743589744,4818.461538461539,3792.307692307693,4200.512820512821,4177.948717948719,4083.589743589744,4374.358974358975,4066.1538461538466,4232.820512820514
306940,52.0,0.0,0.0,4501.025641025642,4180.000000000001,4328.717948717949,4821.538461538462,3793.333333333334,4195.8974358974365,4178.974358974359,4083.589743589744,4375.384615384616,4065.1282051282055,4235.384615384616
306940,53.0,0.0,0.0,4501.538461538462,4180.000000000001,4328.205128205129,4824.615384615386,3794.358974358975,4192.820512820514,4176.410256410257,4081.0256410256416,4371.794871794872,4064.615384615385,4235.8974358974365
306940,54.0,0.0,0.0,4494.358974358975,4172.820512820514,4322.564102564103,4820.000000000001,3792.820512820513,4196.923076923077,4173.846153846154,4081.0256410256416,4371.794871794872,4066.1538461538466,4233.333333333334
306940,55.0,0.0,0.0,4494.358974358975,4175.384615384616,4325.128205128206,4821.025641025642,3789.7435897435903,4204.102564102564,4173.333333333334,4089.7435897435903,4380.000000000001,4072.307692307693,4234.871794871796
306940,56.0,0.0,0.0,4507.179487179488,4177.948717948719,4324.102564102564,4819.48717948718,3787.692307692308,4204.615384615385,4174.358974358975,4094.358974358975,4383.589743589744,4075.3846153846157,4236.410256410257
306940,57.0,0.0,0.0,4510.256410256411,4174.871794871796,4322.564102564103,4822.564102564103,3789.7435897435903,4203.076923076924,4177.435897435898,4087.692307692308,4381.025641025642,4075.8974358974365,4235.8974358974365
306941,58.0,0.0,0.0,4494.871794871796,4175.8974358974365,4329.743589743591,4828.205128205129,3793.8461538461543,4206.153846153847,4180.512820512821,4081.538461538462,4377.948717948719,4076.410256410257,4236.923076923077
306941,59.0,0.0,0.0,4495.384615384616,4176.923076923077,4330.769230769231,4822.564102564103,3794.358974358975,4209.2307692307695,4180.000000000001,4080.0000000000005,4375.8974358974365,4071.2820512820517,4234.871794871796
306941,60.0,0.0,0.0,4511.794871794872,4176.923076923077,4323.589743589744,4819.48717948718,3792.307692307693,4211.794871794872,4184.102564102564,4081.0256410256416,4375.384615384616,4065.6410256410263,4233.846153846154
306941,61.0,0.0,0.0,4506.666666666667,4177.948717948719,4327.179487179487,4818.974358974359,3789.2307692307695,4217.435897435898,4190.256410256411,4084.1025641025644,4375.8974358974365,4068.205128205129,4236.410256410257
306941,62.0,0.0,0.0,4489.743589743591,4176.923076923077,4333.846153846154,4820.512820512821,3787.1794871794878,4217.948717948719,4187.6923076923085,4083.589743589744,4372.820512820514,4066.1538461538466,4236.410256410257
306952,63.0,0.0,0.0,4493.846153846154,4173.846153846154,4326.666666666667,4823.589743589744,3786.1538461538466,4214.871794871796,4184.102564102564,4080.5128205128212,4371.282051282052,4058.9743589743593,4234.358974358975
306952,64.0,0.0,475.0,4506.666666666667,4172.307692307693,4321.025641025642,4820.000000000001,3785.1282051282055,4220.000000000001,4187.6923076923085,4081.538461538462,4374.871794871796,4061.538461538462,4233.846153846154
306952,65.0,0.0,309.0,4512.307692307693,4175.8974358974365,4326.153846153847,4821.538461538462,3786.1538461538466,4222.564102564103,4186.666666666667,4084.615384615385,4375.384615384616,4064.615384615385,4235.8974358974365
306952,66.0,0.0,503.0,4509.2307692307695,4176.410256410257,4330.769230769231,4822.051282051282,3783.076923076924,4208.205128205129,4182.564102564103,4087.1794871794878,4377.435897435898,4063.076923076924,4236.410256410257
307425,67.0,0.0,438.0,4498.974358974359,4173.333333333334,4323.076923076924,4818.461538461539,3779.48717948718,4197.948717948719,4185.128205128206,4090.2564102564106,4382.051282051282,4065.1282051282055,4234.871794871796
307425,68.0,0.0,109.0,4491.282051282052,4172.820512820514,4314.871794871796,4821.025641025642,3783.589743589744,4205.128205128206,4188.205128205129,4087.692307692308,4377.435897435898,4066.1538461538466,4233.846153846154
307425,69.0,0.0,550.0,4491.282051282052,4172.307692307693,4317.435897435898,4818.974358974359,3786.666666666667,4214.358974358975,4188.205128205129,4085.6410256410263,4373.846153846154,4064.615384615385,4234.358974358975
307425,70.0,0.0,534.0,4496.410256410257,4174.871794871796,4319.48717948718,4817.948717948719,3785.6410256410263,4211.282051282052,4185.641025641026,4087.692307692308,4378.461538461539,4070.2564102564106,4235.384615384616
307425,71.0,0.0,462.0,4506.666666666667,4176.923076923077,4313.333333333334,4818.974358974359,3781.538461538462,4206.666666666667,4181.025641025642,4081.0256410256416,4375.8974358974365,4070.7692307692314,4234.358974358975
307425,72.0,0.0,388.0,4510.769230769231,4173.846153846154,4315.8974358974365,4821.025641025642,3780.0000000000005,4213.846153846154,4177.948717948719,4070.2564102564106,4370.769230769231,4063.076923076924,4233.333333333334
307426,73.0,0.0,464.0,4507.179487179488,4181.025641025642,4329.2307692307695,4828.717948717949,3785.1282051282055,4221.538461538462,4177.435897435898,4072.820512820513,4375.8974358974365,4067.1794871794878,4235.384615384616
307426,74.0,0.0,495.0,4505.128205128206,4188.717948717949,4330.769230769231,4825.641025641026,3788.205128205129,4217.948717948719,4178.461538461539,4080.5128205128212,4381.025641025642,4074.358974358975,4234.871794871796
307426,75.0,0.0,372.0,4495.384615384616,4182.564102564103,4324.102564102564,4823.076923076924,3786.666666666667,4212.307692307693,4178.974358974359,4078.461538461539,4375.8974358974365,4067.692307692308,4233.846153846154
307426,76.0,0.0,0.0,4489.743589743591,4176.410256410257,4324.615384615385,4826.666666666667,3785.6410256410263,4212.307692307693,4178.974358974359,4072.820512820513,4371.282051282052,4057.9487179487182,4233.333333333334
307426,77.0,0.0,311.0,4512.307692307693,4181.025641025642,4325.641025641026,4826.666666666667,3786.1538461538466,4216.923076923077,4183.076923076924,4077.9487179487187,4374.358974358975,4056.410256410257,4232.820512820514
307426,78.0,0.0,495.0,4523.076923076924,4183.589743589744,4324.102564102564,4828.205128205129,3787.692307692308,4226.153846153847,4189.74358974359,4086.1538461538466,4377.435897435898,4060.5128205128212,4235.384615384616
307426,79.0,0.0,372.0,4500.000000000001,4178.461538461539,4326.153846153847,4822.564102564103,3785.6410256410263,4235.8974358974365,4192.307692307693,4085.1282051282055,4374.358974358975,4064.1025641025644,4234.358974358975
307426,80.0,0.0,0.0,4491.794871794872,4181.025641025642,4329.743589743591,4823.589743589744,3784.1025641025644,4241.025641025642,4192.307692307693,4080.5128205128212,4372.307692307693,4064.615384615385,4232.307692307693
307426,81.0,0.0,311.0,4502.564102564103,4186.153846153847,4328.205128205129,4831.794871794872,3786.666666666667,4242.051282051282,4193.333333333334,4085.1282051282055,4377.435897435898,4063.589743589744,4232.820512820514
307427,82.0,0.0,495.0,4503.076923076924,4182.051282051282,4330.769230769231,4827.179487179488,3785.6410256410263,4240.512820512821,4193.846153846154,4095.8974358974365,4383.076923076924,4068.717948717949,4234.358974358975
307427,83.0,0.0,372.0,4500.512820512821,4178.461538461539,4332.820512820514,4823.076923076924,3783.589743589744,4235.384615384616,4191.282051282052,4097.948717948719,4380.512820512821,4073.8461538461543,4236.410256410257
307427,84.0,0.0,0.0,4494.871794871796,4177.948717948719,4330.256410256411,4822.564102564103,3786.666666666667,4232.307692307693,4187.179487179487,4094.8717948717954,4380.512820512821,4071.2820512820517,4234.871794871796
307427,85.0,0.0,311.0,4500.512820512821,4178.974358974359,4331.794871794872,4826.666666666667,3789.7435897435903,4232.820512820514,4185.641025641026,4094.8717948717954,4385.641025641026,4072.307692307693,4234.358974358975
307427,86.0,0.0,495.0,4522.564102564103,4178.974358974359,4332.307692307693,4831.282051282052,3789.7435897435903,4232.307692307693,4185.128205128206,4092.820512820513,4385.641025641026,4077.9487179487187,4237.435897435898
307427,87.0,0.0,372.0,4525.128205128206,4177.948717948719,4327.6923076923085,4824.102564102564,3789.2307692307695,4233.846153846154,4184.102564102564,4091.2820512820517,4383.076923076924,4080.0000000000005,4236.923076923077
307427,88.0,0.0,0.0,4508.205128205129,4180.512820512821,4330.769230769231,4822.564102564103,3791.7948717948725,4235.384615384616,4181.538461538462,4090.7692307692314,4382.051282051282,4078.9743589743593,4235.384615384616
307427,89.0,0.0,311.0,4499.48717948718,4181.025641025642,4334.871794871796,4823.589743589744,3792.820512820513,4229.74358974359,4180.512820512821,4086.1538461538466,4377.948717948719,4074.358974358975,4234.871794871796
307427,90.0,0.0,495.0,4489.2307692307695,4175.384615384616,4327.179487179487,4820.512820512821,3790.2564102564106,4219.48717948718,4181.538461538462,4081.0256410256416,4373.333333333334,4068.717948717949,4232.820512820514
307427,91.0,0.0,372.0,4481.538461538462,4171.794871794872,4324.615384615385,4821.025641025642,3789.7435897435903,4215.8974358974365,4181.538461538462,4081.538461538462,4371.794871794872,4067.1794871794878,4231.794871794872
307427,92.0,0.0,0.0,4497.948717948719,4172.307692307693,4330.769230769231,4817.435897435898,3789.7435897435903,4224.615384615385,4184.615384615385,4086.1538461538466,4372.307692307693,4069.7435897435903,4231.794871794872
307427,93.0,0.0,311.0,4515.384615384616,4175.8974358974365,4328.205128205129,4824.102564102564,3790.7692307692314,4230.256410256411,4188.717948717949,4091.2820512820517,4377.948717948719,4071.7948717948725,4235.384615384616
307427,94.0,0.0,495.0,4502.564102564103,4182.051282051282,4324.615384615385,4831.282051282052,3791.7948717948725,4234.871794871796,4193.333333333334,4096.410256410257,4382.051282051282,4075.8974358974365,4240.000000000001
307427,95.0,0.0,372.0,4485.641025641026,4182.564102564103,4331.794871794872,4825.128205128206,3790.2564102564106,4241.538461538462,4196.410256410257,4096.410256410257,4378.461538461539,4073.8461538461543,4236.923076923077
307428,96.0,0.0,0.0,4498.461538461539,4180.000000000001,4333.333333333334,4825.128205128206,3787.692307692308,4235.8974358974365,4193.333333333334,4090.7692307692314,4375.384615384616,4066.666666666667,4233.846153846154
307428,97.0,0.0,311.0,4516.923076923077,4180.512820512821,4328.205128205129,4826.666666666667,3783.589743589744,4227.6923076923085,4192.820512820514,4089.23076923077,4377.948717948719,4067.692307692308,4236.410256410257
307428,98.0,0.0,495.0,4517.948717948719,4182.564102564103,4335.8974358974365,4828.717948717949,3781.538461538462,4229.74358974359,4195.8974358974365,4089.7435897435903,4376.410256410257,4074.8717948717954,4237.948717948719
307428,99.0,0.0,372.0,4522.564102564103,4181.538461538462,4342.564102564103,4830.256410256411,3782.564102564103,4228.717948717949,4191.282051282052,4085.1282051282055,4372.820512820514,4074.358974358975,4236.410256410257
307428,100.0,0.0,0.0,4524.615384615385,4178.461538461539,4334.871794871796,4826.153846153847,3785.1282051282055,4224.102564102564,4184.615384615385,4082.564102564103,4373.846153846154,4069.23076923077,4235.384615384616
307428,101.0,0.0,311.0,4507.6923076923085,4176.923076923077,4336.410256410257,4826.153846153847,3789.7435897435903,4223.076923076924,4187.179487179487,4088.205128205129,4376.410256410257,4072.820512820513,4236.410256410257
307428,102.0,0.0,495.0,4497.948717948719,4177.948717948719,4343.076923076924,4822.051282051282,3789.2307692307695,4224.615384615385,4193.846153846154,4098.461538461539,4382.051282051282,4081.538461538462,4235.8974358974365
307428,103.0,0.0,372.0,4510.769230769231,4180.512820512821,4336.410256410257,4823.076923076924,3786.1538461538466,4231.282051282052,4195.384615384616,4102.564102564103,4389.2307692307695,4080.5128205128212,4237.948717948719
307428,104.0,0.0,0.0,4518.974358974359,4183.076923076924,4329.2307692307695,4831.794871794872,3788.717948717949,4231.282051282052,4189.2307692307695,4095.3846153846157,4384.615384615385,4070.2564102564106,4237.948717948719
307428,105.0,0.0,311.0,4516.923076923077,4182.564102564103,4335.384615384616,4828.717948717949,3786.666666666667,4223.076923076924,4182.564102564103,4092.307692307693,4380.512820512821,4067.692307692308,4234.358974358975
307428,106.0,0.0,495.0,4517.435897435898,4184.615384615385,4339.48717948718,4825.641025641026,3782.564102564103,4217.435897435898,4180.000000000001,4096.410256410257,4385.641025641026,4073.8461538461543,4235.384615384616
307428,107.0,0.0,372.0,4515.384615384616,4184.102564102564,4335.8974358974365,4827.6923076923085,3781.538461538462,4214.871794871796,4178.974358974359,4098.461538461539,4385.641025641026,4078.461538461539,4236.923076923077
307428,108.0,0.0,0.0,4507.6923076923085,4180.000000000001,4332.820512820514,4829.2307692307695,3783.076923076924,4215.384615384616,4183.076923076924,4098.974358974359,4384.615384615385,4079.48717948718,4236.410256410257
307428,109.0,0.0,311.0,4504.615384615385,4177.948717948719,4328.205128205129,4826.666666666667,3783.076923076924,4219.48717948718,4190.256410256411,4097.948717948719,4386.153846153847,4074.8717948717954,4235.384615384616
307428,110.0,0.0,495.0,4489.743589743591,4173.846153846154,4323.589743589744,4817.435897435898,3777.435897435898,4220.000000000001,4191.794871794872,4094.8717948717954,4381.538461538462,4068.717948717949,4233.846153846154
307429,111.0,0.0,372.0,4471.282051282052,4172.307692307693,4324.102564102564,4819.48717948718,3775.3846153846157,4213.333333333334,4187.6923076923085,4094.358974358975,4374.871794871796,4067.1794871794878,4235.384615384616
307429,112.0,0.0,0.0,4489.743589743591,4176.923076923077,4327.6923076923085,4824.102564102564,3779.48717948718,4212.307692307693,4187.179487179487,4096.923076923077,4375.8974358974365,4065.6410256410263,4236.923076923077
307429,113.0,0.0,311.0,4522.051282051282,4178.974358974359,4330.769230769231,4824.615384615386,3784.615384615385,4220.000000000001,4188.717948717949,4096.923076923077,4380.512820512821,4067.692307692308,4235.8974358974365
307429,114.0,0.0,495.0,4524.615384615385,4177.435897435898,4330.769230769231,4829.743589743591,3787.1794871794878,4219.48717948718,4187.6923076923085,4092.307692307693,4377.948717948719,4069.7435897435903,4236.923076923077
307429,115.0,0.0,372.0,4515.8974358974365,4176.410256410257,4331.282051282052,4825.641025641026,3785.1282051282055,4212.307692307693,4187.179487179487,4087.692307692308,4374.871794871796,4069.23076923077,4236.410256410257
307429,116.0,0.0,0.0,4512.820512820514,4178.974358974359,4335.8974358974365,4827.179487179488,3783.589743589744,4211.282051282052,4185.128205128206,4087.692307692308,4381.025641025642,4069.7435897435903,4235.384615384616
307429,117.0,0.0,311.0,4503.076923076924,4180.000000000001,4343.076923076924,4832.307692307693,3783.589743589744,4214.871794871796,4180.000000000001,4089.23076923077,4387.179487179487,4071.7948717948725,4236.410256410257
307429,118.0,0.0,495.0,4502.564102564103,4180.000000000001,4344.615384615385,4829.743589743591,3784.615384615385,4211.282051282052,4181.538461538462,4088.717948717949,4381.538461538462,4071.7948717948725,4236.923076923077
307429,119.0,0.0,372.0,4520.512820512821,4183.589743589744,4342.564102564103,4830.256410256411,3787.1794871794878,4206.153846153847,4188.205128205129,4088.717948717949,4375.8974358974365,4072.307692307693,4235.8974358974365
307429,120.0,0.0,0.0,4529.743589743591,4183.076923076924,4342.051282051282,4828.717948717949,3785.6410256410263,4207.6923076923085,4189.2307692307695,4092.307692307693,4386.153846153847,4077.435897435898,4236.923076923077
307429,121.0,0.0,311.0,4523.589743589744,4180.512820512821,4343.076923076924,4827.6923076923085,3783.589743589744,4208.205128205129,4186.666666666667,4096.410256410257,4395.8974358974365,4088.205128205129,4240.512820512821
307429,122.0,0.0,495.0,4507.6923076923085,4178.974358974359,4346.153846153847,4828.717948717949,3785.6410256410263,4208.205128205129,4186.153846153847,4098.461538461539,4391.282051282052,4091.2820512820517,4238.974358974359
307429,123.0,0.0,372.0,4489.743589743591,4176.410256410257,4342.564102564103,4825.128205128206,3784.615384615385,4211.282051282052,4189.74358974359,4097.948717948719,4384.615384615385,4079.48717948718,4233.846153846154
307429,124.0,0.0,0.0,4487.179487179488,4174.358974358975,4330.769230769231,4823.076923076924,3783.076923076924,4216.923076923077,4196.923076923077,4100.512820512821,4388.717948717949,4072.307692307693,4235.8974358974365
307430,125.0,0.0,311.0,4506.153846153847,4174.871794871796,4327.179487179487,4820.000000000001,3784.1025641025644,4226.153846153847,4202.051282051282,4109.74358974359,4395.384615384616,4081.538461538462,4236.410256410257
307430,126.0,0.0,495.0,4523.076923076924,4177.435897435898,4328.717948717949,4823.589743589744,3786.666666666667,4226.153846153847,4200.512820512821,4110.256410256411,4394.358974358975,4084.1025641025644,4234.871794871796
307452,127.0,0.0,372.0,4513.846153846154,4179.48717948718,4326.666666666667,4828.717948717949,3788.717948717949,4215.8974358974365,4195.8974358974365,4098.461538461539,4389.2307692307695,4077.435897435898,4236.410256410257
307452,128.0,0.0,0.0,4495.384615384616,4180.000000000001,4332.307692307693,4822.564102564103,3787.1794871794878,4208.717948717949,4192.820512820514,4093.333333333334,4388.717948717949,4077.9487179487187,4235.384615384616
307452,0.0,0.0,475.0,4491.282051282052,4180.000000000001,4343.076923076924,4823.589743589744,3785.1282051282055,4209.2307692307695,4188.205128205129,4094.358974358975,4389.2307692307695,4080.0000000000005,4235.8974358974365
307452,1.0,0.0,304.0,4497.435897435898,4177.948717948719,4343.076923076924,4825.641025641026,3785.1282051282055,4213.846153846154,4189.74358974359,4095.8974358974365,4391.282051282052,4081.0256410256416,4238.461538461539
307928,2.0,0.0,503.0,4511.282051282052,4178.974358974359,4340.512820512821,4826.666666666667,3787.1794871794878,4217.948717948719,4198.461538461539,4102.564102564103,4394.871794871796,4087.1794871794878,4237.948717948719
307928,3.0,0.0,438.0,4516.410256410257,4181.538461538462,4343.589743589744,4831.794871794872,3791.7948717948725,4220.000000000001,4203.076923076924,4110.769230769231,4396.410256410257,4091.7948717948725,4235.8974358974365
307928,4.0,0.0,109.0,4514.358974358975,4178.461538461539,4342.564102564103,4825.128205128206,3794.8717948717954,4222.051282051282,4202.564102564103,4111.794871794872,4393.846153846154,4088.717948717949,4235.8974358974365
307928,5.0,0.0,550.0,4518.974358974359,4176.410256410257,4331.282051282052,4822.051282051282,3794.358974358975,4222.051282051282,4195.8974358974365,4105.641025641026,4388.205128205129,4082.0512820512827,4237.435897435898
307928,6.0,0.0,534.0,4510.769230769231,4175.8974358974365,4323.076923076924,4822.564102564103,3789.2307692307695,4217.948717948719,4192.307692307693,4097.948717948719,4383.589743589744,4075.8974358974365,4235.384615384616
307928,7.0,0.0,462.0,4483.076923076924,4171.282051282052,4329.2307692307695,4818.974358974359,3784.615384615385,4213.333333333334,4196.923076923077,4097.948717948719,4385.128205128206,4070.7692307692314,4233.333333333334
307928,8.0,0.0,388.0,4481.538461538462,4171.282051282052,4338.974358974359,4821.025641025642,3786.666666666667,4215.384615384616,4198.974358974359,4105.641025641026,4389.2307692307695,4073.333333333334,4235.8974358974365
307928,9.0,0.0,464.0,4509.2307692307695,4174.871794871796,4342.564102564103,4821.025641025642,3788.717948717949,4224.102564102564,4200.000000000001,4110.769230769231,4393.333333333334,4086.1538461538466,4236.410256410257
307929,10.0,0.0,495.0,4518.974358974359,4178.461538461539,4346.153846153847,4825.641025641026,3788.717948717949,4230.769230769231,4204.615384615385,4109.74358974359,4401.025641025642,4095.3846153846157,4235.384615384616
307929,11.0,0.0,371.0,4508.205128205129,4178.461538461539,4343.589743589744,4828.205128205129,3792.307692307693,4228.717948717949,4206.153846153847,4106.666666666667,4405.641025641026,4093.333333333334,4234.871794871796
307929,12.0,0.0,0.0,4504.615384615385,4174.358974358975,4334.871794871796,4824.102564102564,3795.3846153846157,4229.74358974359,4205.128205128206,4111.282051282052,4403.589743589744,4093.333333333334,4235.8974358974365
307929,13.0,0.0,311.0,4504.615384615385,4175.384615384616,4337.948717948719,4825.128205128206,3795.8974358974365,4235.8974358974365,4207.179487179487,4117.435897435898,4400.000000000001,4094.8717948717954,4236.923076923077
307929,14.0,0.0,495.0,4502.564102564103,4177.948717948719,4343.076923076924,4821.025641025642,3796.410256410257,4229.74358974359,4205.128205128206,4111.282051282052,4397.948717948719,4088.205128205129,4236.410256410257
307929,15.0,0.0,371.0,4509.2307692307695,4177.435897435898,4338.974358974359,4820.512820512821,3797.9487179487182,4216.923076923077,4197.948717948719,4098.461538461539,4392.820512820514,4079.48717948718,4235.384615384616
307929,16.0,0.0,0.0,4517.948717948719,4177.435897435898,4338.974358974359,4825.641025641026,3797.9487179487182,4217.435897435898,4195.8974358974365,4094.8717948717954,4388.205128205129,4077.435897435898,4234.871794871796
307929,17.0,0.0,0.0,4509.743589743591,4178.974358974359,4341.025641025642,4824.102564102564,3793.333333333334,4226.153846153847,4198.461538461539,4097.435897435898,4388.205128205129,4077.9487179487187,4235.384615384616
307929,18.0,0.0,0.0,4500.000000000001,4180.512820512821,4338.461538461539,4826.153846153847,3792.820512820513,4224.102564102564,4195.8974358974365,4095.8974358974365,4389.2307692307695,4076.9230769230776,4237.948717948719
307929,19.0,0.0,0.0,4505.641025641026,4181.538461538462,4336.410256410257,4824.102564102564,3794.358974358975,4220.000000000001,4193.333333333334,4094.358974358975,4389.743589743591,4077.9487179487187,4236.923076923077
307929,20.0,0.0,0.0,4514.871794871796,4186.153846153847,4337.948717948719,4825.641025641026,3794.358974358975,4224.102564102564,4195.8974358974365,4097.948717948719,4387.6923076923085,4078.461538461539,4233.846153846154
307929,21.0,0.0,0.0,4516.923076923077,4188.205128205129,4337.948717948719,4835.8974358974365,3794.8717948717954,4226.153846153847,4195.8974358974365,4101.538461538462,4387.6923076923085,4077.435897435898,4232.820512820514
307929,22.0,0.0,0.0,4512.307692307693,4181.025641025642,4338.974358974359,4831.282051282052,3792.820512820513,4225.641025641026,4195.8974358974365,4104.102564102564,4393.846153846154,4077.9487179487187,4231.794871794872
307930,23.0,0.0,0.0,4500.512820512821,4175.384615384616,4336.923076923077,4821.025641025642,3792.307692307693,4229.2307692307695,4197.435897435898,4109.74358974359,4396.923076923077,4082.564102564103,4233.333333333334
307930,24.0,0.0,0.0,4493.846153846154,4178.974358974359,4335.384615384616,4819.48717948718,3792.307692307693,4231.282051282052,4196.923076923077,4112.307692307693,4397.435897435898,4084.615384615385,4234.871794871796
307930,25.0,0.0,0.0,4506.153846153847,4184.102564102564,4340.512820512821,4826.153846153847,3793.8461538461543,4231.282051282052,4197.948717948719,4111.282051282052,4398.974358974359,4087.1794871794878,4236.410256410257
307930,26.0,0.0,0.0,4520.000000000001,4184.102564102564,4341.025641025642,4830.256410256411,3798.461538461539,4227.179487179487,4198.974358974359,4108.717948717949,4395.8974358974365,4090.7692307692314,4240.512820512821
307930,27.0,0.0,0.0,4510.256410256411,4174.871794871796,4334.871794871796,4821.025641025642,3795.8974358974365,4221.025641025642,4195.8974358974365,4104.102564102564,4389.743589743591,4083.589743589744,4237.435897435898
307930,28.0,0.0,0.0,4492.820512820514,4174.358974358975,4334.871794871796,4819.48717948718,3792.820512820513,4222.051282051282,4194.358974358975,4096.923076923077,4387.6923076923085,4076.9230769230776,4235.384615384616
307930,29.0,0.0,0.0,4487.6923076923085,4180.512820512821,4332.820512820514,4822.051282051282,3794.8717948717954,4228.717948717949,4198.461538461539,4093.8461538461543,4385.128205128206,4078.9743589743593,4236.923076923077
307930,30.0,0.0,0.0,4500.000000000001,4176.923076923077,4326.666666666667,4821.538461538462,3794.358974358975,4226.153846153847,4198.974358974359,4102.564102564103,4386.153846153847,4081.0256410256416,4236.410256410257
307930,31.0,0.0,0.0,4515.8974358974365,4176.923076923077,4331.794871794872,4826.153846153847,3794.358974358975,4216.410256410257,4195.384615384616,4111.282051282052,4393.846153846154,4080.5128205128212,4237.435897435898
307930,32.0,0.0,0.0,4515.384615384616,4184.102564102564,4341.025641025642,4823.589743589744,3794.8717948717954,4217.948717948719,4195.384615384616,4110.256410256411,4395.384615384616,4082.564102564103,4235.8974358974365
307930,33.0,0.0,0.0,4509.2307692307695,4185.641025641026,4337.948717948719,4824.615384615386,3790.7692307692314,4224.615384615385,4196.923076923077,4106.666666666667,4391.282051282052,4083.076923076924,4235.8974358974365
307930,34.0,0.0,0.0,4515.384615384616,4181.538461538462,4333.333333333334,4829.743589743591,3785.6410256410263,4218.974358974359,4196.410256410257,4105.641025641026,4391.794871794872,4077.435897435898,4236.923076923077
307930,35.0,0.0,0.0,4509.2307692307695,4176.923076923077,4330.256410256411,4822.564102564103,3785.1282051282055,4210.769230769231,4191.794871794872,4098.974358974359,4389.2307692307695,4072.820512820513,4236.410256410257
307930,36.0,0.0,0.0,4488.717948717949,4175.384615384616,4324.102564102564,4818.461538461539,3785.1282051282055,4214.871794871796,4189.74358974359,4090.2564102564106,4381.025641025642,4069.23076923077,4236.923076923077
307930,37.0,0.0,0.0,4490.769230769231,4175.8974358974365,4325.641025641026,4816.923076923077,3782.564102564103,4218.974358974359,4193.846153846154,4092.820512820513,4381.025641025642,4066.666666666667,4235.8974358974365
307930,38.0,0.0,0.0,4507.179487179488,4180.000000000001,4334.358974358975,4821.025641025642,3784.615384615385,4214.871794871796,4195.8974358974365,4097.435897435898,4387.6923076923085,4069.23076923077,4234.871794871796
307931,39.0,0.0,0.0,4509.2307692307695,4184.102564102564,4332.820512820514,4829.743589743591,3789.2307692307695,4215.8974358974365,4187.179487179487,4094.8717948717954,4388.205128205129,4071.2820512820517,4234.871794871796
307931,40.0,0.0,0.0,4496.923076923077,4182.051282051282,4330.256410256411,4825.641025641026,3787.692307692308,4224.102564102564,4183.076923076924,4094.8717948717954,4389.743589743591,4074.8717948717954,4236.410256410257
307931,41.0,0.0,0.0,4487.6923076923085,4176.923076923077,4334.358974358975,4820.000000000001,3786.1538461538466,4226.153846153847,4191.282051282052,4100.000000000001,4393.846153846154,4077.435897435898,4236.410256410257
307931,42.0,0.0,0.0,4498.974358974359,4173.846153846154,4329.2307692307695,4815.8974358974365,3787.692307692308,4229.2307692307695,4202.564102564103,4102.051282051282,4390.769230769231,4073.8461538461543,4234.358974358975
307931,43.0,0.0,0.0,4520.000000000001,4172.307692307693,4312.820512820514,4818.461538461539,3788.717948717949,4234.871794871796,4205.128205128206,4100.000000000001,4383.589743589744,4068.205128205129,4236.410256410257
307931,44.0,0.0,0.0,4516.923076923077,4173.846153846154,4308.717948717949,4823.589743589744,3786.666666666667,4228.717948717949,4202.564102564103,4095.8974358974365,4378.461538461539,4064.615384615385,4236.410256410257
307931,45.0,0.0,0.0,4490.256410256411,4171.282051282052,4321.025641025642,4816.410256410257,3781.538461538462,4215.384615384616,4200.512820512821,4090.7692307692314,4376.410256410257,4059.48717948718,4231.794871794872
307931,46.0,0.0,0.0,4474.871794871796,4168.205128205129,4326.666666666667,4814.358974358975,3777.9487179487182,4209.74358974359,4194.871794871796,4087.1794871794878,4376.410256410257,4051.7948717948725,4229.74358974359
307931,47.0,0.0,0.0,4484.615384615385,4172.307692307693,4327.6923076923085,4817.435897435898,3776.410256410257,4211.282051282052,4189.2307692307695,4088.717948717949,4374.871794871796,4052.820512820513,4232.820512820514
307931,48.0,0.0,0.0,4511.282051282052,4179.48717948718,4335.384615384616,4822.564102564103,3781.0256410256416,4211.282051282052,4187.179487179487,4091.2820512820517,4375.8974358974365,4062.0512820512827,4235.384615384616
307932,49.0,0.0,0.0,4527.179487179488,4182.051282051282,4337.948717948719,4829.743589743591,3788.205128205129,4210.769230769231,4185.128205128206,4088.205128205129,4380.000000000001,4066.1538461538466,4233.333333333334
307932,50.0,0.0,0.0,4513.333333333334,4179.48717948718,4329.743589743591,4822.564102564103,3786.666666666667,4216.410256410257,4187.179487179487,4089.23076923077,4384.102564102564,4066.1538461538466,4232.307692307693
307932,51.0,0.0,0.0,4500.000000000001,4181.025641025642,4328.717948717949,4818.974358974359,3785.1282051282055,4226.153846153847,4193.846153846154,4095.3846153846157,4386.153846153847,4067.1794871794878,4235.384615384616
307933,52.0,0.0,0.0,4509.2307692307695,4182.051282051282,4332.307692307693,4821.538461538462,3785.6410256410263,4228.205128205129,4194.871794871796,4096.410256410257,4386.666666666667,4067.1794871794878,4234.871794871796
307933,53.0,0.0,0.0,4518.974358974359,4178.974358974359,4328.205128205129,4821.538461538462,3780.512820512821,4221.538461538462,4189.2307692307695,4091.2820512820517,4384.102564102564,4066.666666666667,4232.820512820514
307933,54.0,0.0,0.0,4517.948717948719,4178.974358974359,4324.102564102564,4825.641025641026,3778.461538461539,4216.410256410257,4187.6923076923085,4088.205128205129,4383.076923076924,4068.717948717949,4235.8974358974365
307933,55.0,0.0,0.0,4508.205128205129,4177.948717948719,4325.128205128206,4823.076923076924,3781.0256410256416,4221.025641025642,4193.333333333334,4092.307692307693,4387.179487179487,4069.23076923077,4235.8974358974365
307933,56.0,0.0,0.0,4498.461538461539,4180.512820512821,4332.307692307693,4824.102564102564,3783.076923076924,4228.717948717949,4196.923076923077,4098.974358974359,4389.743589743591,4070.7692307692314,4235.384615384616
307933,57.0,0.0,0.0,4509.2307692307695,4187.6923076923085,4347.179487179487,4830.256410256411,3787.1794871794878,4225.641025641026,4196.923076923077,4104.102564102564,4393.333333333334,4076.9230769230776,4236.923076923077
307933,58.0,0.0,0.0,4530.256410256411,4188.717948717949,4360.000000000001,4829.743589743591,3792.820512820513,4218.461538461539,4197.948717948719,4114.871794871796,4402.564102564103,4084.615384615385,4234.871794871796
307933,59.0,0.0,0.0,4528.717948717949,4184.102564102564,4360.000000000001,4829.743589743591,3792.820512820513,4222.051282051282,4200.512820512821,4121.538461538462,4404.102564102564,4085.1282051282055,4236.410256410257
307934,60.0,0.0,0.0,4506.153846153847,4184.102564102564,4355.8974358974365,4825.128205128206,3784.1025641025644,4230.769230769231,4204.615384615385,4120.512820512821,4399.48717948718,4083.076923076924,4240.000000000001
307934,61.0,0.0,0.0,4501.538461538462,4188.717948717949,4351.282051282052,4826.666666666667,3780.512820512821,4229.74358974359,4211.282051282052,4119.48717948718,4401.538461538462,4087.692307692308,4239.48717948718
307956,62.0,0.0,0.0,4523.589743589744,4188.205128205129,4341.538461538462,4833.333333333334,3789.2307692307695,4221.025641025642,4212.820512820514,4114.358974358975,4399.48717948718,4088.205128205129,4237.435897435898
307956,63.0,0.0,0.0,4530.256410256411,4181.025641025642,4333.846153846154,4826.153846153847,3789.2307692307695,4218.461538461539,4212.307692307693,4103.076923076924,4389.2307692307695,4076.410256410257,4235.384615384616
307956,64.0,0.0,475.0,4515.384615384616,4180.512820512821,4333.846153846154,4824.102564102564,3783.076923076924,4222.564102564103,4212.820512820514,4102.051282051282,4387.179487179487,4071.2820512820517,4234.871794871796
307956,65.0,0.0,312.0,4511.794871794872,4182.564102564103,4333.846153846154,4825.128205128206,3784.1025641025644,4227.179487179487,4213.846153846154,4109.74358974359,4393.846153846154,4080.0000000000005,4234.871794871796
308434,66.0,0.0,503.0,4518.974358974359,4181.538461538462,4329.743589743591,4824.615384615386,3787.692307692308,4228.205128205129,4213.333333333334,4109.2307692307695,4395.8974358974365,4083.589743589744,4236.410256410257
308434,67.0,0.0,441.0,4512.820512820514,4183.076923076924,4333.846153846154,4828.717948717949,3787.692307692308,4228.717948717949,4210.256410256411,4108.205128205129,4394.358974358975,4083.076923076924,4238.461538461539
308434,68.0,0.0,111.0,4504.615384615385,4184.615384615385,4347.179487179487,4827.6923076923085,3788.205128205129,4232.307692307693,4210.769230769231,4115.384615384616,4395.8974358974365,4092.307692307693,4237.948717948719
308434,69.0,0.0,550.0,4511.794871794872,4183.589743589744,4351.282051282052,4826.666666666667,3790.2564102564106,4236.923076923077,4209.2307692307695,4116.923076923077,4399.48717948718,4096.410256410257,4235.8974358974365
308434,70.0,0.0,534.0,4527.6923076923085,4185.128205128206,4342.564102564103,4826.666666666667,3790.2564102564106,4238.974358974359,4201.538461538462,4113.846153846154,4402.564102564103,4092.820512820513,4236.923076923077
308434,71.0,0.0,462.0,4533.333333333334,4191.282051282052,4340.512820512821,4831.282051282052,3791.7948717948725,4241.025641025642,4200.512820512821,4117.435897435898,4403.589743589744,4094.8717948717954,4240.000000000001
308434,72.0,0.0,388.0,4515.384615384616,4191.794871794872,4348.205128205129,4836.923076923077,3792.307692307693,4241.025641025642,4209.2307692307695,4123.076923076924,4403.076923076924,4096.410256410257,4240.000000000001
308434,73.0,0.0,464.0,4506.153846153847,4184.615384615385,4352.820512820514,4827.6923076923085,3787.692307692308,4233.846153846154,4211.794871794872,4125.128205128206,4406.153846153847,4093.333333333334,4235.8974358974365
308435,74.0,0.0,495.0,4510.769230769231,4183.589743589744,4351.282051282052,4826.153846153847,3786.1538461538466,4222.051282051282,4205.641025641026,4123.076923076924,4407.179487179487,4091.7948717948725,4236.923076923077
308435,75.0,0.0,371.0,4511.794871794872,4187.179487179487,4342.564102564103,4829.743589743591,3787.692307692308,4214.871794871796,4200.512820512821,4117.435897435898,4398.974358974359,4088.717948717949,4240.000000000001
308435,76.0,0.0,0.0,4512.820512820514,4186.666666666667,4332.820512820514,4825.128205128206,3786.1538461538466,4213.846153846154,4196.410256410257,4111.282051282052,4391.282051282052,4080.5128205128212,4238.461538461539
308435,77.0,0.0,312.0,4507.179487179488,4183.589743589744,4334.358974358975,4826.153846153847,3783.589743589744,4211.794871794872,4194.871794871796,4106.666666666667,4391.282051282052,4076.9230769230776,4237.948717948719
308435,78.0,0.0,495.0,4494.871794871796,4177.435897435898,4337.435897435898,4822.051282051282,3782.564102564103,4211.282051282052,4197.435897435898,4104.102564102564,4389.2307692307695,4073.8461538461543,4236.410256410257
308435,79.0,0.0,371.0,4498.461538461539,4172.820512820514,4331.282051282052,4818.461538461539,3787.1794871794878,4212.820512820514,4195.384615384616,4100.000000000001,4384.615384615385,4064.1025641025644,4234.871794871796
308435,80.0,0.0,0.0,4513.846153846154,4171.794871794872,4320.512820512821,4820.000000000001,3793.333333333334,4211.282051282052,4189.2307692307695,4095.8974358974365,4382.051282051282,4058.461538461539,4235.8974358974365
308435,81.0,0.0,312.0,4507.6923076923085,4172.307692307693,4315.384615384616,4816.410256410257,3791.7948717948725,4211.794871794872,4189.2307692307695,4092.307692307693,4382.564102564103,4063.076923076924,4237.435897435898
308435,82.0,0.0,495.0,4494.358974358975,4175.384615384616,4325.128205128206,4816.410256410257,3790.7692307692314,4221.025641025642,4194.358974358975,4093.333333333334,4386.666666666667,4072.307692307693,4236.923076923077
308435,83.0,0.0,371.0,4504.102564102564,4178.461538461539,4338.461538461539,4817.948717948719,3791.7948717948725,4233.846153846154,4200.512820512821,4103.589743589744,4395.384615384616,4078.9743589743593,4235.8974358974365
308436,84.0,0.0,0.0,4518.974358974359,4182.564102564103,4340.000000000001,4826.153846153847,3790.2564102564106,4229.2307692307695,4198.974358974359,4110.769230769231,4397.948717948719,4080.5128205128212,4236.923076923077
308436,85.0,0.0,312.0,4519.48717948718,4183.076923076924,4333.846153846154,4831.282051282052,3787.692307692308,4212.307692307693,4188.717948717949,4103.076923076924,4393.333333333334,4074.358974358975,4235.384615384616
308436,86.0,0.0,495.0,4511.794871794872,4177.948717948719,4329.743589743591,4821.025641025642,3785.1282051282055,4207.179487179487,4185.641025641026,4094.358974358975,4389.2307692307695,4072.307692307693,4233.333333333334
308436,87.0,0.0,371.0,4503.589743589744,4176.410256410257,4326.666666666667,4819.48717948718,3787.1794871794878,4210.769230769231,4188.717948717949,4093.8461538461543,4384.615384615385,4073.8461538461543,4236.410256410257
308436,88.0,0.0,0.0,4501.025641025642,4177.435897435898,4321.538461538462,4821.025641025642,3786.666666666667,4204.615384615385,4189.2307692307695,4093.8461538461543,4382.051282051282,4069.7435897435903,4237.435897435898
308436,89.0,0.0,312.0,4509.743589743591,4175.384615384616,4316.923076923077,4819.48717948718,3784.615384615385,4196.923076923077,4188.205128205129,4093.8461538461543,4387.179487179487,4068.717948717949,4234.871794871796
308436,90.0,0.0,495.0,4507.179487179488,4173.333333333334,4319.48717948718,4821.538461538462,3784.615384615385,4193.333333333334,4185.641025641026,4096.410256410257,4391.794871794872,4074.358974358975,4233.846153846154
308436,91.0,0.0,371.0,4492.307692307693,4174.358974358975,4326.666666666667,4818.974358974359,3783.076923076924,4196.923076923077,4188.717948717949,4101.025641025642,4392.307692307693,4078.9743589743593,4234.358974358975
308436,92.0,0.0,0.0,4504.102564102564,4181.025641025642,4327.6923076923085,4822.051282051282,3783.589743589744,4204.615384615385,4195.8974358974365,4105.128205128206,4391.794871794872,4082.564102564103,4236.923076923077
308436,93.0,0.0,312.0,4525.641025641026,4188.717948717949,4324.615384615385,4825.641025641026,3784.1025641025644,4208.205128205129,4197.948717948719,4108.717948717949,4395.384615384616,4086.666666666667,4235.384615384616
308436,94.0,0.0,495.0,4522.051282051282,4189.2307692307695,4326.153846153847,4826.666666666667,3783.589743589744,4207.179487179487,4196.410256410257,4111.794871794872,4398.974358974359,4088.205128205129,4232.820512820514
308436,95.0,0.0,371.0,4504.102564102564,4183.589743589744,4326.666666666667,4829.743589743591,3784.1025641025644,4204.615384615385,4195.8974358974365,4110.769230769231,4397.435897435898,4084.1025641025644,4234.871794871796
308436,96.0,0.0,0.0,4490.769230769231,4176.923076923077,4325.128205128206,4820.512820512821,3781.0256410256416,4200.512820512821,4194.358974358975,4110.256410256411,4394.871794871796,4078.9743589743593,4235.384615384616
308436,97.0,0.0,312.0,4494.871794871796,4177.948717948719,4327.179487179487,4817.948717948719,3780.0000000000005,4195.8974358974365,4194.871794871796,4115.8974358974365,4393.846153846154,4075.8974358974365,4235.8974358974365
308436,98.0,0.0,495.0,4511.794871794872,4185.128205128206,4329.2307692307695,4828.717948717949,3782.0512820512827,4199.48717948718,4197.435897435898,4118.974358974359,4396.923076923077,4080.0000000000005,4236.410256410257
308437,99.0,0.0,371.0,4520.000000000001,4185.641025641026,4327.6923076923085,4829.743589743591,3783.589743589744,4208.205128205129,4197.435897435898,4117.948717948719,4401.025641025642,4085.1282051282055,4235.8974358974365
308437,100.0,0.0,0.0,4517.948717948719,4183.589743589744,4329.2307692307695,4826.666666666667,3788.205128205129,4206.666666666667,4197.948717948719,4122.564102564103,4404.615384615385,4085.6410256410263,4237.435897435898
308437,101.0,0.0,312.0,4506.666666666667,4183.589743589744,4337.948717948719,4823.589743589744,3792.820512820513,4203.076923076924,4198.974358974359,4125.641025641026,4405.128205128206,4090.2564102564106,4236.410256410257
308437,102.0,0.0,495.0,4503.589743589744,4188.717948717949,4341.538461538462,4826.666666666667,3790.2564102564106,4207.6923076923085,4197.948717948719,4121.538461538462,4401.538461538462,4094.358974358975,4235.8974358974365
308437,103.0,0.0,371.0,4516.410256410257,4191.794871794872,4332.820512820514,4830.769230769231,3785.6410256410263,4211.794871794872,4195.384615384616,4118.974358974359,4396.923076923077,4089.7435897435903,4236.410256410257
308437,104.0,0.0,0.0,4520.000000000001,4186.153846153847,4325.128205128206,4827.179487179488,3787.1794871794878,4210.769230769231,4198.461538461539,4120.000000000001,4397.435897435898,4087.1794871794878,4234.358974358975
308437,105.0,0.0,312.0,4512.307692307693,4185.128205128206,4328.205128205129,4830.256410256411,3788.717948717949,4214.358974358975,4203.589743589744,4117.948717948719,4397.435897435898,4087.1794871794878,4234.871794871796
308438,106.0,0.0,495.0,4501.538461538462,4187.179487179487,4333.846153846154,4827.6923076923085,3781.0256410256416,4217.435897435898,4202.564102564103,4113.333333333334,4393.333333333334,4078.9743589743593,4235.8974358974365
308438,107.0,0.0,371.0,4487.6923076923085,4184.102564102564,4335.8974358974365,4823.589743589744,3774.8717948717954,4213.333333333334,4194.871794871796,4111.794871794872,4390.256410256411,4070.2564102564106,4236.410256410257
308439,108.0,0.0,0.0,4490.769230769231,4182.051282051282,4333.846153846154,4827.179487179488,3777.435897435898,4209.74358974359,4190.769230769231,4108.205128205129,4385.641025641026,4068.717948717949,4234.871794871796
308439,109.0,0.0,312.0,4513.846153846154,4184.102564102564,4329.743589743591,4826.153846153847,3778.461538461539,4213.333333333334,4195.384615384616,4105.641025641026,4385.641025641026,4071.2820512820517,4233.333333333334
308439,110.0,0.0,495.0,4519.48717948718,4184.615384615385,4330.769230769231,4825.128205128206,3780.0000000000005,4215.384615384616,4202.051282051282,4109.2307692307695,4393.333333333334,4074.358974358975,4235.8974358974365
308439,111.0,0.0,371.0,4507.179487179488,4181.538461538462,4333.333333333334,4820.512820512821,3780.0000000000005,4211.794871794872,4198.974358974359,4112.820512820514,4396.923076923077,4076.410256410257,4235.8974358974365
308442,112.0,0.0,0.0,4510.769230769231,4180.512820512821,4332.820512820514,4821.538461538462,3779.48717948718,4209.74358974359,4190.769230769231,4112.820512820514,4394.358974358975,4075.3846153846157,4233.846153846154
308442,113.0,0.0,312.0,4510.256410256411,4178.974358974359,4332.820512820514,4827.179487179488,3781.0256410256416,4209.2307692307695,4188.717948717949,4107.6923076923085,4394.871794871796,4070.7692307692314,4235.384615384616
308442,114.0,0.0,495.0,4497.435897435898,4173.846153846154,4331.282051282052,4817.435897435898,3780.512820512821,4206.666666666667,4194.871794871796,4101.538461538462,4393.333333333334,4066.1538461538466,4235.384615384616
308442,115.0,0.0,371.0,4499.48717948718,4175.384615384616,4324.102564102564,4815.384615384616,3784.1025641025644,4208.205128205129,4196.410256410257,4100.000000000001,4390.256410256411,4067.1794871794878,4234.871794871796
308442,116.0,0.0,0.0,4506.666666666667,4177.948717948719,4323.076923076924,4822.051282051282,3790.7692307692314,4211.282051282052,4191.794871794872,4100.512820512821,4390.769230769231,4072.307692307693,4236.923076923077
308442,117.0,0.0,312.0,4498.974358974359,4176.923076923077,4330.769230769231,4821.538461538462,3787.1794871794878,4201.538461538462,4188.717948717949,4095.3846153846157,4390.769230769231,4070.7692307692314,4235.384615384616
308443,118.0,0.0,495.0,4492.307692307693,4178.461538461539,4331.282051282052,4821.538461538462,3779.48717948718,4190.256410256411,4188.205128205129,4089.7435897435903,4388.717948717949,4065.6410256410263,4230.256410256411
308443,119.0,0.0,371.0,4500.512820512821,4179.48717948718,4328.205128205129,4820.512820512821,3782.564102564103,4198.974358974359,4193.846153846154,4097.948717948719,4391.282051282052,4069.23076923077,4230.256410256411
308443,120.0,0.0,0.0,4506.153846153847,4179.48717948718,4328.205128205129,4824.615384615386,3787.692307692308,4213.333333333334,4197.948717948719,4107.179487179487,4393.846153846154,4075.3846153846157,4232.307692307693
308443,121.0,0.0,312.0,4499.48717948718,4181.538461538462,4326.153846153847,4824.615384615386,3785.1282051282055,4215.8974358974365,4196.923076923077,4101.538461538462,4390.256410256411,4072.307692307693,4230.256410256411
308443,122.0,0.0,495.0,4492.820512820514,4181.538461538462,4330.769230769231,4820.000000000001,3785.6410256410263,4211.794871794872,4194.871794871796,4094.8717948717954,4391.282051282052,4070.2564102564106,4231.794871794872
308443,123.0,0.0,371.0,4500.512820512821,4180.000000000001,4334.871794871796,4824.615384615386,3790.2564102564106,4210.769230769231,4192.820512820514,4097.948717948719,4393.846153846154,4073.8461538461543,4236.923076923077
308443,124.0,0.0,0.0,4516.410256410257,4180.000000000001,4327.179487179487,4824.102564102564,3788.205128205129,4213.846153846154,4191.794871794872,4102.051282051282,4394.358974358975,4077.435897435898,4236.923076923077
308444,125.0,0.0,312.0,4513.846153846154,4178.461538461539,4321.538461538462,4822.051282051282,3784.1025641025644,4215.8974358974365,4188.717948717949,4098.974358974359,4394.871794871796,4076.9230769230776,4235.8974358974365
308454,126.0,0.0,495.0,4497.435897435898,4180.000000000001,4327.179487179487,4826.153846153847,3782.564102564103,4210.769230769231,4185.641025641026,4096.410256410257,4395.384615384616,4075.3846153846157,4234.358974358975
308454,127.0,0.0,371.0,4490.769230769231,4184.102564102564,4329.743589743591,4823.589743589744,3780.512820512821,4205.641025641026,4188.717948717949,4099.48717948718,4395.8974358974365,4075.3846153846157,4231.794871794872
308454,128.0,0.0,0.0,4498.461538461539,4180.512820512821,4326.153846153847,4820.512820512821,3780.0000000000005,4202.051282051282,4187.179487179487,4097.435897435898,4393.333333333334,4072.307692307693,4233.846153846154
308455,0.0,0.0,475.0,4510.769230769231,4175.384615384616,4324.102564102564,4816.923076923077,3780.512820512821,4201.025641025642,4182.051282051282,4094.358974358975,4390.769230769231,4069.23076923077,4233.333333333334
308934,1.0,0.0,305.0,4508.205128205129,4180.000000000001,4327.179487179487,4822.051282051282,3783.589743589744,4208.205128205129,4187.6923076923085,4098.461538461539,4389.743589743591,4072.820512820513,4232.307692307693
308934,2.0,0.0,503.0,4498.461538461539,4185.128205128206,4331.794871794872,4830.769230769231,3790.2564102564106,4214.871794871796,4195.384615384616,4102.051282051282,4391.282051282052,4074.8717948717954,4234.871794871796
308934,3.0,0.0,440.0,4498.974358974359,4180.512820512821,4336.410256410257,4825.128205128206,3789.7435897435903,4214.871794871796,4193.333333333334,4096.410256410257,4392.307692307693,4072.307692307693,4234.871794871796
308934,4.0,0.0,110.0,4504.615384615385,4178.461538461539,4340.000000000001,4823.076923076924,3789.7435897435903,4208.205128205129,4187.6923076923085,4086.1538461538466,4385.641025641026,4069.7435897435903,4233.333333333334
308934,5.0,0.0,550.0,4511.282051282052,4183.076923076924,4336.923076923077,4824.615384615386,3794.358974358975,4206.153846153847,4186.666666666667,4083.076923076924,4380.512820512821,4068.717948717949,4233.333333333334
308935,6.0,0.0,534.0,4515.384615384616,4186.153846153847,4335.384615384616,4828.717948717949,3794.8717948717954,4213.333333333334,4187.179487179487,4090.7692307692314,4388.717948717949,4070.2564102564106,4233.333333333334
308935,7.0,0.0,462.0,4503.589743589744,4181.538461538462,4338.461538461539,4829.2307692307695,3795.3846153846157,4215.8974358974365,4189.2307692307695,4099.48717948718,4395.8974358974365,4075.8974358974365,4235.384615384616
308935,8.0,0.0,388.0,4491.794871794872,4173.846153846154,4331.794871794872,4815.8974358974365,3795.8974358974365,4212.307692307693,4194.358974358975,4103.589743589744,4391.794871794872,4079.48717948718,4234.358974358975
308935,9.0,0.0,464.0,4503.076923076924,4174.871794871796,4322.051282051282,4815.8974358974365,3792.820512820513,4212.820512820514,4194.358974358975,4101.538461538462,4387.6923076923085,4075.3846153846157,4232.307692307693
308935,10.0,0.0,495.0,4504.615384615385,4176.410256410257,4320.512820512821,4820.000000000001,3789.7435897435903,4217.948717948719,4190.256410256411,4095.8974358974365,4385.641025641026,4069.23076923077,4232.820512820514
