timestamp,1,2,3,af3,f7,f3,fc5,t7,p7,o1,o2,p8,t8,fc6
410134,93.0,0.0,321.0,4488.205128205129,4142.051282051282,4332.307692307693,4797.435897435898,3766.1538461538466,4217.948717948719,4257.948717948719,4141.025641025642,4412.307692307693,4112.820512820514,4266.153846153847
410134,94.0,0.0,495.0,4480.512820512821,4138.461538461539,4329.743589743591,4795.8974358974365,3766.1538461538466,4221.025641025642,4258.974358974359,4141.025641025642,4408.717948717949,4103.076923076924,4264.615384615385
410134,95.0,0.0,374.0,4444.615384615385,4135.8974358974365,4330.256410256411,4791.794871794872,3763.076923076924,4226.153846153847,4263.076923076924,4141.025641025642,4406.666666666667,4098.461538461539,4264.615384615385
410134,96.0,0.0,0.0,4441.025641025642,4136.923076923077,4338.461538461539,4791.794871794872,3762.0512820512827,4227.179487179487,4260.512820512821,4144.102564102564,4410.769230769231,4098.974358974359,4262.564102564103
410134,97.0,0.0,321.0,4467.179487179487,4141.025641025642,4341.538461538462,4795.8974358974365,3761.538461538462,4224.102564102564,4255.384615384616,4138.974358974359,4412.307692307693,4102.564102564103,4261.538461538462
410134,98.0,0.0,495.0,4478.461538461539,4143.076923076924,4328.205128205129,4800.512820512821,3762.564102564103,4220.000000000001,4251.282051282052,4126.153846153847,4405.128205128206,4102.051282051282,4264.615384615385
410134,99.0,0.0,374.0,4480.512820512821,4142.051282051282,4318.974358974359,4796.410256410257,3763.589743589744,4218.461538461539,4248.205128205129,4122.051282051282,4402.051282051282,4101.025641025642,4265.128205128206
410135,100.0,0.0,0.0,4489.743589743591,4145.128205128206,4324.615384615385,4799.48717948718,3764.1025641025644,4221.025641025642,4250.256410256411,4127.179487179487,4407.179487179487,4105.128205128206,4263.589743589744
410135,101.0,0.0,321.0,4479.48717948718,4147.179487179487,4328.717948717949,4802.564102564103,3765.1282051282055,4224.102564102564,4252.307692307693,4131.282051282052,4411.794871794872,4109.2307692307695,4263.076923076924
410135,102.0,0.0,495.0,4451.794871794872,4143.589743589744,4330.256410256411,4798.974358974359,3765.1282051282055,4223.076923076924,4248.717948717949,4131.282051282052,4409.2307692307695,4108.717948717949,4264.102564102564
410135,103.0,0.0,374.0,4453.333333333334,4145.128205128206,4331.794871794872,4798.974358974359,3766.666666666667,4219.48717948718,4245.128205128206,4124.615384615385,4402.051282051282,4101.025641025642,4264.102564102564
410135,104.0,0.0,0.0,4461.538461538462,4149.2307692307695,4329.2307692307695,4800.512820512821,3765.6410256410263,4222.564102564103,4249.74358974359,4120.512820512821,4401.025641025642,4096.410256410257,4265.128205128206
410263,105.0,0.0,321.0,4458.461538461539,4148.717948717949,4328.717948717949,4802.564102564103,3766.666666666667,4224.102564102564,4251.794871794872,4123.589743589744,4403.589743589744,4098.461538461539,4265.641025641026
410263,106.0,0.0,495.0,4480.512820512821,4148.717948717949,4333.333333333334,4802.564102564103,3770.7692307692314,4217.948717948719,4245.128205128206,4120.000000000001,4400.000000000001,4102.051282051282,4264.102564102564
410263,107.0,0.0,374.0,4496.923076923077,4152.820512820514,4334.871794871796,4804.615384615386,3772.307692307693,4218.974358974359,4243.589743589744,4112.820512820514,4396.410256410257,4102.564102564103,4264.102564102564
410264,108.0,0.0,0.0,4469.743589743591,4149.74358974359,4332.820512820514,4804.102564102564,3772.307692307693,4219.48717948718,4244.615384615385,4111.282051282052,4397.435897435898,4098.974358974359,4263.589743589744
410264,109.0,0.0,321.0,4458.461538461539,4143.076923076924,4327.6923076923085,4796.923076923077,3769.2307692307695,4206.666666666667,4243.589743589744,4112.820512820514,4397.948717948719,4095.8974358974365,4261.538461538462
410264,110.0,0.0,495.0,4480.512820512821,4147.179487179487,4326.153846153847,4802.564102564103,3764.1025641025644,4204.102564102564,4245.641025641026,4113.333333333334,4400.512820512821,4100.512820512821,4262.564102564103
410264,111.0,0.0,374.0,4476.410256410257,4154.358974358975,4330.256410256411,4809.2307692307695,3764.1025641025644,4220.000000000001,4249.2307692307695,4115.384615384616,4405.128205128206,4106.153846153847,4263.076923076924
410264,112.0,0.0,0.0,4469.743589743591,4153.846153846154,4329.743589743591,4805.641025641026,3768.205128205129,4227.179487179487,4250.256410256411,4117.948717948719,4407.179487179487,4106.666666666667,4262.051282051282
410264,113.0,0.0,321.0,4489.743589743591,4154.871794871796,4326.666666666667,4807.6923076923085,3771.794871794872,4223.589743589744,4249.74358974359,4118.461538461539,4408.717948717949,4105.128205128206,4263.589743589744
410265,114.0,0.0,495.0,4484.615384615385,4154.871794871796,4329.2307692307695,4808.205128205129,3768.205128205129,4225.641025641026,4249.74358974359,4118.461538461539,4408.205128205129,4105.641025641026,4265.641025641026
410265,115.0,0.0,374.0,4461.538461538462,4147.179487179487,4330.769230769231,4802.564102564103,3762.0512820512827,4224.615384615385,4250.769230769231,4123.076923076924,4408.717948717949,4109.74358974359,4265.641025641026
410265,116.0,0.0,0.0,4473.846153846154,4150.256410256411,4328.205128205129,4804.615384615386,3764.1025641025644,4215.8974358974365,4249.2307692307695,4124.615384615385,4412.820512820514,4113.333333333334,4265.641025641026
410265,117.0,0.0,321.0,4506.666666666667,4166.666666666667,4330.256410256411,4812.820512820514,3770.2564102564106,4211.794871794872,4245.641025641026,4117.435897435898,4410.769230769231,4107.179487179487,4264.615384615385
410265,118.0,0.0,495.0,4502.051282051282,4169.74358974359,4329.743589743591,4815.384615384616,3771.794871794872,4211.794871794872,4243.076923076924,4111.794871794872,4404.615384615385,4097.948717948719,4263.076923076924
410265,119.0,0.0,374.0,4470.769230769231,4156.923076923077,4323.589743589744,4806.666666666667,3770.7692307692314,4209.74358974359,4243.076923076924,4115.384615384616,4403.589743589744,4095.8974358974365,4262.051282051282
410265,120.0,0.0,0.0,4466.666666666667,4154.871794871796,4324.615384615385,4805.641025641026,3770.7692307692314,4212.307692307693,4246.666666666667,4120.000000000001,4407.179487179487,4097.435897435898,4263.589743589744
410391,121.0,0.0,321.0,4483.076923076924,4162.564102564103,4331.282051282052,4812.820512820514,3772.307692307693,4219.48717948718,4251.794871794872,4120.000000000001,4406.153846153847,4096.923076923077,4265.641025641026
410391,122.0,0.0,495.0,4487.179487179488,4159.48717948718,4335.384615384616,4810.256410256411,3769.2307692307695,4221.025641025642,4251.794871794872,4119.48717948718,4402.051282051282,4096.923076923077,4265.128205128206
410391,123.0,0.0,374.0,4487.6923076923085,4159.48717948718,4336.923076923077,4812.820512820514,3766.666666666667,4217.435897435898,4248.205128205129,4118.974358974359,4401.025641025642,4096.923076923077,4264.102564102564
410391,124.0,0.0,0.0,4498.461538461539,4167.179487179487,4331.282051282052,4817.948717948719,3767.1794871794878,4220.512820512821,4253.333333333334,4124.102564102564,4406.153846153847,4102.051282051282,4264.102564102564
410391,125.0,0.0,321.0,4495.384615384616,4169.74358974359,4326.153846153847,4816.923076923077,3766.666666666667,4223.589743589744,4257.948717948719,4130.769230769231,4409.2307692307695,4108.205128205129,4264.615384615385
410391,126.0,0.0,495.0,4477.435897435898,4166.153846153847,4324.102564102564,4817.435897435898,3766.666666666667,4217.948717948719,4251.794871794872,4126.666666666667,4408.205128205129,4103.076923076924,4266.666666666667
410391,127.0,0.0,374.0,4476.923076923077,4163.589743589744,4324.615384615385,4813.333333333334,3765.1282051282055,4217.948717948719,4253.333333333334,4128.205128205129,4413.333333333334,4103.076923076924,4265.128205128206
410391,128.0,0.0,0.0,4488.205128205129,4166.153846153847,4330.769230769231,4816.410256410257,3767.1794871794878,4221.025641025642,4258.461538461539,4135.8974358974365,4416.923076923077,4114.358974358975,4261.025641025642
410391,0.0,0.0,477.0,4495.8974358974365,4167.179487179487,4333.333333333334,4818.461538461539,3770.7692307692314,4215.384615384616,4253.333333333334,4132.307692307693,4411.794871794872,4113.846153846154,4262.564102564103
410391,1.0,0.0,311.0,4500.000000000001,4163.076923076924,4326.666666666667,4810.256410256411,3768.717948717949,4215.384615384616,4248.717948717949,4125.641025641026,4409.2307692307695,4104.102564102564,4265.641025641026
410391,2.0,0.0,503.0,4488.205128205129,4160.512820512821,4324.615384615385,4812.307692307693,3769.7435897435903,4217.435897435898,4249.2307692307695,4123.076923076924,4406.153846153847,4101.025641025642,4265.128205128206
410391,3.0,0.0,442.0,4469.743589743591,4160.000000000001,4334.358974358975,4810.256410256411,3767.1794871794878,4212.820512820514,4249.74358974359,4123.589743589744,4405.128205128206,4106.666666666667,4263.076923076924
410392,4.0,0.0,110.0,4482.564102564103,4162.564102564103,4339.48717948718,4811.794871794872,3765.6410256410263,4212.820512820514,4250.769230769231,4125.128205128206,4405.641025641026,4110.256410256411,4265.128205128206
410392,5.0,0.0,552.0,4503.076923076924,4170.769230769231,4333.333333333334,4823.076923076924,3766.666666666667,4214.358974358975,4248.717948717949,4116.923076923077,4399.48717948718,4104.615384615385,4267.179487179487
410392,6.0,0.0,536.0,4497.948717948719,4165.128205128206,4333.333333333334,4814.871794871796,3760.0000000000005,4216.410256410257,4248.717948717949,4109.74358974359,4400.000000000001,4104.615384615385,4262.564102564103
410392,7.0,0.0,468.0,4487.6923076923085,4152.820512820514,4337.435897435898,4810.769230769231,3765.1282051282055,4221.025641025642,4251.794871794872,4112.307692307693,4408.205128205129,4108.205128205129,4264.102564102564
410477,8.0,0.0,390.0,4496.923076923077,4162.051282051282,4336.923076923077,4814.358974358975,3771.2820512820517,4220.000000000001,4247.179487179487,4107.179487179487,4405.128205128206,4098.974358974359,4265.128205128206
410477,9.0,0.0,466.0,4510.256410256411,4187.179487179487,4332.307692307693,4826.153846153847,3768.717948717949,4210.769230769231,4239.48717948718,4091.7948717948725,4389.2307692307695,4076.410256410257,4261.025641025642
410477,10.0,0.0,495.0,4517.948717948719,4206.666666666667,4326.153846153847,4848.205128205129,3779.48717948718,4196.923076923077,4228.717948717949,4076.9230769230776,4375.384615384616,4055.8974358974365,4261.538461538462
410477,11.0,0.0,374.0,4536.923076923077,4222.051282051282,4325.641025641026,4852.820512820514,3788.205128205129,4187.179487179487,4216.410256410257,4070.2564102564106,4371.282051282052,4048.717948717949,4257.948717948719
410477,12.0,0.0,0.0,4545.128205128206,4242.564102564103,4329.2307692307695,4864.615384615386,3791.2820512820517,4181.025641025642,4207.6923076923085,4063.589743589744,4364.615384615385,4036.9230769230776,4256.923076923077
410477,13.0,0.0,321.0,4531.794871794872,4246.153846153847,4334.358974358975,4870.256410256411,3788.717948717949,4180.000000000001,4205.641025641026,4053.8461538461543,4354.871794871796,4018.461538461539,4256.923076923077
410477,14.0,0.0,495.0,4517.435897435898,4235.384615384616,4336.923076923077,4861.538461538462,3782.564102564103,4183.589743589744,4204.615384615385,4048.717948717949,4351.794871794872,4010.7692307692314,4253.333333333334
410477,15.0,0.0,374.0,4507.6923076923085,4232.307692307693,4329.743589743591,4863.076923076924,3789.2307692307695,4183.589743589744,4199.48717948718,4047.1794871794878,4350.769230769231,4010.2564102564106,4255.384615384616
410478,16.0,0.0,0.0,4512.820512820514,4230.769230769231,4326.153846153847,4854.358974358975,3788.205128205129,4193.333333333334,4206.666666666667,4058.9743589743593,4356.923076923077,4018.461538461539,4254.871794871796
410478,17.0,0.0,0.0,4526.666666666667,4231.794871794872,4323.076923076924,4858.461538461539,3785.6410256410263,4203.076923076924,4211.282051282052,4071.2820512820517,4364.615384615385,4027.692307692308,4254.871794871796
410478,18.0,0.0,0.0,4525.641025641026,4231.794871794872,4310.256410256411,4864.615384615386,3786.666666666667,4197.948717948719,4206.666666666667,4067.1794871794878,4362.564102564103,4026.1538461538466,4257.435897435898
410478,19.0,0.0,0.0,4511.282051282052,4224.615384615385,4304.615384615385,4851.794871794872,3782.0512820512827,4196.923076923077,4210.256410256411,4062.0512820512827,4358.461538461539,4021.0256410256416,4257.435897435898
410510,20.0,0.0,0.0,4502.051282051282,4221.025641025642,4312.820512820514,4855.8974358974365,3789.2307692307695,4197.948717948719,4213.846153846154,4065.1282051282055,4360.000000000001,4020.0000000000005,4258.461538461539
410510,21.0,0.0,0.0,4501.538461538462,4218.461538461539,4318.974358974359,4853.333333333334,3791.2820512820517,4197.948717948719,4215.8974358974365,4076.9230769230776,4369.743589743591,4028.717948717949,4256.923076923077
410510,22.0,0.0,0.0,4502.051282051282,4220.000000000001,4316.923076923077,4852.820512820514,3790.7692307692314,4201.025641025642,4220.512820512821,4085.1282051282055,4374.358974358975,4032.307692307693,4257.435897435898
410510,23.0,0.0,0.0,4499.48717948718,4224.102564102564,4318.974358974359,4857.948717948719,3793.333333333334,4203.076923076924,4226.666666666667,4083.076923076924,4369.743589743591,4028.717948717949,4258.461538461539
410541,24.0,0.0,0.0,4504.615384615385,4222.051282051282,4326.666666666667,4849.2307692307695,3786.666666666667,4207.6923076923085,4228.205128205129,4086.666666666667,4373.333333333334,4034.8717948717954,4254.871794871796
410541,25.0,0.0,0.0,4514.358974358975,4223.589743589744,4320.512820512821,4855.8974358974365,3789.2307692307695,4207.6923076923085,4220.512820512821,4084.615384615385,4371.794871794872,4033.8461538461543,4255.384615384616
410541,26.0,0.0,0.0,4514.871794871796,4220.512820512821,4312.820512820514,4850.769230769231,3784.615384615385,4203.589743589744,4221.538461538462,4078.9743589743593,4365.641025641026,4027.692307692308,4255.8974358974365
410541,27.0,0.0,0.0,4508.205128205129,4215.384615384616,4316.410256410257,4844.615384615386,3777.435897435898,4201.538461538462,4226.153846153847,4080.5128205128212,4367.6923076923085,4030.2564102564106,4255.384615384616
410637,28.0,0.0,0.0,4500.000000000001,4216.410256410257,4314.871794871796,4852.307692307693,3784.1025641025644,4200.000000000001,4216.923076923077,4075.3846153846157,4367.179487179487,4029.23076923077,4255.8974358974365
410637,29.0,0.0,0.0,4499.48717948718,4213.333333333334,4315.8974358974365,4842.051282051283,3788.205128205129,4198.974358974359,4214.871794871796,4070.2564102564106,4362.564102564103,4023.076923076924,4253.846153846154
410637,30.0,0.0,0.0,4496.923076923077,4211.794871794872,4326.153846153847,4844.615384615386,3795.3846153846157,4192.820512820514,4219.48717948718,4069.23076923077,4360.512820512821,4021.538461538462,4257.948717948719
410637,31.0,0.0,0.0,4489.2307692307695,4210.769230769231,4329.743589743591,4844.102564102564,3796.410256410257,4194.358974358975,4214.871794871796,4068.205128205129,4363.589743589744,4025.6410256410263,4256.923076923077
410637,32.0,0.0,0.0,4499.48717948718,4210.769230769231,4325.128205128206,4837.435897435898,3796.9230769230776,4201.025641025642,4213.333333333334,4069.23076923077,4366.153846153847,4030.2564102564106,4253.846153846154
410637,33.0,0.0,0.0,4518.461538461539,4213.846153846154,4326.666666666667,4848.205128205129,3808.205128205129,4196.410256410257,4215.8974358974365,4072.307692307693,4363.076923076924,4032.820512820513,4258.461538461539
410637,34.0,0.0,0.0,4517.435897435898,4215.384615384616,4335.8974358974365,4843.589743589744,3803.589743589744,4197.435897435898,4215.8974358974365,4077.435897435898,4366.666666666667,4036.410256410257,4258.461538461539
410637,35.0,0.0,0.0,4507.179487179488,4216.923076923077,4336.923076923077,4843.076923076924,3800.0000000000005,4198.461538461539,4213.846153846154,4076.9230769230776,4372.820512820514,4038.461538461539,4260.000000000001
410638,36.0,0.0,0.0,4517.948717948719,4216.410256410257,4331.794871794872,4844.615384615386,3806.666666666667,4192.307692307693,4217.435897435898,4074.8717948717954,4372.307692307693,4040.0000000000005,4260.000000000001
410638,37.0,0.0,0.0,4529.2307692307695,4213.333333333334,4335.8974358974365,4842.564102564103,3808.717948717949,4198.461538461539,4224.615384615385,4083.589743589744,4373.846153846154,4047.692307692308,4256.410256410257
410638,38.0,0.0,0.0,4511.794871794872,4214.871794871796,4336.410256410257,4850.256410256411,3809.2307692307695,4208.205128205129,4224.615384615385,4086.666666666667,4377.435897435898,4051.2820512820517,4258.461538461539
410638,39.0,0.0,0.0,4497.948717948719,4211.794871794872,4329.2307692307695,4841.025641025642,3798.461538461539,4209.2307692307695,4227.179487179487,4090.7692307692314,4382.564102564103,4053.8461538461543,4255.8974358974365
410765,40.0,0.0,0.0,4502.564102564103,4209.2307692307695,4327.179487179487,4841.025641025642,3798.461538461539,4207.6923076923085,4232.307692307693,4103.589743589744,4385.128205128206,4056.9230769230776,4255.384615384616
410765,41.0,0.0,0.0,4505.128205128206,4212.307692307693,4329.743589743591,4845.128205128206,3803.589743589744,4207.6923076923085,4230.769230769231,4107.179487179487,4382.564102564103,4055.3846153846157,4258.974358974359
410765,42.0,0.0,0.0,4502.051282051282,4208.717948717949,4326.666666666667,4837.435897435898,3788.205128205129,4209.2307692307695,4229.2307692307695,4098.974358974359,4378.974358974359,4050.7692307692314,4256.410256410257
410765,43.0,0.0,0.0,4494.358974358975,4204.102564102564,4316.410256410257,4841.025641025642,3785.1282051282055,4203.076923076924,4224.615384615385,4085.1282051282055,4369.743589743591,4033.333333333334,4256.923076923077
410766,44.0,0.0,0.0,4486.666666666667,4203.076923076924,4314.358974358975,4832.307692307693,3791.2820512820517,4196.410256410257,4216.410256410257,4077.435897435898,4365.128205128206,4028.205128205129,4253.333333333334
410766,45.0,0.0,0.0,4498.461538461539,4207.6923076923085,4324.615384615385,4833.846153846154,3797.435897435898,4193.333333333334,4211.794871794872,4076.410256410257,4371.282051282052,4042.564102564103,4252.820512820514
410766,46.0,0.0,0.0,4526.153846153847,4212.820512820514,4326.666666666667,4847.179487179488,3801.0256410256416,4192.307692307693,4212.307692307693,4077.9487179487187,4374.871794871796,4045.1282051282055,4258.974358974359
410766,47.0,0.0,0.0,4535.384615384616,4209.2307692307695,4321.025641025642,4837.435897435898,3794.358974358975,4202.051282051282,4218.461538461539,4087.1794871794878,4373.333333333334,4039.48717948718,4256.923076923077
410766,48.0,0.0,0.0,4510.256410256411,4208.717948717949,4320.512820512821,4840.000000000001,3798.9743589743593,4202.051282051282,4216.923076923077,4086.1538461538466,4368.205128205129,4034.358974358975,4255.384615384616
410766,49.0,0.0,0.0,4486.666666666667,4204.615384615385,4324.615384615385,4836.923076923077,3795.3846153846157,4198.974358974359,4217.435897435898,4084.615384615385,4370.256410256411,4033.333333333334,4251.794871794872
410766,50.0,0.0,0.0,4488.717948717949,4199.48717948718,4322.564102564103,4831.794871794872,3784.615384615385,4205.128205128206,4222.051282051282,4093.333333333334,4373.333333333334,4031.7948717948725,4252.307692307693
410766,51.0,0.0,0.0,4495.384615384616,4203.589743589744,4317.948717948719,4839.48717948718,3787.1794871794878,4198.461538461539,4214.358974358975,4084.615384615385,4369.743589743591,4032.307692307693,4260.000000000001
410766,52.0,0.0,0.0,4492.307692307693,4204.102564102564,4318.974358974359,4832.307692307693,3785.1282051282055,4194.871794871796,4210.769230769231,4072.820512820513,4370.769230769231,4033.8461538461543,4253.846153846154
410766,53.0,0.0,0.0,4491.794871794872,4199.48717948718,4312.820512820514,4835.8974358974365,3787.692307692308,4203.589743589744,4219.48717948718,4073.333333333334,4368.205128205129,4024.615384615385,4252.820512820514
410766,54.0,0.0,0.0,4495.384615384616,4198.461538461539,4311.282051282052,4834.358974358975,3790.2564102564106,4208.205128205129,4223.076923076924,4075.8974358974365,4366.153846153847,4022.564102564103,4257.435897435898
410766,55.0,0.0,0.0,4495.8974358974365,4201.025641025642,4323.589743589744,4829.743589743591,3790.7692307692314,4201.538461538462,4215.384615384616,4081.538461538462,4376.410256410257,4037.435897435898,4254.871794871796
410892,56.0,0.0,0.0,4500.512820512821,4206.153846153847,4320.000000000001,4842.564102564103,3796.9230769230776,4191.794871794872,4207.179487179487,4087.692307692308,4380.000000000001,4044.615384615385,4253.846153846154
410892,57.0,0.0,0.0,4514.871794871796,4203.589743589744,4306.666666666667,4834.358974358975,3789.2307692307695,4193.333333333334,4211.794871794872,4089.7435897435903,4376.923076923077,4040.5128205128212,4250.256410256411
410892,58.0,0.0,0.0,4525.128205128206,4201.025641025642,4309.743589743591,4835.384615384616,3786.1538461538466,4198.974358974359,4216.410256410257,4085.6410256410263,4373.846153846154,4034.8717948717954,4252.307692307693
410892,59.0,0.0,0.0,4516.410256410257,4198.974358974359,4315.384615384616,4836.923076923077,3788.205128205129,4201.025641025642,4213.333333333334,4082.0512820512827,4369.743589743591,4030.2564102564106,4253.333333333334
410892,60.0,0.0,0.0,4490.256410256411,4194.358974358975,4312.820512820514,4824.102564102564,3782.0512820512827,4205.128205128206,4215.384615384616,4080.5128205128212,4368.205128205129,4028.717948717949,4249.74358974359
410892,61.0,0.0,0.0,4473.333333333334,4193.846153846154,4312.307692307693,4833.333333333334,3786.1538461538466,4201.025641025642,4215.384615384616,4074.358974358975,4362.564102564103,4022.0512820512827,4253.846153846154
410892,62.0,0.0,0.0,4481.538461538462,4186.666666666667,4319.48717948718,4827.179487179488,3786.666666666667,4198.974358974359,4213.333333333334,4072.307692307693,4358.974358974359,4018.9743589743593,4251.794871794872
410892,63.0,0.0,0.0,4493.846153846154,4186.666666666667,4321.538461538462,4826.153846153847,3786.666666666667,4201.538461538462,4212.820512820514,4071.2820512820517,4362.564102564103,4021.538461538462,4248.205128205129
410893,64.0,0.0,477.0,4498.974358974359,4193.333333333334,4314.358974358975,4832.820512820514,3788.717948717949,4195.384615384616,4206.153846153847,4062.0512820512827,4361.025641025642,4022.564102564103,4251.794871794872
410893,65.0,0.0,312.0,4503.076923076924,4193.333333333334,4313.846153846154,4822.564102564103,3785.6410256410263,4191.282051282052,4207.179487179487,4066.666666666667,4361.025641025642,4029.7435897435903,4249.74358974359
410893,66.0,0.0,503.0,4501.025641025642,4197.948717948719,4316.923076923077,4836.923076923077,3790.7692307692314,4194.871794871796,4216.923076923077,4082.564102564103,4366.153846153847,4039.48717948718,4251.282051282052
410893,67.0,0.0,442.0,4492.820512820514,4195.8974358974365,4320.000000000001,4832.307692307693,3786.1538461538466,4201.025641025642,4224.615384615385,4091.7948717948725,4374.358974358975,4043.076923076924,4253.333333333334
410893,68.0,0.0,110.0,4497.948717948719,4188.717948717949,4328.205128205129,4823.589743589744,3781.538461538462,4201.025641025642,4224.615384615385,4091.2820512820517,4376.410256410257,4043.076923076924,4253.333333333334
410893,69.0,0.0,552.0,4511.282051282052,4190.769230769231,4326.153846153847,4832.820512820514,3787.1794871794878,4193.333333333334,4221.025641025642,4084.1025641025644,4369.743589743591,4039.48717948718,4253.846153846154
410893,70.0,0.0,536.0,4512.307692307693,4191.282051282052,4316.923076923077,4823.076923076924,3785.1282051282055,4192.307692307693,4219.48717948718,4078.461538461539,4366.666666666667,4038.461538461539,4251.282051282052
410894,71.0,0.0,468.0,4504.615384615385,4196.410256410257,4313.846153846154,4834.871794871796,3789.2307692307695,4194.358974358975,4212.820512820514,4071.7948717948725,4364.102564102564,4031.7948717948725,4252.307692307693
411011,72.0,0.0,390.0,4496.923076923077,4195.8974358974365,4310.769230769231,4834.871794871796,3788.717948717949,4198.461538461539,4208.717948717949,4064.615384615385,4360.512820512821,4020.0000000000005,4250.256410256411
411011,73.0,0.0,466.0,4480.000000000001,4190.256410256411,4309.743589743591,4822.564102564103,3781.538461538462,4206.153846153847,4209.74358974359,4065.1282051282055,4359.48717948718,4017.435897435898,4246.666666666667
411011,74.0,0.0,495.0,4483.589743589744,4196.410256410257,4315.8974358974365,4836.923076923077,3785.6410256410263,4209.2307692307695,4208.205128205129,4068.205128205129,4360.512820512821,4024.1025641025644,4247.6923076923085
411012,75.0,0.0,374.0,4527.179487179488,4203.076923076924,4322.051282051282,4836.923076923077,3785.6410256410263,4211.282051282052,4210.769230769231,4073.333333333334,4364.615384615385,4033.8461538461543,4249.74358974359
411012,76.0,0.0,0.0,4542.051282051282,4205.128205128206,4320.000000000001,4842.051282051283,3790.2564102564106,4207.6923076923085,4211.794871794872,4066.666666666667,4364.615384615385,4037.9487179487182,4252.820512820514
411012,77.0,0.0,321.0,4509.2307692307695,4204.615384615385,4323.076923076924,4841.538461538462,3795.3846153846157,4204.615384615385,4209.2307692307695,4057.435897435898,4366.153846153847,4041.538461538462,4252.820512820514
411012,78.0,0.0,495.0,4491.794871794872,4203.589743589744,4331.282051282052,4830.769230769231,3789.2307692307695,4209.74358974359,4211.282051282052,4063.589743589744,4369.2307692307695,4047.1794871794878,4250.769230769231
411012,79.0,0.0,374.0,4500.512820512821,4202.564102564103,4325.641025641026,4838.974358974359,3785.1282051282055,4208.717948717949,4207.179487179487,4064.615384615385,4362.051282051282,4041.538461538462,4250.769230769231
411012,80.0,0.0,0.0,4504.615384615385,4196.410256410257,4315.384615384616,4831.282051282052,3781.538461538462,4208.205128205129,4205.128205128206,4061.0256410256416,4359.48717948718,4033.333333333334,4248.205128205129
411013,81.0,0.0,321.0,4495.384615384616,4193.333333333334,4314.871794871796,4830.769230769231,3781.538461538462,4208.717948717949,4208.717948717949,4065.1282051282055,4364.615384615385,4035.8974358974365,4247.179487179487
411013,82.0,0.0,495.0,4490.256410256411,4195.384615384616,4317.948717948719,4833.846153846154,3781.538461538462,4206.153846153847,4209.2307692307695,4068.717948717949,4365.128205128206,4043.076923076924,4249.2307692307695
411013,83.0,0.0,374.0,4500.000000000001,4197.948717948719,4320.512820512821,4829.2307692307695,3779.48717948718,4205.641025641026,4212.307692307693,4072.307692307693,4367.6923076923085,4049.23076923077,4251.282051282052
411013,84.0,0.0,0.0,4507.6923076923085,4204.102564102564,4320.512820512821,4845.641025641026,3784.1025641025644,4207.6923076923085,4216.923076923077,4078.9743589743593,4373.333333333334,4052.307692307693,4252.820512820514
411013,85.0,0.0,321.0,4508.205128205129,4204.615384615385,4321.538461538462,4842.051282051283,3783.076923076924,4209.74358974359,4218.461538461539,4085.6410256410263,4377.435897435898,4052.307692307693,4252.820512820514
411014,86.0,0.0,495.0,4510.769230769231,4200.512820512821,4321.025641025642,4835.8974358974365,3780.0000000000005,4208.717948717949,4216.410256410257,4083.076923076924,4376.923076923077,4048.717948717949,4254.358974358975
411014,87.0,0.0,374.0,4503.076923076924,4197.435897435898,4313.333333333334,4840.000000000001,3780.0000000000005,4205.128205128206,4214.358974358975,4071.7948717948725,4370.256410256411,4041.0256410256416,4251.282051282052
411046,88.0,0.0,0.0,4490.769230769231,4196.410256410257,4306.153846153847,4834.358974358975,3778.9743589743593,4207.179487179487,4211.794871794872,4062.564102564103,4362.051282051282,4034.8717948717954,4247.6923076923085
411046,89.0,0.0,321.0,4500.512820512821,4201.025641025642,4312.307692307693,4838.974358974359,3787.1794871794878,4213.846153846154,4212.820512820514,4056.410256410257,4357.948717948719,4036.410256410257,4250.769230769231
411046,90.0,0.0,495.0,4516.923076923077,4201.025641025642,4324.615384615385,4838.974358974359,3791.2820512820517,4219.48717948718,4220.512820512821,4064.615384615385,4363.589743589744,4044.615384615385,4251.282051282052
411046,91.0,0.0,374.0,4512.307692307693,4197.948717948719,4331.794871794872,4837.948717948719,3787.692307692308,4220.000000000001,4223.589743589744,4076.410256410257,4369.2307692307695,4046.666666666667,4249.2307692307695
411512,92.0,0.0,0.0,4498.461538461539,4202.051282051282,4336.923076923077,4841.025641025642,3786.666666666667,4220.512820512821,4222.051282051282,4076.410256410257,4369.2307692307695,4042.564102564103,4250.256410256411
411513,93.0,0.0,321.0,4494.871794871796,4203.589743589744,4336.410256410257,4841.025641025642,3784.615384615385,4220.512820512821,4224.102564102564,4077.435897435898,4369.2307692307695,4044.615384615385,4252.307692307693
411513,94.0,0.0,495.0,4495.8974358974365,4200.512820512821,4326.153846153847,4843.076923076924,3782.0512820512827,4214.358974358975,4223.589743589744,4080.5128205128212,4370.769230769231,4045.1282051282055,4251.794871794872
411513,95.0,0.0,374.0,4505.641025641026,4199.48717948718,4325.641025641026,4838.461538461539,3783.076923076924,4212.307692307693,4222.051282051282,4077.9487179487187,4371.282051282052,4040.0000000000005,4249.74358974359
411514,96.0,0.0,0.0,4524.102564102564,4202.564102564103,4333.333333333334,4841.025641025642,3786.666666666667,4217.435897435898,4224.615384615385,4075.3846153846157,4370.256410256411,4036.9230769230776,4251.794871794872
411514,97.0,0.0,321.0,4521.538461538462,4200.000000000001,4326.666666666667,4844.102564102564,3788.205128205129,4218.974358974359,4225.128205128206,4076.410256410257,4369.2307692307695,4038.461538461539,4253.333333333334
411514,98.0,0.0,495.0,4495.8974358974365,4192.820512820514,4315.8974358974365,4836.410256410257,3786.1538461538466,4216.923076923077,4226.153846153847,4081.0256410256416,4370.256410256411,4041.538461538462,4250.769230769231
411514,99.0,0.0,374.0,4479.48717948718,4189.74358974359,4319.48717948718,4835.384615384616,3786.1538461538466,4213.333333333334,4229.2307692307695,4085.6410256410263,4373.333333333334,4045.1282051282055,4251.282051282052
411515,100.0,0.0,0.0,4488.717948717949,4187.179487179487,4324.102564102564,4832.307692307693,3784.615384615385,4216.410256410257,4230.769230769231,4088.717948717949,4377.435897435898,4049.7435897435903,4251.282051282052
411515,101.0,0.0,321.0,4500.512820512821,4189.2307692307695,4320.000000000001,4833.846153846154,3785.1282051282055,4225.128205128206,4229.74358974359,4087.692307692308,4376.410256410257,4049.23076923077,4252.307692307693
411515,102.0,0.0,495.0,4498.461538461539,4195.384615384616,4321.538461538462,4840.000000000001,3785.1282051282055,4222.051282051282,4228.205128205129,4089.7435897435903,4374.871794871796,4047.1794871794878,4252.307692307693
411515,103.0,0.0,374.0,4496.410256410257,4194.358974358975,4329.743589743591,4838.461538461539,3784.1025641025644,4215.384615384616,4230.769230769231,4095.8974358974365,4379.48717948718,4050.2564102564106,4250.769230769231
411515,104.0,0.0,0.0,4504.102564102564,4189.74358974359,4328.717948717949,4835.384615384616,3788.717948717949,4214.358974358975,4229.74358974359,4091.2820512820517,4378.974358974359,4049.7435897435903,4251.794871794872
411515,105.0,0.0,321.0,4512.307692307693,4190.256410256411,4321.025641025642,4830.769230769231,3789.2307692307695,4208.205128205129,4218.461538461539,4080.5128205128212,4373.333333333334,4046.666666666667,4253.846153846154
411515,106.0,0.0,495.0,4521.025641025642,4194.871794871796,4320.512820512821,4834.871794871796,3789.2307692307695,4200.000000000001,4209.2307692307695,4077.435897435898,4374.871794871796,4053.333333333334,4253.846153846154
411516,107.0,0.0,374.0,4518.974358974359,4192.820512820514,4326.666666666667,4839.48717948718,3792.307692307693,4202.564102564103,4215.384615384616,4082.564102564103,4378.461538461539,4060.0000000000005,4253.333333333334
411516,108.0,0.0,0.0,4502.051282051282,4186.666666666667,4333.333333333334,4833.846153846154,3790.2564102564106,4209.74358974359,4224.102564102564,4087.692307692308,4377.948717948719,4060.0000000000005,4253.333333333334
411516,109.0,0.0,321.0,4493.333333333334,4186.666666666667,4335.384615384616,4832.307692307693,3787.692307692308,4210.256410256411,4221.538461538462,4086.1538461538466,4376.410256410257,4060.5128205128212,4252.307692307693
411516,110.0,0.0,495.0,4501.025641025642,4182.564102564103,4328.717948717949,4827.6923076923085,3786.1538461538466,4208.205128205129,4220.512820512821,4082.0512820512827,4374.871794871796,4056.410256410257,4250.769230769231
411516,111.0,0.0,374.0,4501.025641025642,4177.948717948719,4322.051282051282,4825.641025641026,3782.0512820512827,4209.74358974359,4227.6923076923085,4083.589743589744,4375.384615384616,4048.717948717949,4253.333333333334
411517,112.0,0.0,0.0,4491.282051282052,4185.128205128206,4322.051282051282,4833.333333333334,3782.0512820512827,4215.8974358974365,4232.820512820514,4092.820512820513,4378.461538461539,4049.23076923077,4255.384615384616
411517,113.0,0.0,321.0,4494.871794871796,4186.666666666667,4322.051282051282,4829.743589743591,3782.564102564103,4224.615384615385,4232.307692307693,4092.820512820513,4376.923076923077,4052.820512820513,4253.333333333334
411517,114.0,0.0,495.0,4503.589743589744,4181.538461538462,4318.974358974359,4827.6923076923085,3780.0000000000005,4225.128205128206,4230.256410256411,4083.589743589744,4371.794871794872,4045.6410256410263,4252.820512820514
411517,115.0,0.0,374.0,4500.000000000001,4181.538461538462,4317.948717948719,4830.256410256411,3779.48717948718,4217.948717948719,4231.794871794872,4081.538461538462,4370.256410256411,4041.0256410256416,4254.358974358975
411517,116.0,0.0,0.0,4497.948717948719,4184.615384615385,4326.153846153847,4831.282051282052,3784.1025641025644,4215.8974358974365,4233.846153846154,4088.205128205129,4372.307692307693,4045.1282051282055,4252.820512820514
411517,117.0,0.0,321.0,4505.128205128206,4183.076923076924,4332.307692307693,4832.820512820514,3785.1282051282055,4219.48717948718,4232.820512820514,4094.358974358975,4373.846153846154,4046.666666666667,4252.820512820514
411517,118.0,0.0,495.0,4511.794871794872,4180.000000000001,4326.153846153847,4827.179487179488,3782.0512820512827,4219.48717948718,4232.820512820514,4095.8974358974365,4375.8974358974365,4048.205128205129,4251.794871794872
411518,119.0,0.0,374.0,4517.948717948719,4181.538461538462,4322.051282051282,4830.769230769231,3785.1282051282055,4216.923076923077,4231.794871794872,4096.923076923077,4380.000000000001,4052.307692307693,4252.307692307693
411518,120.0,0.0,0.0,4520.512820512821,4186.153846153847,4329.743589743591,4836.923076923077,3790.2564102564106,4222.051282051282,4232.820512820514,4097.435897435898,4382.564102564103,4057.9487179487182,4253.846153846154
411518,121.0,0.0,321.0,4504.102564102564,4188.205128205129,4336.923076923077,4833.333333333334,3790.2564102564106,4226.666666666667,4234.871794871796,4098.461538461539,4384.102564102564,4063.076923076924,4252.820512820514
411518,122.0,0.0,495.0,4490.256410256411,4185.641025641026,4334.871794871796,4834.358974358975,3789.2307692307695,4222.564102564103,4232.307692307693,4099.48717948718,4385.128205128206,4066.666666666667,4251.282051282052
411518,123.0,0.0,374.0,4495.384615384616,4178.461538461539,4328.717948717949,4828.717948717949,3786.1538461538466,4223.589743589744,4233.846153846154,4104.615384615385,4385.641025641026,4066.1538461538466,4252.820512820514
411518,124.0,0.0,0.0,4502.564102564103,4176.410256410257,4323.076923076924,4826.153846153847,3784.615384615385,4230.769230769231,4241.538461538462,4109.74358974359,4384.615384615385,4064.1025641025644,4255.384615384616
411518,125.0,0.0,321.0,4509.2307692307695,4182.051282051282,4316.410256410257,4832.820512820514,3786.1538461538466,4229.2307692307695,4243.076923076924,4108.717948717949,4384.102564102564,4059.48717948718,4255.384615384616
411518,126.0,0.0,495.0,4502.051282051282,4181.538461538462,4313.846153846154,4829.743589743591,3783.589743589744,4223.589743589744,4236.410256410257,4106.153846153847,4384.615384615385,4055.8974358974365,4253.333333333334
411518,127.0,0.0,374.0,4487.179487179488,4179.48717948718,4315.384615384616,4826.666666666667,3781.538461538462,4218.974358974359,4228.717948717949,4098.461538461539,4380.512820512821,4055.8974358974365,4253.333333333334
411518,128.0,0.0,0.0,4494.358974358975,4182.051282051282,4317.435897435898,4825.128205128206,3785.1282051282055,4216.923076923077,4226.153846153847,4092.307692307693,4376.923076923077,4057.9487179487182,4252.820512820514
411518,0.0,0.0,477.0,4508.717948717949,4184.102564102564,4322.564102564103,4828.205128205129,3788.717948717949,4217.948717948719,4230.256410256411,4097.435897435898,4381.538461538462,4062.564102564103,4252.820512820514
411518,1.0,0.0,306.0,4507.6923076923085,4186.666666666667,4325.641025641026,4835.384615384616,3788.205128205129,4219.48717948718,4230.256410256411,4101.538461538462,4385.641025641026,4068.205128205129,4255.384615384616
411518,2.0,0.0,503.0,4507.179487179488,4188.205128205129,4322.564102564103,4831.282051282052,3786.666666666667,4215.384615384616,4222.051282051282,4095.8974358974365,4381.538461538462,4067.1794871794878,4254.871794871796
411518,3.0,0.0,442.0,4497.435897435898,4185.641025641026,4326.666666666667,4829.2307692307695,3787.1794871794878,4204.615384615385,4215.8974358974365,4085.6410256410263,4374.871794871796,4057.435897435898,4253.846153846154
411518,4.0,0.0,108.0,4482.564102564103,4182.564102564103,4338.461538461539,4826.666666666667,3783.076923076924,4200.000000000001,4213.333333333334,4078.461538461539,4370.256410256411,4050.7692307692314,4252.307692307693
411518,5.0,0.0,552.0,4508.205128205129,4188.717948717949,4335.8974358974365,4828.717948717949,3778.9743589743593,4203.589743589744,4213.333333333334,4076.410256410257,4366.666666666667,4048.717948717949,4253.333333333334
411519,6.0,0.0,536.0,4543.076923076924,4195.8974358974365,4322.564102564103,4841.025641025642,3784.1025641025644,4207.6923076923085,4216.923076923077,4073.333333333334,4362.564102564103,4038.9743589743593,4254.358974358975
411519,7.0,0.0,468.0,4530.769230769231,4190.769230769231,4323.589743589744,4834.358974358975,3785.6410256410263,4210.256410256411,4222.051282051282,4072.820512820513,4361.025641025642,4030.7692307692314,4251.794871794872
411519,8.0,0.0,390.0,4495.8974358974365,4184.102564102564,4331.282051282052,4824.615384615386,3782.564102564103,4209.2307692307695,4220.512820512821,4076.410256410257,4361.538461538462,4032.820512820513,4252.307692307693
411519,9.0,0.0,466.0,4479.48717948718,4183.076923076924,4334.358974358975,4825.128205128206,3784.615384615385,4204.102564102564,4216.410256410257,4078.9743589743593,4362.051282051282,4035.3846153846157,4253.846153846154
411519,10.0,0.0,495.0,4496.923076923077,4188.205128205129,4335.8974358974365,4830.769230769231,3790.2564102564106,4204.102564102564,4217.948717948719,4082.564102564103,4365.641025641026,4038.461538461539,4251.794871794872
411519,11.0,0.0,375.0,4526.153846153847,4192.820512820514,4331.282051282052,4836.410256410257,3798.461538461539,4210.769230769231,4217.435897435898,4082.564102564103,4371.282051282052,4046.666666666667,4251.282051282052
411519,12.0,0.0,0.0,4527.6923076923085,4189.74358974359,4324.102564102564,4829.2307692307695,3796.9230769230776,4213.333333333334,4215.384615384616,4080.0000000000005,4375.8974358974365,4053.333333333334,4251.794871794872
411519,13.0,0.0,321.0,4513.333333333334,4190.769230769231,4322.564102564103,4830.769230769231,3788.717948717949,4212.307692307693,4220.000000000001,4086.666666666667,4376.923076923077,4053.8461538461543,4254.358974358975
411519,14.0,0.0,495.0,4502.051282051282,4194.358974358975,4322.564102564103,4834.358974358975,3785.1282051282055,4212.820512820514,4224.615384615385,4092.307692307693,4376.923076923077,4053.333333333334,4254.358974358975
411519,15.0,0.0,375.0,4494.358974358975,4189.2307692307695,4325.641025641026,4828.205128205129,3783.076923076924,4214.358974358975,4222.564102564103,4089.7435897435903,4377.948717948719,4053.8461538461543,4251.794871794872
411520,16.0,0.0,0.0,4505.641025641026,4185.128205128206,4330.256410256411,4829.743589743591,3783.076923076924,4214.358974358975,4220.512820512821,4083.076923076924,4376.923076923077,4052.820512820513,4252.307692307693
411520,17.0,0.0,0.0,4518.974358974359,4186.153846153847,4329.743589743591,4828.717948717949,3785.6410256410263,4210.769230769231,4222.564102564103,4085.1282051282055,4377.435897435898,4054.8717948717954,4253.333333333334
411521,18.0,0.0,0.0,4507.6923076923085,4186.666666666667,4325.641025641026,4826.153846153847,3789.2307692307695,4206.153846153847,4225.641025641026,4092.820512820513,4381.538461538462,4061.538461538462,4253.333333333334
411521,19.0,0.0,0.0,4502.564102564103,4187.6923076923085,4327.179487179487,4829.743589743591,3787.692307692308,4205.641025641026,4227.179487179487,4094.8717948717954,4380.512820512821,4061.538461538462,4254.358974358975
411521,20.0,0.0,0.0,4510.769230769231,4187.179487179487,4332.820512820514,4830.256410256411,3780.0000000000005,4210.769230769231,4228.205128205129,4092.307692307693,4377.948717948719,4055.3846153846157,4253.846153846154
411521,21.0,0.0,0.0,4498.461538461539,4185.128205128206,4331.282051282052,4829.2307692307695,3778.461538461539,4211.794871794872,4230.769230769231,4095.8974358974365,4378.974358974359,4055.3846153846157,4252.307692307693
411521,22.0,0.0,0.0,4490.256410256411,4182.564102564103,4326.153846153847,4824.615384615386,3783.589743589744,4211.794871794872,4236.410256410257,4100.512820512821,4376.923076923077,4056.410256410257,4251.794871794872
411541,23.0,0.0,0.0,4504.615384615385,4186.153846153847,4326.153846153847,4829.743589743591,3787.692307692308,4213.846153846154,4240.000000000001,4095.8974358974365,4373.333333333334,4053.333333333334,4254.871794871796
411541,24.0,0.0,0.0,4507.179487179488,4192.307692307693,4328.205128205129,4839.48717948718,3788.205128205129,4216.923076923077,4239.48717948718,4095.8974358974365,4377.948717948719,4055.3846153846157,4255.8974358974365
411541,25.0,0.0,0.0,4504.102564102564,4191.282051282052,4331.794871794872,4832.820512820514,3784.615384615385,4219.48717948718,4238.974358974359,4104.615384615385,4384.615384615385,4061.538461538462,4251.794871794872
411541,26.0,0.0,0.0,4520.512820512821,4190.256410256411,4334.871794871796,4830.256410256411,3783.589743589744,4222.564102564103,4238.461538461539,4106.153846153847,4381.538461538462,4064.1025641025644,4253.846153846154
412018,27.0,0.0,0.0,4529.743589743591,4193.846153846154,4334.358974358975,4833.333333333334,3790.7692307692314,4224.102564102564,4237.948717948719,4100.512820512821,4377.948717948719,4067.692307692308,4259.48717948718
412018,28.0,0.0,0.0,4511.794871794872,4193.333333333334,4333.333333333334,4834.358974358975,3798.9743589743593,4222.564102564103,4235.8974358974365,4096.410256410257,4377.435897435898,4072.820512820513,4257.948717948719
412018,29.0,0.0,0.0,4505.641025641026,4189.74358974359,4333.846153846154,4835.8974358974365,3799.48717948718,4218.974358974359,4231.282051282052,4092.307692307693,4375.384615384616,4070.7692307692314,4253.333333333334
412018,30.0,0.0,0.0,4524.102564102564,4191.282051282052,4334.358974358975,4833.333333333334,3795.3846153846157,4215.8974358974365,4229.74358974359,4084.615384615385,4373.846153846154,4067.1794871794878,4252.820512820514
412018,31.0,0.0,0.0,4522.564102564103,4195.8974358974365,4333.846153846154,4834.358974358975,3798.9743589743593,4211.282051282052,4226.153846153847,4080.5128205128212,4373.846153846154,4065.1282051282055,4253.846153846154
412018,32.0,0.0,0.0,4509.2307692307695,4192.820512820514,4329.743589743591,4834.871794871796,3802.0512820512827,4209.74358974359,4222.051282051282,4085.1282051282055,4374.871794871796,4062.564102564103,4252.820512820514
412018,33.0,0.0,0.0,4512.820512820514,4187.6923076923085,4327.6923076923085,4831.282051282052,3801.538461538462,4216.923076923077,4227.179487179487,4100.512820512821,4381.025641025642,4066.1538461538466,4254.358974358975
412018,34.0,0.0,0.0,4516.410256410257,4191.794871794872,4330.256410256411,4833.846153846154,3804.1025641025644,4219.48717948718,4231.282051282052,4110.769230769231,4387.6923076923085,4073.333333333334,4256.923076923077
412019,35.0,0.0,0.0,4515.384615384616,4191.794871794872,4326.153846153847,4830.769230769231,3798.9743589743593,4213.333333333334,4227.6923076923085,4108.205128205129,4384.615384615385,4076.410256410257,4254.358974358975
412019,36.0,0.0,0.0,4516.923076923077,4189.74358974359,4323.076923076924,4829.743589743591,3790.2564102564106,4210.256410256411,4225.128205128206,4096.923076923077,4378.461538461539,4071.7948717948725,4253.846153846154
412020,37.0,0.0,0.0,4513.333333333334,4190.256410256411,4329.2307692307695,4832.820512820514,3790.7692307692314,4212.307692307693,4225.641025641026,4086.666666666667,4376.410256410257,4064.615384615385,4255.8974358974365
412020,38.0,0.0,0.0,4508.205128205129,4186.666666666667,4331.282051282052,4828.205128205129,3789.7435897435903,4216.410256410257,4225.641025641026,4084.615384615385,4374.358974358975,4060.5128205128212,4254.871794871796
412020,39.0,0.0,0.0,4515.8974358974365,4186.666666666667,4333.333333333334,4828.717948717949,3789.2307692307695,4221.025641025642,4230.256410256411,4093.333333333334,4378.974358974359,4068.717948717949,4255.384615384616
412020,40.0,0.0,0.0,4530.256410256411,4191.282051282052,4338.974358974359,4829.743589743591,3798.461538461539,4223.589743589744,4236.410256410257,4107.179487179487,4391.282051282052,4083.589743589744,4257.435897435898
412020,41.0,0.0,0.0,4543.076923076924,4194.358974358975,4332.307692307693,4832.820512820514,3803.589743589744,4222.051282051282,4232.307692307693,4105.641025641026,4393.846153846154,4085.1282051282055,4255.384615384616
412020,42.0,0.0,0.0,4540.512820512821,4194.871794871796,4323.589743589744,4833.846153846154,3801.538461538462,4216.923076923077,4224.102564102564,4090.7692307692314,4382.051282051282,4075.3846153846157,4253.333333333334
412021,43.0,0.0,0.0,4515.384615384616,4192.820512820514,4330.256410256411,4827.6923076923085,3800.0000000000005,4215.8974358974365,4225.128205128206,4088.717948717949,4380.512820512821,4075.3846153846157,4254.871794871796
412021,44.0,0.0,0.0,4500.512820512821,4191.282051282052,4337.948717948719,4830.769230769231,3797.9487179487182,4222.564102564103,4230.256410256411,4097.948717948719,4389.2307692307695,4080.5128205128212,4257.948717948719
412021,45.0,0.0,0.0,4509.2307692307695,4192.820512820514,4340.512820512821,4832.307692307693,3792.307692307693,4227.6923076923085,4230.769230769231,4105.128205128206,4391.282051282052,4081.538461538462,4257.435897435898
412021,46.0,0.0,0.0,4528.717948717949,4196.923076923077,4347.179487179487,4835.384615384616,3791.2820512820517,4228.717948717949,4231.794871794872,4111.794871794872,4391.794871794872,4087.692307692308,4256.410256410257
412021,47.0,0.0,0.0,4538.974358974359,4197.435897435898,4344.615384615385,4841.025641025642,3794.358974358975,4228.205128205129,4230.769230769231,4114.871794871796,4394.871794871796,4093.333333333334,4257.435897435898
412021,48.0,0.0,0.0,4525.128205128206,4193.846153846154,4335.384615384616,4834.358974358975,3792.820512820513,4227.6923076923085,4229.2307692307695,4113.846153846154,4394.358974358975,4090.2564102564106,4254.871794871796
412021,49.0,0.0,0.0,4514.358974358975,4193.333333333334,4333.846153846154,4832.820512820514,3794.358974358975,4228.205128205129,4230.256410256411,4110.769230769231,4387.6923076923085,4083.589743589744,4255.384615384616
412021,50.0,0.0,0.0,4518.461538461539,4189.74358974359,4326.153846153847,4830.256410256411,3794.8717948717954,4227.6923076923085,4227.179487179487,4098.461538461539,4376.410256410257,4074.358974358975,4258.974358974359
412021,51.0,0.0,0.0,4517.435897435898,4184.102564102564,4315.384615384616,4826.153846153847,3790.7692307692314,4222.564102564103,4223.589743589744,4087.1794871794878,4370.256410256411,4065.1282051282055,4258.974358974359
412021,52.0,0.0,0.0,4512.307692307693,4185.128205128206,4318.974358974359,4830.256410256411,3790.2564102564106,4217.435897435898,4226.666666666667,4091.2820512820517,4374.358974358975,4064.615384615385,4257.435897435898
412021,53.0,0.0,0.0,4517.948717948719,4190.769230769231,4327.179487179487,4831.794871794872,3789.7435897435903,4220.512820512821,4229.2307692307695,4097.948717948719,4378.974358974359,4067.692307692308,4254.871794871796
412021,54.0,0.0,0.0,4517.435897435898,4194.871794871796,4331.794871794872,4833.333333333334,3788.717948717949,4223.589743589744,4226.153846153847,4094.358974358975,4376.923076923077,4067.1794871794878,4252.307692307693
412021,55.0,0.0,0.0,4521.025641025642,4195.384615384616,4340.000000000001,4835.384615384616,3788.717948717949,4224.102564102564,4226.666666666667,4094.358974358975,4380.512820512821,4071.2820512820517,4253.846153846154
412022,56.0,0.0,0.0,4550.256410256411,4196.923076923077,4338.974358974359,4839.48717948718,3788.717948717949,4221.538461538462,4226.666666666667,4105.128205128206,4389.743589743591,4082.564102564103,4256.410256410257
412022,57.0,0.0,0.0,4553.846153846154,4196.410256410257,4329.2307692307695,4841.025641025642,3789.7435897435903,4211.794871794872,4218.974358974359,4107.179487179487,4391.282051282052,4085.6410256410263,4255.8974358974365
412022,58.0,0.0,0.0,4512.820512820514,4190.769230769231,4334.871794871796,4829.2307692307695,3791.2820512820517,4207.179487179487,4218.461538461539,4098.974358974359,4388.205128205129,4084.615384615385,4255.384615384616
412022,59.0,0.0,0.0,4498.974358974359,4189.74358974359,4342.564102564103,4826.153846153847,3788.717948717949,4204.102564102564,4219.48717948718,4095.8974358974365,4390.256410256411,4085.6410256410263,4258.461538461539
412022,60.0,0.0,0.0,4525.128205128206,4187.179487179487,4328.205128205129,4828.205128205129,3781.538461538462,4194.358974358975,4213.333333333334,4096.923076923077,4388.717948717949,4080.0000000000005,4256.923076923077
412022,61.0,0.0,0.0,4527.6923076923085,4180.000000000001,4317.435897435898,4824.615384615386,3780.512820512821,4189.74358974359,4214.358974358975,4091.2820512820517,4380.512820512821,4070.7692307692314,4255.384615384616
412022,62.0,0.0,0.0,4514.871794871796,4180.000000000001,4328.717948717949,4827.179487179488,3786.1538461538466,4196.923076923077,4221.025641025642,4082.564102564103,4374.358974358975,4066.666666666667,4256.923076923077
412022,63.0,0.0,0.0,4514.358974358975,4181.538461538462,4332.820512820514,4823.076923076924,3782.0512820512827,4200.512820512821,4216.923076923077,4078.9743589743593,4371.794871794872,4061.538461538462,4253.333333333334
412022,64.0,0.0,478.0,4504.615384615385,4180.512820512821,4324.102564102564,4821.025641025642,3774.8717948717954,4196.923076923077,4212.307692307693,4078.9743589743593,4371.282051282052,4056.9230769230776,4253.333333333334
412022,65.0,0.0,306.0,4499.48717948718,4182.051282051282,4324.102564102564,4825.641025641026,3777.9487179487182,4198.974358974359,4220.000000000001,4083.076923076924,4373.333333333334,4061.0256410256416,4257.435897435898
412022,66.0,0.0,503.0,4515.8974358974365,4181.025641025642,4328.717948717949,4823.076923076924,3778.9743589743593,4205.641025641026,4225.641025641026,4085.6410256410263,4376.410256410257,4064.615384615385,4254.358974358975
412022,67.0,0.0,442.0,4520.000000000001,4180.000000000001,4327.179487179487,4824.615384615386,3776.410256410257,4208.205128205129,4221.025641025642,4079.48717948718,4373.846153846154,4060.5128205128212,4252.307692307693
412022,68.0,0.0,110.0,4508.717948717949,4183.589743589744,4325.641025641026,4823.076923076924,3780.0000000000005,4205.641025641026,4216.923076923077,4073.8461538461543,4369.2307692307695,4061.0256410256416,4253.846153846154
412022,69.0,0.0,552.0,4514.358974358975,4187.179487179487,4326.666666666667,4824.102564102564,3785.6410256410263,4202.051282051282,4215.8974358974365,4075.8974358974365,4372.307692307693,4066.1538461538466,4255.384615384616
412023,70.0,0.0,536.0,4522.564102564103,4189.74358974359,4327.179487179487,4831.282051282052,3784.615384615385,4199.48717948718,4213.846153846154,4078.461538461539,4377.948717948719,4070.2564102564106,4255.384615384616
412023,71.0,0.0,468.0,4508.717948717949,4185.641025641026,4331.794871794872,4826.153846153847,3778.9743589743593,4194.871794871796,4213.846153846154,4084.1025641025644,4381.538461538462,4070.2564102564106,4253.846153846154
412023,72.0,0.0,390.0,4502.051282051282,4181.538461538462,4335.8974358974365,4822.564102564103,3778.9743589743593,4193.333333333334,4217.435897435898,4093.8461538461543,4380.512820512821,4063.589743589744,4254.358974358975
412023,73.0,0.0,466.0,4516.410256410257,4185.128205128206,4329.743589743591,4824.102564102564,3783.589743589744,4198.974358974359,4219.48717948718,4097.948717948719,4379.48717948718,4062.564102564103,4255.384615384616
412023,74.0,0.0,495.0,4520.512820512821,4190.256410256411,4322.564102564103,4828.205128205129,3785.1282051282055,4205.641025641026,4220.000000000001,4091.7948717948725,4376.923076923077,4067.692307692308,4253.846153846154
412023,75.0,0.0,376.0,4522.564102564103,4191.282051282052,4325.128205128206,4831.282051282052,3784.615384615385,4205.641025641026,4221.025641025642,4082.564102564103,4372.820512820514,4068.717948717949,4252.820512820514
412023,76.0,0.0,0.0,4543.076923076924,4190.256410256411,4327.6923076923085,4827.179487179488,3785.1282051282055,4205.128205128206,4223.589743589744,4083.589743589744,4375.8974358974365,4070.2564102564106,4254.871794871796
412023,77.0,0.0,321.0,4529.743589743591,4185.641025641026,4328.717948717949,4825.641025641026,3784.1025641025644,4205.128205128206,4224.102564102564,4092.820512820513,4379.48717948718,4070.7692307692314,4256.923076923077
412023,78.0,0.0,495.0,4490.769230769231,4175.8974358974365,4331.282051282052,4821.025641025642,3781.0256410256416,4203.589743589744,4223.076923076924,4093.333333333334,4375.8974358974365,4063.076923076924,4254.358974358975
412023,79.0,0.0,376.0,4495.8974358974365,4174.871794871796,4325.641025641026,4818.974358974359,3777.9487179487182,4206.153846153847,4220.000000000001,4085.1282051282055,4368.717948717949,4054.8717948717954,4251.282051282052
412024,80.0,0.0,0.0,4521.025641025642,4184.615384615385,4316.410256410257,4827.6923076923085,3778.9743589743593,4203.589743589744,4212.820512820514,4073.333333333334,4362.564102564103,4049.7435897435903,4253.333333333334
412024,81.0,0.0,321.0,4517.435897435898,4186.153846153847,4318.461538461539,4826.153846153847,3778.9743589743593,4197.435897435898,4209.74358974359,4066.1538461538466,4361.025641025642,4045.1282051282055,4252.820512820514
412024,82.0,0.0,495.0,4504.615384615385,4182.051282051282,4322.051282051282,4821.025641025642,3778.461538461539,4199.48717948718,4213.333333333334,4065.6410256410263,4360.000000000001,4042.0512820512827,4250.256410256411
412024,83.0,0.0,376.0,4499.48717948718,4180.000000000001,4316.923076923077,4821.025641025642,3777.435897435898,4202.564102564103,4215.384615384616,4066.1538461538466,4356.923076923077,4038.9743589743593,4250.769230769231
412024,84.0,0.0,0.0,4498.974358974359,4179.48717948718,4316.410256410257,4818.974358974359,3778.461538461539,4205.128205128206,4216.923076923077,4071.7948717948725,4362.051282051282,4041.538461538462,4253.846153846154
412024,85.0,0.0,321.0,4497.948717948719,4180.000000000001,4320.512820512821,4820.000000000001,3784.615384615385,4211.282051282052,4221.025641025642,4083.589743589744,4373.333333333334,4053.333333333334,4254.871794871796
412024,86.0,0.0,495.0,4487.6923076923085,4177.435897435898,4321.025641025642,4815.384615384616,3781.538461538462,4213.846153846154,4223.589743589744,4089.23076923077,4377.948717948719,4059.48717948718,4253.846153846154
412045,87.0,0.0,376.0,4494.871794871796,4176.923076923077,4318.974358974359,4815.384615384616,3773.8461538461543,4208.205128205129,4223.076923076924,4082.564102564103,4375.384615384616,4057.435897435898,4254.871794871796
412045,88.0,0.0,0.0,4510.769230769231,4179.48717948718,4316.410256410257,4820.512820512821,3775.3846153846157,4203.589743589744,4218.974358974359,4076.410256410257,4373.333333333334,4056.410256410257,4254.358974358975
412045,89.0,0.0,321.0,4509.743589743591,4180.512820512821,4316.923076923077,4817.948717948719,3777.435897435898,4203.589743589744,4215.8974358974365,4080.5128205128212,4376.923076923077,4063.589743589744,4253.333333333334
412045,90.0,0.0,495.0,4511.282051282052,4182.564102564103,4320.000000000001,4823.076923076924,3777.435897435898,4204.102564102564,4217.435897435898,4085.1282051282055,4380.512820512821,4072.820512820513,4255.8974358974365
412519,91.0,0.0,376.0,4515.8974358974365,4181.025641025642,4321.538461538462,4824.102564102564,3776.410256410257,4204.102564102564,4220.000000000001,4081.538461538462,4375.8974358974365,4069.7435897435903,4254.358974358975
412519,92.0,0.0,0.0,4511.282051282052,4177.948717948719,4316.923076923077,4821.538461538462,3773.333333333334,4202.051282051282,4219.48717948718,4071.7948717948725,4369.743589743591,4058.461538461539,4252.820512820514
412519,93.0,0.0,321.0,4510.256410256411,4182.051282051282,4312.307692307693,4825.641025641026,3776.9230769230776,4198.461538461539,4219.48717948718,4064.1025641025644,4370.256410256411,4054.358974358975,4253.333333333334
412519,94.0,0.0,495.0,4516.410256410257,4185.128205128206,4315.384615384616,4823.076923076924,3780.512820512821,4200.000000000001,4225.641025641026,4069.23076923077,4372.820512820514,4060.5128205128212,4251.282051282052
412519,95.0,0.0,376.0,4498.974358974359,4181.538461538462,4324.102564102564,4823.076923076924,3777.435897435898,4202.051282051282,4231.794871794872,4083.076923076924,4373.846153846154,4065.1282051282055,4253.846153846154
412519,96.0,0.0,0.0,4482.564102564103,4180.000000000001,4325.641025641026,4820.512820512821,3776.9230769230776,4197.435897435898,4230.769230769231,4090.7692307692314,4376.410256410257,4066.1538461538466,4257.435897435898
412519,97.0,0.0,321.0,4512.820512820514,4183.589743589744,4318.974358974359,4820.512820512821,3782.564102564103,4192.307692307693,4228.205128205129,4096.410256410257,4378.461538461539,4068.205128205129,4255.8974358974365
412519,98.0,0.0,495.0,4544.615384615385,4187.6923076923085,4322.051282051282,4830.256410256411,3781.538461538462,4190.256410256411,4232.307692307693,4105.128205128206,4384.615384615385,4074.8717948717954,4255.384615384616
412519,99.0,0.0,376.0,4533.333333333334,4188.205128205129,4334.871794871796,4828.205128205129,3775.8974358974365,4189.74358974359,4238.461538461539,4105.641025641026,4392.820512820514,4083.076923076924,4254.871794871796
412519,100.0,0.0,0.0,4517.948717948719,4189.2307692307695,4334.358974358975,4824.615384615386,3783.076923076924,4192.820512820514,4235.8974358974365,4097.435897435898,4390.256410256411,4083.589743589744,4254.358974358975
412519,101.0,0.0,321.0,4514.871794871796,4189.2307692307695,4323.076923076924,4826.153846153847,3788.717948717949,4197.948717948719,4232.307692307693,4090.7692307692314,4380.000000000001,4080.0000000000005,4254.358974358975
412519,102.0,0.0,495.0,4500.512820512821,4185.641025641026,4318.461538461539,4825.641025641026,3782.564102564103,4198.974358974359,4235.384615384616,4087.1794871794878,4377.435897435898,4076.9230769230776,4253.846153846154
412520,103.0,0.0,376.0,4506.666666666667,4186.153846153847,4312.307692307693,4826.153846153847,3782.0512820512827,4194.358974358975,4232.307692307693,4085.1282051282055,4376.923076923077,4070.7692307692314,4253.333333333334
412520,104.0,0.0,0.0,4529.743589743591,4188.717948717949,4304.102564102564,4823.076923076924,3785.6410256410263,4193.846153846154,4230.769230769231,4090.2564102564106,4376.923076923077,4069.7435897435903,4253.333333333334
412520,105.0,0.0,321.0,4524.615384615385,4191.282051282052,4311.282051282052,4827.6923076923085,3784.1025641025644,4199.48717948718,4235.384615384616,4096.923076923077,4378.974358974359,4077.435897435898,4254.358974358975
412520,106.0,0.0,495.0,4513.333333333334,4191.282051282052,4323.076923076924,4831.794871794872,3781.538461538462,4202.051282051282,4232.307692307693,4094.8717948717954,4382.051282051282,4079.48717948718,4253.846153846154
412520,107.0,0.0,376.0,4508.717948717949,4190.256410256411,4322.051282051282,4825.641025641026,3783.076923076924,4199.48717948718,4226.153846153847,4094.8717948717954,4381.538461538462,4075.8974358974365,4253.846153846154
412520,108.0,0.0,0.0,4499.48717948718,4189.74358974359,4318.974358974359,4825.128205128206,3786.1538461538466,4192.820512820514,4227.6923076923085,4099.48717948718,4381.025641025642,4080.5128205128212,4254.358974358975
412520,109.0,0.0,321.0,4514.871794871796,4188.717948717949,4315.384615384616,4823.589743589744,3788.205128205129,4190.256410256411,4231.794871794872,4098.974358974359,4383.589743589744,4084.615384615385,4253.333333333334
412520,110.0,0.0,495.0,4546.666666666667,4191.794871794872,4308.717948717949,4825.128205128206,3789.7435897435903,4195.384615384616,4234.871794871796,4100.512820512821,4386.666666666667,4084.1025641025644,4254.871794871796
412520,111.0,0.0,376.0,4535.384615384616,4193.333333333334,4311.794871794872,4831.794871794872,3787.692307692308,4200.512820512821,4242.051282051282,4112.307692307693,4390.256410256411,4088.717948717949,4256.410256410257
412520,112.0,0.0,0.0,4509.2307692307695,4189.74358974359,4323.076923076924,4828.717948717949,3781.0256410256416,4204.615384615385,4249.2307692307695,4120.000000000001,4396.410256410257,4091.7948717948725,4255.384615384616
412520,113.0,0.0,321.0,4512.307692307693,4186.153846153847,4326.153846153847,4825.641025641026,3781.0256410256416,4203.589743589744,4247.179487179487,4106.666666666667,4391.794871794872,4084.1025641025644,4256.410256410257
412520,114.0,0.0,495.0,4517.948717948719,4182.564102564103,4321.025641025642,4821.025641025642,3785.6410256410263,4192.820512820514,4241.538461538462,4092.307692307693,4380.000000000001,4074.358974358975,4255.384615384616
412520,115.0,0.0,376.0,4522.564102564103,4183.076923076924,4320.000000000001,4821.538461538462,3786.1538461538466,4187.6923076923085,4238.974358974359,4098.461538461539,4382.051282051282,4072.820512820513,4253.846153846154
412520,116.0,0.0,0.0,4529.2307692307695,4189.2307692307695,4325.128205128206,4831.282051282052,3784.615384615385,4198.461538461539,4242.051282051282,4109.2307692307695,4389.743589743591,4078.461538461539,4256.923076923077
412520,117.0,0.0,321.0,4524.102564102564,4190.769230769231,4333.333333333334,4830.256410256411,3785.1282051282055,4206.666666666667,4241.538461538462,4105.641025641026,4385.128205128206,4083.589743589744,4257.948717948719
412521,118.0,0.0,495.0,4521.538461538462,4190.769230769231,4335.384615384616,4828.205128205129,3787.692307692308,4205.128205128206,4236.923076923077,4093.8461538461543,4377.948717948719,4076.9230769230776,4255.8974358974365
412521,119.0,0.0,376.0,4532.820512820514,4190.256410256411,4330.769230769231,4829.2307692307695,3785.6410256410263,4204.102564102564,4233.846153846154,4084.1025641025644,4374.358974358975,4065.1282051282055,4255.384615384616
412521,120.0,0.0,0.0,4538.461538461539,4187.6923076923085,4328.205128205129,4829.743589743591,3782.0512820512827,4206.153846153847,4234.358974358975,4081.538461538462,4374.358974358975,4064.615384615385,4254.358974358975
412521,121.0,0.0,321.0,4531.282051282052,4190.769230769231,4326.666666666667,4831.794871794872,3786.666666666667,4209.2307692307695,4237.435897435898,4088.205128205129,4376.923076923077,4070.2564102564106,4253.846153846154
412521,122.0,0.0,495.0,4513.846153846154,4192.820512820514,4323.589743589744,4827.179487179488,3787.1794871794878,4211.794871794872,4242.051282051282,4098.461538461539,4380.512820512821,4070.7692307692314,4252.820512820514
412521,123.0,0.0,376.0,4501.025641025642,4192.307692307693,4330.769230769231,4830.256410256411,3783.076923076924,4210.256410256411,4242.564102564103,4103.076923076924,4385.128205128206,4073.333333333334,4253.333333333334
412521,124.0,0.0,0.0,4519.48717948718,4196.410256410257,4341.538461538462,4834.358974358975,3788.717948717949,4206.153846153847,4241.538461538462,4104.102564102564,4392.307692307693,4083.589743589744,4255.384615384616
412521,125.0,0.0,321.0,4546.666666666667,4200.000000000001,4343.076923076924,4832.820512820514,3795.8974358974365,4207.179487179487,4244.615384615385,4106.666666666667,4396.923076923077,4091.2820512820517,4256.410256410257
412521,126.0,0.0,495.0,4540.512820512821,4197.948717948719,4337.948717948719,4835.384615384616,3791.7948717948725,4209.2307692307695,4247.6923076923085,4108.205128205129,4394.871794871796,4090.7692307692314,4255.8974358974365
412522,127.0,0.0,376.0,4515.8974358974365,4190.256410256411,4332.820512820514,4828.205128205129,3783.076923076924,4208.205128205129,4245.128205128206,4107.179487179487,4389.743589743591,4086.1538461538466,4254.358974358975
412522,128.0,0.0,0.0,4507.179487179488,4187.179487179487,4331.794871794872,4825.641025641026,3785.1282051282055,4204.102564102564,4240.000000000001,4102.051282051282,4386.666666666667,4081.538461538462,4257.435897435898
412522,0.0,0.0,478.0,4518.974358974359,4188.205128205129,4331.794871794872,4829.743589743591,3788.205128205129,4197.435897435898,4237.948717948719,4098.974358974359,4387.6923076923085,4077.435897435898,4256.923076923077
412522,1.0,0.0,307.0,4531.794871794872,4189.2307692307695,4331.794871794872,4827.6923076923085,3783.589743589744,4196.410256410257,4238.974358974359,4097.435897435898,4387.6923076923085,4081.538461538462,4251.282051282052
412522,2.0,0.0,503.0,4528.717948717949,4192.307692307693,4337.948717948719,4830.769230769231,3782.0512820512827,4201.538461538462,4239.48717948718,4094.358974358975,4386.666666666667,4090.2564102564106,4252.820512820514
412522,3.0,0.0,440.0,4520.512820512821,4189.74358974359,4342.564102564103,4830.256410256411,3786.1538461538466,4200.512820512821,4236.410256410257,4093.333333333334,4387.6923076923085,4090.7692307692314,4256.410256410257
412522,4.0,0.0,110.0,4522.564102564103,4190.256410256411,4339.48717948718,4829.743589743591,3790.7692307692314,4196.410256410257,4234.358974358975,4092.820512820513,4383.589743589744,4083.076923076924,4255.8974358974365
412522,5.0,0.0,552.0,4534.871794871796,4196.410256410257,4335.384615384616,4838.461538461539,3789.7435897435903,4201.538461538462,4239.48717948718,4092.307692307693,4380.512820512821,4081.0256410256416,4256.410256410257
412522,6.0,0.0,536.0,4534.871794871796,4194.871794871796,4335.8974358974365,4837.435897435898,3783.589743589744,4210.769230769231,4245.641025641026,4101.025641025642,4390.256410256411,4088.205128205129,4255.8974358974365
412522,7.0,0.0,468.0,4518.461538461539,4190.256410256411,4336.410256410257,4831.282051282052,3783.589743589744,4212.307692307693,4247.179487179487,4113.333333333334,4397.948717948719,4089.23076923077,4256.923076923077
412522,8.0,0.0,390.0,4513.333333333334,4189.74358974359,4338.974358974359,4826.666666666667,3785.1282051282055,4211.282051282052,4250.256410256411,4115.384615384616,4395.8974358974365,4085.1282051282055,4258.974358974359
412522,9.0,0.0,466.0,4525.128205128206,4192.307692307693,4341.538461538462,4830.769230769231,3785.6410256410263,4209.2307692307695,4253.333333333334,4115.384615384616,4395.384615384616,4087.692307692308,4258.974358974359
412522,10.0,0.0,495.0,4534.871794871796,4192.307692307693,4337.948717948719,4836.410256410257,3787.1794871794878,4202.564102564103,4249.2307692307695,4115.384615384616,4395.8974358974365,4094.358974358975,4257.948717948719
412523,11.0,0.0,376.0,4534.871794871796,4190.256410256411,4335.8974358974365,4828.717948717949,3787.1794871794878,4205.128205128206,4245.641025641026,4112.820512820514,4393.333333333334,4096.923076923077,4257.435897435898
412523,12.0,0.0,0.0,4525.641025641026,4191.282051282052,4337.435897435898,4829.2307692307695,3788.205128205129,4210.769230769231,4246.666666666667,4110.256410256411,4389.743589743591,4092.307692307693,4256.923076923077
412523,13.0,0.0,321.0,4511.282051282052,4191.794871794872,4336.923076923077,4830.256410256411,3788.717948717949,4208.717948717949,4246.153846153847,4107.179487179487,4387.179487179487,4085.1282051282055,4254.871794871796
412523,14.0,0.0,495.0,4512.820512820514,4190.769230769231,4333.333333333334,4829.2307692307695,3785.1282051282055,4207.179487179487,4243.589743589744,4100.000000000001,4385.128205128206,4084.1025641025644,4252.820512820514
412523,15.0,0.0,376.0,4531.282051282052,4192.820512820514,4326.666666666667,4833.846153846154,3785.6410256410263,4211.794871794872,4242.564102564103,4096.923076923077,4384.615384615385,4086.666666666667,4255.8974358974365
412523,16.0,0.0,0.0,4538.461538461539,4195.384615384616,4318.974358974359,4829.743589743591,3785.1282051282055,4215.384615384616,4244.102564102564,4102.051282051282,4387.6923076923085,4087.1794871794878,4257.948717948719
412523,17.0,0.0,0.0,4534.358974358975,4197.435897435898,4322.564102564103,4830.256410256411,3782.564102564103,4216.410256410257,4248.717948717949,4108.717948717949,4393.333333333334,4089.23076923077,4255.8974358974365
412523,18.0,0.0,0.0,4530.769230769231,4195.8974358974365,4334.358974358975,4834.358974358975,3783.589743589744,4217.948717948719,4252.820512820514,4114.871794871796,4395.384615384616,4093.8461538461543,4254.871794871796
412523,19.0,0.0,0.0,4510.256410256411,4191.282051282052,4340.512820512821,4829.743589743591,3786.1538461538466,4221.025641025642,4255.384615384616,4121.538461538462,4395.8974358974365,4094.8717948717954,4258.974358974359
412523,20.0,0.0,0.0,4494.871794871796,4192.307692307693,4345.128205128206,4832.307692307693,3786.1538461538466,4224.615384615385,4257.435897435898,4126.153846153847,4400.000000000001,4098.974358974359,4260.000000000001
412523,21.0,0.0,0.0,4522.051282051282,4193.333333333334,4344.615384615385,4834.358974358975,3786.1538461538466,4223.589743589744,4256.923076923077,4127.179487179487,4401.538461538462,4104.615384615385,4256.923076923077
412553,22.0,0.0,0.0,4558.974358974359,4193.333333333334,4333.846153846154,4836.410256410257,3788.205128205129,4220.512820512821,4253.333333333334,4120.512820512821,4397.435897435898,4102.564102564103,4257.435897435898
412553,23.0,0.0,0.0,4556.410256410257,4194.871794871796,4327.179487179487,4837.948717948719,3792.820512820513,4225.641025641026,4251.282051282052,4108.717948717949,4391.282051282052,4095.8974358974365,4256.923076923077
412553,24.0,0.0,0.0,4531.794871794872,4194.871794871796,4329.743589743591,4833.846153846154,3794.8717948717954,4230.256410256411,4249.74358974359,4108.717948717949,4392.820512820514,4094.8717948717954,4253.846153846154
412553,25.0,0.0,0.0,4518.461538461539,4194.871794871796,4329.743589743591,4833.333333333334,3793.333333333334,4224.102564102564,4247.6923076923085,4118.461538461539,4395.8974358974365,4093.8461538461543,4256.410256410257
413031,26.0,0.0,0.0,4505.641025641026,4191.794871794872,4331.794871794872,4828.717948717949,3785.1282051282055,4221.538461538462,4250.256410256411,4121.538461538462,4393.846153846154,4090.2564102564106,4255.8974358974365
413031,27.0,0.0,0.0,4508.205128205129,4189.74358974359,4337.435897435898,4829.2307692307695,3781.0256410256416,4226.153846153847,4250.256410256411,4116.923076923077,4389.2307692307695,4087.692307692308,4252.820512820514
413031,28.0,0.0,0.0,4541.025641025642,4194.871794871796,4333.333333333334,4835.384615384616,3786.666666666667,4220.512820512821,4240.512820512821,4110.769230769231,4388.717948717949,4087.692307692308,4253.846153846154
413031,29.0,0.0,0.0,4554.871794871796,4196.410256410257,4329.743589743591,4832.820512820514,3789.2307692307695,4215.8974358974365,4238.461538461539,4110.256410256411,4391.794871794872,4093.333333333334,4255.8974358974365
413031,30.0,0.0,0.0,4531.282051282052,4194.871794871796,4332.820512820514,4832.820512820514,3788.717948717949,4218.974358974359,4243.589743589744,4108.717948717949,4393.333333333334,4095.8974358974365,4256.923076923077
413032,31.0,0.0,0.0,4521.025641025642,4192.820512820514,4329.743589743591,4830.769230769231,3785.6410256410263,4216.410256410257,4243.589743589744,4107.6923076923085,4394.358974358975,4092.307692307693,4256.410256410257
413032,32.0,0.0,0.0,4531.282051282052,4189.2307692307695,4322.564102564103,4829.743589743591,3780.512820512821,4217.948717948719,4244.615384615385,4118.461538461539,4400.000000000001,4092.307692307693,4256.410256410257
413032,33.0,0.0,0.0,4519.48717948718,4185.641025641026,4326.666666666667,4832.820512820514,3777.435897435898,4223.589743589744,4250.769230769231,4129.2307692307695,4401.538461538462,4093.8461538461543,4256.923076923077
413032,34.0,0.0,0.0,4510.256410256411,4186.153846153847,4335.384615384616,4826.666666666667,3781.538461538462,4221.538461538462,4256.410256410257,4129.2307692307695,4395.384615384616,4091.2820512820517,4256.410256410257
413032,35.0,0.0,0.0,4527.6923076923085,4189.74358974359,4335.8974358974365,4829.2307692307695,3789.2307692307695,4218.461538461539,4255.8974358974365,4126.153846153847,4394.358974358975,4089.23076923077,4257.435897435898
413032,36.0,0.0,0.0,4535.8974358974365,4190.256410256411,4331.794871794872,4832.307692307693,3790.2564102564106,4220.512820512821,4249.74358974359,4119.48717948718,4394.358974358975,4087.692307692308,4257.948717948719
413032,37.0,0.0,0.0,4531.282051282052,4190.256410256411,4328.717948717949,4831.794871794872,3789.2307692307695,4221.538461538462,4245.128205128206,4105.641025641026,4388.717948717949,4084.1025641025644,4257.435897435898
413032,38.0,0.0,0.0,4535.8974358974365,4193.846153846154,4329.2307692307695,4835.8974358974365,3792.820512820513,4219.48717948718,4248.205128205129,4107.6923076923085,4391.282051282052,4084.1025641025644,4258.974358974359
413032,39.0,0.0,0.0,4535.8974358974365,4194.871794871796,4333.333333333334,4833.333333333334,3792.820512820513,4218.974358974359,4254.871794871796,4122.051282051282,4401.538461538462,4091.7948717948725,4260.000000000001
413033,40.0,0.0,0.0,4515.384615384616,4193.333333333334,4335.8974358974365,4831.794871794872,3791.2820512820517,4218.974358974359,4254.871794871796,4118.461538461539,4399.48717948718,4094.358974358975,4258.461538461539
413033,41.0,0.0,0.0,4507.6923076923085,4188.205128205129,4330.769230769231,4831.282051282052,3792.307692307693,4216.410256410257,4249.74358974359,4109.74358974359,4391.282051282052,4085.1282051282055,4256.923076923077
413033,42.0,0.0,0.0,4528.717948717949,4181.025641025642,4327.6923076923085,4826.153846153847,3788.205128205129,4215.8974358974365,4247.179487179487,4114.871794871796,4389.2307692307695,4077.435897435898,4256.410256410257
413033,43.0,0.0,0.0,4534.358974358975,4183.589743589744,4334.871794871796,4828.717948717949,3787.1794871794878,4218.461538461539,4247.6923076923085,4116.923076923077,4389.2307692307695,4081.538461538462,4257.948717948719
413033,44.0,0.0,0.0,4518.461538461539,4189.2307692307695,4339.48717948718,4828.205128205129,3793.8461538461543,4224.102564102564,4249.74358974359,4111.794871794872,4390.256410256411,4090.7692307692314,4256.923076923077
413033,45.0,0.0,0.0,4519.48717948718,4189.2307692307695,4337.948717948719,4829.2307692307695,3794.8717948717954,4223.589743589744,4250.256410256411,4114.871794871796,4393.333333333334,4092.307692307693,4256.923076923077
413033,46.0,0.0,0.0,4523.589743589744,4190.256410256411,4340.000000000001,4832.307692307693,3788.717948717949,4220.512820512821,4247.6923076923085,4121.538461538462,4394.358974358975,4090.7692307692314,4258.461538461539
413033,47.0,0.0,0.0,4512.820512820514,4189.2307692307695,4340.000000000001,4827.179487179488,3784.1025641025644,4217.435897435898,4244.615384615385,4121.538461538462,4395.384615384616,4095.3846153846157,4256.410256410257
413033,48.0,0.0,0.0,4517.948717948719,4184.102564102564,4329.2307692307695,4825.641025641026,3787.692307692308,4211.282051282052,4240.512820512821,4113.846153846154,4396.410256410257,4095.3846153846157,4256.923076923077
413033,49.0,0.0,0.0,4528.717948717949,4183.076923076924,4320.000000000001,4823.589743589744,3789.2307692307695,4207.179487179487,4237.948717948719,4106.153846153847,4393.333333333334,4088.205128205129,4259.48717948718
413034,50.0,0.0,0.0,4514.871794871796,4185.641025641026,4322.564102564103,4825.128205128206,3789.7435897435903,4206.153846153847,4236.410256410257,4107.179487179487,4393.333333333334,4088.205128205129,4257.948717948719
413034,51.0,0.0,0.0,4508.205128205129,4187.179487179487,4325.641025641026,4829.2307692307695,3792.307692307693,4202.564102564103,4233.333333333334,4109.74358974359,4398.974358974359,4092.307692307693,4253.846153846154
413034,52.0,0.0,0.0,4523.076923076924,4185.128205128206,4323.589743589744,4824.102564102564,3790.7692307692314,4198.461538461539,4232.307692307693,4107.179487179487,4402.051282051282,4092.820512820513,4254.358974358975
413034,53.0,0.0,0.0,4533.333333333334,4185.128205128206,4322.051282051282,4824.102564102564,3794.8717948717954,4200.512820512821,4237.435897435898,4106.666666666667,4396.923076923077,4090.7692307692314,4258.974358974359
413034,54.0,0.0,0.0,4531.794871794872,4187.6923076923085,4324.102564102564,4824.102564102564,3799.48717948718,4209.74358974359,4244.615384615385,4111.794871794872,4395.8974358974365,4089.7435897435903,4257.435897435898
413034,55.0,0.0,0.0,4518.974358974359,4186.666666666667,4324.102564102564,4824.102564102564,3796.410256410257,4212.820512820514,4246.153846153847,4113.846153846154,4400.000000000001,4086.1538461538466,4253.846153846154
413034,56.0,0.0,0.0,4512.307692307693,4184.102564102564,4320.000000000001,4827.179487179488,3794.8717948717954,4207.179487179487,4244.102564102564,4112.820512820514,4397.435897435898,4084.1025641025644,4254.358974358975
413034,57.0,0.0,0.0,4525.641025641026,4185.128205128206,4328.717948717949,4822.564102564103,3795.8974358974365,4211.282051282052,4250.256410256411,4121.538461538462,4401.538461538462,4092.820512820513,4256.923076923077
413034,58.0,0.0,0.0,4530.256410256411,4191.794871794872,4341.538461538462,4827.6923076923085,3794.8717948717954,4220.512820512821,4259.48717948718,4131.794871794872,4410.769230769231,4100.512820512821,4258.974358974359
413035,59.0,0.0,0.0,4511.282051282052,4191.282051282052,4336.410256410257,4830.769230769231,3789.2307692307695,4216.410256410257,4252.307692307693,4129.74358974359,4406.153846153847,4097.435897435898,4258.461538461539
413035,60.0,0.0,0.0,4510.769230769231,4189.2307692307695,4326.666666666667,4824.615384615386,3787.1794871794878,4210.769230769231,4239.48717948718,4121.538461538462,4395.8974358974365,4092.307692307693,4257.435897435898
413035,61.0,0.0,0.0,4538.461538461539,4192.307692307693,4332.307692307693,4830.256410256411,3791.7948717948725,4217.948717948719,4239.48717948718,4113.846153846154,4393.846153846154,4090.7692307692314,4258.461538461539
413035,62.0,0.0,0.0,4543.589743589744,4193.333333333334,4338.974358974359,4831.794871794872,3794.8717948717954,4226.153846153847,4248.717948717949,4110.256410256411,4395.384615384616,4091.2820512820517,4257.435897435898
413035,63.0,0.0,0.0,4536.410256410257,4195.384615384616,4338.974358974359,4831.282051282052,3800.512820512821,4226.666666666667,4254.358974358975,4114.358974358975,4400.512820512821,4096.923076923077,4258.974358974359
413035,64.0,0.0,478.0,4540.512820512821,4196.923076923077,4345.128205128206,4834.358974358975,3809.7435897435903,4225.128205128206,4253.333333333334,4120.000000000001,4405.641025641026,4105.128205128206,4260.000000000001
413035,65.0,0.0,302.0,4521.538461538462,4192.307692307693,4349.743589743591,4830.256410256411,3806.1538461538466,4223.076923076924,4247.6923076923085,4119.48717948718,4402.564102564103,4105.128205128206,4256.410256410257
413035,66.0,0.0,503.0,4498.974358974359,4187.179487179487,4343.076923076924,4828.717948717949,3796.410256410257,4221.025641025642,4243.076923076924,4113.333333333334,4396.923076923077,4100.512820512821,4254.871794871796
413035,67.0,0.0,440.0,4517.435897435898,4187.179487179487,4337.948717948719,4827.6923076923085,3794.358974358975,4222.051282051282,4246.666666666667,4110.256410256411,4396.923076923077,4098.461538461539,4255.384615384616
413035,68.0,0.0,110.0,4545.128205128206,4189.2307692307695,4337.948717948719,4830.769230769231,3793.333333333334,4220.512820512821,4252.307692307693,4112.307692307693,4397.948717948719,4096.923076923077,4259.48717948718
413035,69.0,0.0,552.0,4528.717948717949,4188.717948717949,4332.307692307693,4830.256410256411,3790.2564102564106,4218.974358974359,4251.282051282052,4111.794871794872,4395.384615384616,4091.7948717948725,4261.538461538462
413035,70.0,0.0,536.0,4497.435897435898,4181.538461538462,4327.179487179487,4819.48717948718,3794.358974358975,4222.564102564103,4248.717948717949,4105.641025641026,4393.846153846154,4088.205128205129,4258.461538461539
413035,71.0,0.0,468.0,4499.48717948718,4177.948717948719,4326.666666666667,4818.461538461539,3799.48717948718,4220.000000000001,4243.076923076924,4102.051282051282,4392.820512820514,4086.1538461538466,4256.923076923077
413035,72.0,0.0,390.0,4513.846153846154,4180.512820512821,4320.512820512821,4818.461538461539,3795.8974358974365,4209.2307692307695,4233.846153846154,4105.128205128206,4392.820512820514,4083.589743589744,4255.8974358974365
413035,73.0,0.0,466.0,4518.461538461539,4185.641025641026,4316.410256410257,4822.051282051282,3798.461538461539,4209.74358974359,4235.8974358974365,4110.769230769231,4394.871794871796,4087.692307692308,4256.923076923077
413035,74.0,0.0,495.0,4514.358974358975,4188.717948717949,4322.051282051282,4829.2307692307695,3806.1538461538466,4221.538461538462,4245.641025641026,4112.820512820514,4397.948717948719,4094.8717948717954,4258.974358974359
413036,75.0,0.0,374.0,4511.794871794872,4183.076923076924,4323.076923076924,4822.564102564103,3812.307692307693,4229.74358974359,4250.256410256411,4113.846153846154,4398.461538461539,4090.7692307692314,4258.461538461539
413036,76.0,0.0,0.0,4513.846153846154,4182.051282051282,4320.512820512821,4820.000000000001,3826.1538461538466,4230.769230769231,4249.74358974359,4114.871794871796,4396.410256410257,4083.076923076924,4258.461538461539
413036,77.0,0.0,321.0,4516.923076923077,4187.6923076923085,4323.076923076924,4823.589743589744,3826.666666666667,4230.769230769231,4249.74358974359,4114.358974358975,4397.435897435898,4085.1282051282055,4257.948717948719
413036,78.0,0.0,495.0,4516.410256410257,4187.179487179487,4323.589743589744,4825.641025641026,3808.205128205129,4229.2307692307695,4246.153846153847,4112.820512820514,4400.000000000001,4084.1025641025644,4256.923076923077
413036,79.0,0.0,374.0,4513.846153846154,4182.564102564103,4322.051282051282,4825.641025641026,3802.0512820512827,4224.615384615385,4238.974358974359,4115.8974358974365,4396.410256410257,4078.9743589743593,4256.410256410257
413036,80.0,0.0,0.0,4517.948717948719,4180.000000000001,4321.025641025642,4817.435897435898,3807.692307692308,4223.589743589744,4237.435897435898,4116.923076923077,4393.333333333334,4081.538461538462,4255.8974358974365
413036,81.0,0.0,321.0,4515.8974358974365,4178.461538461539,4316.410256410257,4815.384615384616,3803.589743589744,4221.025641025642,4236.923076923077,4103.589743589744,4390.256410256411,4081.0256410256416,4256.923076923077
413036,82.0,0.0,495.0,4501.025641025642,4174.871794871796,4314.358974358975,4814.871794871796,3794.358974358975,4214.871794871796,4231.794871794872,4093.333333333334,4385.128205128206,4073.333333333334,4256.923076923077
413036,83.0,0.0,374.0,4490.769230769231,4175.384615384616,4319.48717948718,4814.871794871796,3793.333333333334,4216.410256410257,4230.769230769231,4102.564102564103,4387.6923076923085,4074.8717948717954,4256.410256410257
413036,84.0,0.0,0.0,4496.410256410257,4181.538461538462,4320.512820512821,4822.051282051282,3795.8974358974365,4220.000000000001,4236.410256410257,4108.205128205129,4395.384615384616,4081.538461538462,4256.410256410257
413036,85.0,0.0,321.0,4520.512820512821,4186.666666666667,4320.512820512821,4822.564102564103,3794.358974358975,4215.8974358974365,4240.512820512821,4101.538461538462,4394.358974358975,4085.6410256410263,4255.8974358974365
413056,86.0,0.0,495.0,4540.000000000001,4188.717948717949,4323.076923076924,4826.153846153847,3794.358974358975,4211.282051282052,4236.410256410257,4102.564102564103,4391.282051282052,4088.717948717949,4256.923076923077
413056,87.0,0.0,374.0,4520.000000000001,4183.076923076924,4321.025641025642,4827.179487179488,3798.9743589743593,4206.666666666667,4229.74358974359,4104.615384615385,4390.256410256411,4084.1025641025644,4257.948717948719
413056,88.0,0.0,0.0,4483.589743589744,4174.358974358975,4315.8974358974365,4814.871794871796,3798.461538461539,4197.948717948719,4225.641025641026,4099.48717948718,4386.153846153847,4072.307692307693,4256.923076923077
413056,89.0,0.0,321.0,4481.025641025642,4174.358974358975,4312.820512820514,4812.820512820514,3787.1794871794878,4192.307692307693,4225.128205128206,4092.307692307693,4377.948717948719,4065.1282051282055,4255.8974358974365
413527,90.0,0.0,495.0,4497.948717948719,4174.871794871796,4312.820512820514,4813.846153846154,3776.9230769230776,4196.923076923077,4225.641025641026,4085.1282051282055,4373.846153846154,4063.589743589744,4255.384615384616
413527,91.0,0.0,374.0,4507.179487179488,4176.410256410257,4317.435897435898,4817.435897435898,3781.0256410256416,4201.025641025642,4225.641025641026,4086.1538461538466,4375.384615384616,4064.1025641025644,4254.871794871796
413527,92.0,0.0,0.0,4506.666666666667,4180.000000000001,4322.051282051282,4822.564102564103,3789.7435897435903,4202.051282051282,4226.666666666667,4093.8461538461543,4380.512820512821,4067.1794871794878,4254.358974358975
413527,93.0,0.0,321.0,4496.410256410257,4177.435897435898,4321.025641025642,4820.000000000001,3786.1538461538466,4204.615384615385,4228.205128205129,4097.948717948719,4383.076923076924,4069.7435897435903,4254.871794871796
413527,94.0,0.0,495.0,4495.384615384616,4174.358974358975,4316.410256410257,4818.461538461539,3780.512820512821,4207.179487179487,4225.128205128206,4091.2820512820517,4378.974358974359,4067.692307692308,4256.410256410257
413527,95.0,0.0,374.0,4503.589743589744,4174.871794871796,4310.769230769231,4815.384615384616,3777.435897435898,4207.179487179487,4219.48717948718,4084.1025641025644,4373.846153846154,4063.076923076924,4253.846153846154
413527,96.0,0.0,0.0,4507.179487179488,4176.923076923077,4307.6923076923085,4817.948717948719,3775.3846153846157,4207.6923076923085,4218.974358974359,4082.0512820512827,4373.333333333334,4058.9743589743593,4251.794871794872
413527,97.0,0.0,321.0,4507.6923076923085,4176.923076923077,4311.794871794872,4822.564102564103,3775.3846153846157,4212.307692307693,4219.48717948718,4081.538461538462,4375.8974358974365,4060.5128205128212,4253.333333333334
413528,98.0,0.0,495.0,4488.717948717949,4171.282051282052,4314.358974358975,4814.358974358975,3772.307692307693,4213.846153846154,4218.461538461539,4082.0512820512827,4380.000000000001,4064.1025641025644,4252.820512820514
413528,99.0,0.0,374.0,4474.358974358975,4169.2307692307695,4309.743589743591,4811.282051282052,3770.2564102564106,4207.179487179487,4215.8974358974365,4078.461538461539,4378.974358974359,4061.0256410256416,4253.846153846154
413528,100.0,0.0,0.0,4502.564102564103,4173.846153846154,4305.128205128206,4812.820512820514,3772.820512820513,4203.076923076924,4214.358974358975,4080.0000000000005,4378.461538461539,4056.410256410257,4254.358974358975
413528,101.0,0.0,321.0,4524.615384615385,4176.923076923077,4307.6923076923085,4813.846153846154,3774.8717948717954,4205.128205128206,4214.358974358975,4086.1538461538466,4381.538461538462,4061.0256410256416,4252.820512820514
413528,102.0,0.0,495.0,4500.000000000001,4172.307692307693,4313.846153846154,4817.435897435898,3776.9230769230776,4205.641025641026,4216.923076923077,4086.1538461538466,4380.000000000001,4067.692307692308,4253.846153846154
413528,103.0,0.0,374.0,4480.512820512821,4169.74358974359,4318.461538461539,4813.333333333334,3776.410256410257,4205.641025641026,4223.076923076924,4091.2820512820517,4381.025641025642,4071.2820512820517,4254.871794871796
413528,104.0,0.0,0.0,4500.512820512821,4176.923076923077,4319.48717948718,4816.410256410257,3774.8717948717954,4210.769230769231,4226.666666666667,4105.641025641026,4389.2307692307695,4073.333333333334,4256.410256410257
413528,105.0,0.0,321.0,4529.743589743591,4178.974358974359,4315.8974358974365,4820.512820512821,3775.8974358974365,4214.871794871796,4225.128205128206,4110.256410256411,4390.256410256411,4075.8974358974365,4256.923076923077
413528,106.0,0.0,495.0,4526.153846153847,4173.846153846154,4310.769230769231,4818.461538461539,3777.9487179487182,4212.820512820514,4222.564102564103,4103.589743589744,4382.564102564103,4076.9230769230776,4255.384615384616
413528,107.0,0.0,374.0,4483.589743589744,4169.74358974359,4312.307692307693,4817.948717948719,3775.3846153846157,4208.205128205129,4220.000000000001,4096.923076923077,4380.000000000001,4072.307692307693,4252.820512820514
413528,108.0,0.0,0.0,4473.333333333334,4167.179487179487,4321.025641025642,4810.769230769231,3773.8461538461543,4211.282051282052,4217.435897435898,4089.7435897435903,4378.974358974359,4070.2564102564106,4249.74358974359
413528,109.0,0.0,321.0,4513.846153846154,4171.794871794872,4325.128205128206,4814.871794871796,3786.1538461538466,4214.871794871796,4216.410256410257,4088.717948717949,4378.974358974359,4074.8717948717954,4251.794871794872
413528,110.0,0.0,495.0,4533.846153846154,4180.000000000001,4321.025641025642,4824.102564102564,3794.8717948717954,4213.333333333334,4216.410256410257,4094.8717948717954,4381.025641025642,4079.48717948718,4256.410256410257
413529,111.0,0.0,374.0,4516.923076923077,4180.000000000001,4319.48717948718,4820.000000000001,3790.2564102564106,4213.333333333334,4217.435897435898,4092.307692307693,4381.025641025642,4079.48717948718,4254.358974358975
413529,112.0,0.0,0.0,4500.512820512821,4176.923076923077,4321.025641025642,4818.974358974359,3792.820512820513,4214.358974358975,4218.461538461539,4084.615384615385,4380.000000000001,4075.3846153846157,4252.307692307693
413529,113.0,0.0,321.0,4506.153846153847,4176.923076923077,4318.974358974359,4816.923076923077,3794.8717948717954,4210.256410256411,4218.461538461539,4084.1025641025644,4377.948717948719,4070.2564102564106,4253.846153846154
413529,114.0,0.0,495.0,4516.923076923077,4177.435897435898,4320.000000000001,4816.923076923077,3787.1794871794878,4206.666666666667,4220.000000000001,4085.6410256410263,4374.358974358975,4068.717948717949,4255.8974358974365
413529,115.0,0.0,374.0,4513.333333333334,4177.948717948719,4325.128205128206,4821.025641025642,3783.589743589744,4203.589743589744,4221.025641025642,4086.1538461538466,4374.871794871796,4070.2564102564106,4256.410256410257
413529,116.0,0.0,0.0,4504.615384615385,4176.410256410257,4325.128205128206,4816.410256410257,3784.1025641025644,4198.974358974359,4219.48717948718,4087.1794871794878,4375.384615384616,4067.1794871794878,4254.871794871796
413529,117.0,0.0,321.0,4501.538461538462,4173.333333333334,4316.923076923077,4813.846153846154,3783.589743589744,4191.794871794872,4213.846153846154,4087.1794871794878,4369.2307692307695,4061.0256410256416,4254.358974358975
413530,118.0,0.0,495.0,4496.410256410257,4172.307692307693,4311.794871794872,4810.256410256411,3788.205128205129,4187.6923076923085,4214.871794871796,4089.7435897435903,4368.717948717949,4061.0256410256416,4251.282051282052
413530,119.0,0.0,374.0,4501.538461538462,4176.410256410257,4317.435897435898,4814.358974358975,3791.2820512820517,4193.846153846154,4221.538461538462,4095.3846153846157,4375.8974358974365,4069.7435897435903,4250.256410256411
413530,120.0,0.0,0.0,4518.974358974359,4179.48717948718,4323.589743589744,4823.589743589744,3791.7948717948725,4201.538461538462,4220.000000000001,4094.8717948717954,4377.948717948719,4073.8461538461543,4254.871794871796
413530,121.0,0.0,321.0,4516.923076923077,4176.410256410257,4320.512820512821,4816.923076923077,3800.512820512821,4201.025641025642,4216.410256410257,4092.820512820513,4378.461538461539,4070.7692307692314,4257.435897435898
413530,122.0,0.0,495.0,4498.974358974359,4173.846153846154,4315.8974358974365,4810.769230769231,3805.6410256410263,4193.846153846154,4213.846153846154,4091.2820512820517,4377.948717948719,4070.2564102564106,4256.410256410257
413530,123.0,0.0,374.0,4495.384615384616,4173.846153846154,4316.923076923077,4809.2307692307695,3798.9743589743593,4187.6923076923085,4212.307692307693,4085.1282051282055,4373.846153846154,4068.717948717949,4254.871794871796
413531,124.0,0.0,0.0,4506.666666666667,4174.358974358975,4318.461538461539,4811.282051282052,3799.48717948718,4193.846153846154,4214.358974358975,4086.666666666667,4375.384615384616,4070.7692307692314,4255.8974358974365
413531,125.0,0.0,321.0,4522.564102564103,4178.461538461539,4321.538461538462,4821.025641025642,3806.1538461538466,4211.794871794872,4221.025641025642,4096.410256410257,4381.538461538462,4079.48717948718,4257.435897435898
413531,126.0,0.0,495.0,4518.974358974359,4178.461538461539,4328.205128205129,4818.461538461539,3799.48717948718,4224.615384615385,4221.538461538462,4096.923076923077,4381.538461538462,4083.076923076924,4256.410256410257
413531,127.0,0.0,374.0,4494.358974358975,4174.871794871796,4327.179487179487,4814.358974358975,3793.333333333334,4217.948717948719,4213.846153846154,4084.1025641025644,4374.871794871796,4074.8717948717954,4256.410256410257
413531,128.0,0.0,0.0,4495.384615384616,4173.846153846154,4319.48717948718,4815.8974358974365,3795.8974358974365,4206.153846153847,4210.769230769231,4079.48717948718,4372.307692307693,4064.1025641025644,4255.384615384616
413532,0.0,0.0,478.0,4517.435897435898,4176.410256410257,4315.8974358974365,4816.410256410257,3800.512820512821,4205.641025641026,4214.358974358975,4083.076923076924,4373.333333333334,4060.0000000000005,4255.384615384616
413532,1.0,0.0,305.0,4517.948717948719,4178.974358974359,4319.48717948718,4818.974358974359,3807.692307692308,4209.74358974359,4215.384615384616,4077.435897435898,4371.282051282052,4063.076923076924,4255.8974358974365
413532,2.0,0.0,503.0,4515.8974358974365,4177.435897435898,4325.128205128206,4814.871794871796,3804.1025641025644,4212.820512820514,4216.410256410257,4079.48717948718,4372.820512820514,4070.7692307692314,4253.333333333334
413532,3.0,0.0,440.0,4517.948717948719,4175.384615384616,4329.2307692307695,4816.923076923077,3794.358974358975,4215.8974358974365,4217.948717948719,4092.820512820513,4378.461538461539,4073.8461538461543,4253.846153846154
413533,4.0,0.0,110.0,4505.128205128206,4176.410256410257,4325.641025641026,4820.000000000001,3794.358974358975,4216.410256410257,4217.435897435898,4092.307692307693,4374.871794871796,4070.7692307692314,4254.871794871796
413533,5.0,0.0,552.0,4505.128205128206,4175.8974358974365,4318.461538461539,4815.384615384616,3793.8461538461543,4212.820512820514,4216.923076923077,4083.076923076924,4369.2307692307695,4070.2564102564106,4253.333333333334
413533,6.0,0.0,536.0,4522.051282051282,4176.410256410257,4314.871794871796,4818.461538461539,3789.7435897435903,4210.769230769231,4218.974358974359,4083.589743589744,4371.794871794872,4071.7948717948725,4253.846153846154
413533,7.0,0.0,468.0,4516.410256410257,4177.948717948719,4320.000000000001,4818.461538461539,3787.1794871794878,4217.435897435898,4220.000000000001,4085.1282051282055,4375.8974358974365,4074.358974358975,4254.358974358975
413533,8.0,0.0,390.0,4504.102564102564,4181.025641025642,4330.256410256411,4820.000000000001,3786.1538461538466,4221.538461538462,4219.48717948718,4082.0512820512827,4374.358974358975,4076.9230769230776,4253.846153846154
413533,9.0,0.0,466.0,4505.641025641026,4182.051282051282,4327.179487179487,4825.128205128206,3783.589743589744,4212.820512820514,4215.8974358974365,4080.0000000000005,4370.769230769231,4073.8461538461543,4252.307692307693
413533,10.0,0.0,495.0,4509.743589743591,4178.974358974359,4319.48717948718,4819.48717948718,3781.0256410256416,4209.74358974359,4210.769230769231,4079.48717948718,4369.743589743591,4070.2564102564106,4252.307692307693
413533,11.0,0.0,375.0,4518.974358974359,4181.538461538462,4323.076923076924,4818.461538461539,3781.538461538462,4216.923076923077,4209.74358974359,4080.5128205128212,4368.717948717949,4069.23076923077,4256.410256410257
413534,12.0,0.0,0.0,4524.102564102564,4185.641025641026,4324.102564102564,4819.48717948718,3782.564102564103,4216.923076923077,4211.282051282052,4080.5128205128212,4367.6923076923085,4067.692307692308,4256.410256410257
413534,13.0,0.0,321.0,4528.717948717949,4187.6923076923085,4323.076923076924,4823.589743589744,3784.1025641025644,4210.256410256411,4208.205128205129,4077.435897435898,4368.717948717949,4067.692307692308,4252.820512820514
413534,14.0,0.0,495.0,4535.8974358974365,4191.282051282052,4336.923076923077,4830.769230769231,3789.2307692307695,4206.666666666667,4206.666666666667,4077.9487179487187,4373.846153846154,4075.8974358974365,4255.8974358974365
413534,15.0,0.0,375.0,4524.615384615385,4191.282051282052,4348.205128205129,4824.615384615386,3796.410256410257,4209.2307692307695,4214.871794871796,4090.2564102564106,4380.000000000001,4086.666666666667,4260.000000000001
413534,16.0,0.0,0.0,4515.8974358974365,4188.205128205129,4342.564102564103,4824.102564102564,3801.0256410256416,4212.307692307693,4221.025641025642,4101.538461538462,4384.615384615385,4090.7692307692314,4259.48717948718
413534,17.0,0.0,0.0,4519.48717948718,4188.205128205129,4336.410256410257,4826.153846153847,3793.8461538461543,4212.820512820514,4221.538461538462,4103.076923076924,4388.205128205129,4091.7948717948725,4257.435897435898
413534,18.0,0.0,0.0,4518.461538461539,4186.153846153847,4333.333333333334,4824.615384615386,3785.1282051282055,4209.74358974359,4222.564102564103,4103.076923076924,4389.743589743591,4092.307692307693,4256.923076923077
413534,19.0,0.0,0.0,4516.923076923077,4181.025641025642,4326.666666666667,4824.615384615386,3784.615384615385,4206.666666666667,4221.538461538462,4101.025641025642,4384.615384615385,4085.1282051282055,4256.410256410257
413535,20.0,0.0,0.0,4507.6923076923085,4173.846153846154,4325.641025641026,4815.8974358974365,3781.538461538462,4204.615384615385,4218.974358974359,4094.8717948717954,4379.48717948718,4074.8717948717954,4252.820512820514
413557,21.0,0.0,0.0,4497.435897435898,4170.769230769231,4323.589743589744,4812.307692307693,3777.435897435898,4203.076923076924,4218.461538461539,4090.7692307692314,4378.974358974359,4072.307692307693,4255.384615384616
413557,22.0,0.0,0.0,4507.179487179488,4170.256410256411,4313.846153846154,4812.307692307693,3779.48717948718,4206.666666666667,4220.512820512821,4096.923076923077,4380.512820512821,4075.8974358974365,4258.461538461539
413557,23.0,0.0,0.0,4512.307692307693,4166.153846153847,4309.2307692307695,4807.6923076923085,3780.512820512821,4206.666666666667,4222.051282051282,4101.538461538462,4377.948717948719,4072.307692307693,4254.871794871796
413557,24.0,0.0,0.0,4501.538461538462,4168.205128205129,4314.871794871796,4810.256410256411,3782.0512820512827,4195.384615384616,4216.410256410257,4092.307692307693,4372.820512820514,4063.589743589744,4253.333333333334
414023,25.0,0.0,0.0,4496.923076923077,4172.307692307693,4322.051282051282,4810.769230769231,3784.615384615385,4194.358974358975,4211.794871794872,4087.692307692308,4374.358974358975,4066.1538461538466,4255.8974358974365
414023,26.0,0.0,0.0,4486.666666666667,4171.794871794872,4325.128205128206,4812.820512820514,3785.6410256410263,4203.076923076924,4214.871794871796,4094.358974358975,4378.974358974359,4072.820512820513,4257.435897435898
414023,27.0,0.0,0.0,4484.102564102564,4169.2307692307695,4324.615384615385,4815.384615384616,3784.615384615385,4200.000000000001,4215.384615384616,4098.974358974359,4377.948717948719,4075.3846153846157,4255.8974358974365
414023,28.0,0.0,0.0,4513.846153846154,4170.769230769231,4321.025641025642,4811.282051282052,3782.0512820512827,4195.8974358974365,4213.333333333334,4100.512820512821,4378.461538461539,4076.9230769230776,4255.384615384616
414023,29.0,0.0,0.0,4520.512820512821,4175.8974358974365,4317.435897435898,4814.358974358975,3780.0000000000005,4202.051282051282,4216.923076923077,4102.564102564103,4381.538461538462,4074.358974358975,4257.435897435898
414024,30.0,0.0,0.0,4496.410256410257,4175.384615384616,4316.923076923077,4813.333333333334,3774.8717948717954,4205.641025641026,4220.512820512821,4097.435897435898,4375.384615384616,4067.692307692308,4256.410256410257
414024,31.0,0.0,0.0,4489.743589743591,4172.820512820514,4321.538461538462,4812.820512820514,3771.794871794872,4202.564102564103,4215.8974358974365,4085.6410256410263,4365.128205128206,4061.538461538462,4254.871794871796
414024,32.0,0.0,0.0,4491.794871794872,4172.307692307693,4323.589743589744,4817.435897435898,3777.9487179487182,4201.025641025642,4213.846153846154,4076.9230769230776,4361.538461538462,4055.8974358974365,4255.384615384616
414024,33.0,0.0,0.0,4493.846153846154,4171.282051282052,4316.410256410257,4810.769230769231,3778.9743589743593,4204.615384615385,4220.000000000001,4077.9487179487187,4365.641025641026,4054.358974358975,4253.846153846154
414024,34.0,0.0,0.0,4513.846153846154,4169.74358974359,4308.205128205129,4810.769230769231,3776.9230769230776,4205.641025641026,4224.102564102564,4089.7435897435903,4373.333333333334,4058.9743589743593,4254.358974358975
414024,35.0,0.0,0.0,4520.000000000001,4168.717948717949,4313.846153846154,4812.307692307693,3776.410256410257,4204.102564102564,4223.076923076924,4098.974358974359,4379.48717948718,4065.6410256410263,4254.871794871796
414024,36.0,0.0,0.0,4501.538461538462,4174.871794871796,4327.6923076923085,4814.871794871796,3773.333333333334,4207.6923076923085,4222.051282051282,4104.102564102564,4386.153846153847,4074.358974358975,4253.846153846154
414024,37.0,0.0,0.0,4494.358974358975,4177.435897435898,4331.794871794872,4818.974358974359,3771.794871794872,4210.256410256411,4221.025641025642,4106.153846153847,4388.205128205129,4077.9487179487187,4254.358974358975
414025,38.0,0.0,0.0,4500.000000000001,4170.256410256411,4328.205128205129,4812.820512820514,3774.358974358975,4209.2307692307695,4220.000000000001,4100.000000000001,4382.564102564103,4071.7948717948725,4254.358974358975
414025,39.0,0.0,0.0,4502.051282051282,4173.333333333334,4325.641025641026,4813.333333333334,3776.9230769230776,4212.307692307693,4221.025641025642,4092.307692307693,4376.923076923077,4070.2564102564106,4253.846153846154
414025,40.0,0.0,0.0,4498.461538461539,4177.948717948719,4321.025641025642,4816.923076923077,3769.2307692307695,4216.923076923077,4219.48717948718,4093.333333333334,4382.051282051282,4074.358974358975,4254.358974358975
414025,41.0,0.0,0.0,4501.025641025642,4174.358974358975,4316.410256410257,4816.410256410257,3764.1025641025644,4217.948717948719,4218.461538461539,4102.051282051282,4390.256410256411,4076.9230769230776,4254.871794871796
414025,42.0,0.0,0.0,4514.871794871796,4175.8974358974365,4316.923076923077,4818.974358974359,3769.2307692307695,4218.461538461539,4216.923076923077,4107.179487179487,4390.769230769231,4076.9230769230776,4255.384615384616
414025,43.0,0.0,0.0,4509.2307692307695,4174.871794871796,4316.923076923077,4814.871794871796,3770.2564102564106,4218.974358974359,4214.358974358975,4108.205128205129,4390.256410256411,4076.9230769230776,4253.846153846154
414025,44.0,0.0,0.0,4487.179487179488,4167.179487179487,4311.794871794872,4813.846153846154,3769.2307692307695,4214.871794871796,4213.846153846154,4108.205128205129,4390.769230769231,4075.8974358974365,4255.8974358974365
414025,45.0,0.0,0.0,4492.307692307693,4169.74358974359,4311.282051282052,4816.923076923077,3771.794871794872,4212.307692307693,4216.923076923077,4101.025641025642,4385.641025641026,4075.3846153846157,4255.8974358974365
414025,46.0,0.0,0.0,4504.102564102564,4174.871794871796,4318.461538461539,4814.871794871796,3774.358974358975,4217.435897435898,4218.974358974359,4098.461538461539,4382.564102564103,4077.435897435898,4253.846153846154
414025,47.0,0.0,0.0,4491.282051282052,4168.205128205129,4319.48717948718,4811.794871794872,3773.8461538461543,4219.48717948718,4217.948717948719,4102.564102564103,4383.076923076924,4076.9230769230776,4256.410256410257
414025,48.0,0.0,0.0,4483.589743589744,4160.512820512821,4313.846153846154,4805.128205128206,3772.307692307693,4216.410256410257,4218.461538461539,4104.102564102564,4381.025641025642,4073.8461538461543,4256.923076923077
414025,49.0,0.0,0.0,4485.128205128206,4161.538461538462,4310.769230769231,4806.153846153847,3772.307692307693,4215.384615384616,4219.48717948718,4096.923076923077,4374.871794871796,4066.666666666667,4254.871794871796
414025,50.0,0.0,0.0,4491.282051282052,4165.128205128206,4305.641025641026,4811.282051282052,3770.7692307692314,4214.358974358975,4215.384615384616,4093.333333333334,4373.333333333334,4061.538461538462,4255.384615384616
414025,51.0,0.0,0.0,4508.717948717949,4169.2307692307695,4303.076923076924,4809.743589743591,3769.2307692307695,4212.820512820514,4210.769230769231,4097.435897435898,4376.923076923077,4066.666666666667,4255.384615384616
414026,52.0,0.0,0.0,4499.48717948718,4169.74358974359,4309.2307692307695,4812.307692307693,3773.8461538461543,4209.74358974359,4206.666666666667,4092.307692307693,4378.461538461539,4069.7435897435903,4254.871794871796
414026,53.0,0.0,0.0,4473.846153846154,4163.076923076924,4311.282051282052,4807.179487179488,3777.9487179487182,4209.74358974359,4204.102564102564,4084.1025641025644,4376.923076923077,4065.1282051282055,4257.435897435898
414026,54.0,0.0,0.0,4486.666666666667,4163.589743589744,4306.666666666667,4806.666666666667,3773.8461538461543,4208.717948717949,4206.153846153847,4088.205128205129,4373.846153846154,4066.1538461538466,4257.948717948719
414026,55.0,0.0,0.0,4509.743589743591,4170.256410256411,4305.641025641026,4813.846153846154,3771.794871794872,4206.666666666667,4212.307692307693,4098.461538461539,4377.435897435898,4073.8461538461543,4253.846153846154
414026,56.0,0.0,0.0,4500.512820512821,4165.641025641026,4307.179487179487,4808.205128205129,3775.3846153846157,4208.205128205129,4215.384615384616,4103.076923076924,4385.128205128206,4076.410256410257,4254.871794871796
414026,57.0,0.0,0.0,4484.615384615385,4165.641025641026,4304.102564102564,4807.6923076923085,3779.48717948718,4209.74358974359,4213.333333333334,4098.461538461539,4382.564102564103,4073.333333333334,4257.948717948719
414026,58.0,0.0,0.0,4485.641025641026,4173.333333333334,4300.512820512821,4809.2307692307695,3777.435897435898,4210.256410256411,4211.794871794872,4090.2564102564106,4373.846153846154,4066.666666666667,4254.358974358975
414026,59.0,0.0,0.0,4501.025641025642,4172.307692307693,4298.461538461539,4808.205128205129,3781.0256410256416,4214.871794871796,4212.307692307693,4080.5128205128212,4368.717948717949,4058.461538461539,4253.333333333334
414026,60.0,0.0,0.0,4519.48717948718,4170.256410256411,4299.48717948718,4813.846153846154,3792.820512820513,4214.358974358975,4208.205128205129,4069.23076923077,4364.102564102564,4055.8974358974365,4255.8974358974365
414026,61.0,0.0,0.0,4518.974358974359,4171.282051282052,4304.615384615385,4811.282051282052,3793.333333333334,4208.205128205129,4203.589743589744,4062.564102564103,4358.974358974359,4053.8461538461543,4252.820512820514
414026,62.0,0.0,0.0,4493.333333333334,4171.282051282052,4313.333333333334,4811.794871794872,3785.6410256410263,4208.205128205129,4201.538461538462,4061.0256410256416,4360.000000000001,4051.2820512820517,4252.820512820514
414026,63.0,0.0,0.0,4480.000000000001,4177.435897435898,4321.538461538462,4816.923076923077,3781.538461538462,4215.384615384616,4205.641025641026,4068.205128205129,4370.769230769231,4061.538461538462,4256.410256410257
414026,64.0,0.0,478.0,4502.051282051282,4185.128205128206,4323.589743589744,4819.48717948718,3780.512820512821,4216.923076923077,4213.333333333334,4083.076923076924,4378.974358974359,4076.410256410257,4255.8974358974365
414026,65.0,0.0,305.0,4528.205128205129,4185.641025641026,4316.923076923077,4824.102564102564,3782.0512820512827,4213.846153846154,4217.435897435898,4089.23076923077,4380.000000000001,4080.5128205128212,4255.8974358974365
414026,66.0,0.0,503.0,4522.051282051282,4180.512820512821,4311.282051282052,4820.000000000001,3781.0256410256416,4217.948717948719,4219.48717948718,4095.3846153846157,4388.205128205129,4085.6410256410263,4256.923076923077
414026,67.0,0.0,440.0,4498.974358974359,4178.974358974359,4307.6923076923085,4815.384615384616,3778.9743589743593,4220.512820512821,4222.051282051282,4112.307692307693,4398.461538461539,4095.3846153846157,4256.410256410257
414027,68.0,0.0,110.0,4487.179487179488,4175.8974358974365,4309.2307692307695,4813.333333333334,3777.435897435898,4209.74358974359,4222.564102564103,4115.384615384616,4394.871794871796,4091.2820512820517,4255.8974358974365
414027,69.0,0.0,552.0,4491.282051282052,4170.256410256411,4313.333333333334,4809.2307692307695,3774.358974358975,4202.564102564103,4217.948717948719,4095.3846153846157,4382.564102564103,4075.8974358974365,4255.8974358974365
414027,70.0,0.0,536.0,4506.153846153847,4170.769230769231,4309.743589743591,4811.794871794872,3773.333333333334,4204.615384615385,4210.769230769231,4080.0000000000005,4369.743589743591,4063.076923076924,4255.8974358974365
414027,71.0,0.0,468.0,4503.076923076924,4168.717948717949,4304.615384615385,4808.717948717949,3772.820512820513,4202.051282051282,4208.717948717949,4076.410256410257,4361.025641025642,4054.8717948717954,4253.333333333334
414027,72.0,0.0,390.0,4476.923076923077,4165.128205128206,4306.153846153847,4806.666666666667,3774.358974358975,4200.512820512821,4211.282051282052,4073.333333333334,4364.615384615385,4052.820512820513,4253.846153846154
414027,73.0,0.0,466.0,4472.307692307693,4168.717948717949,4306.666666666667,4809.743589743591,3773.8461538461543,4204.615384615385,4212.820512820514,4074.8717948717954,4369.743589743591,4055.8974358974365,4256.923076923077
414027,74.0,0.0,495.0,4500.512820512821,4172.820512820514,4309.743589743591,4810.256410256411,3768.205128205129,4207.6923076923085,4214.871794871796,4082.564102564103,4367.179487179487,4059.48717948718,4255.8974358974365
414027,75.0,0.0,375.0,4512.307692307693,4175.384615384616,4322.564102564103,4816.410256410257,3773.333333333334,4209.74358974359,4222.564102564103,4092.820512820513,4372.307692307693,4063.589743589744,4255.8974358974365
414027,76.0,0.0,0.0,4496.410256410257,4180.000000000001,4332.307692307693,4816.923076923077,3783.589743589744,4209.74358974359,4230.256410256411,4104.615384615385,4384.615384615385,4070.7692307692314,4255.384615384616
414027,77.0,0.0,321.0,4502.564102564103,4184.615384615385,4327.6923076923085,4817.435897435898,3785.1282051282055,4204.615384615385,4228.205128205129,4105.641025641026,4382.564102564103,4073.8461538461543,4255.384615384616
414027,78.0,0.0,495.0,4525.128205128206,4183.589743589744,4321.538461538462,4825.128205128206,3783.076923076924,4205.641025641026,4220.512820512821,4093.8461538461543,4373.333333333334,4070.7692307692314,4255.8974358974365
414027,79.0,0.0,375.0,4524.615384615385,4180.000000000001,4321.025641025642,4821.025641025642,3782.0512820512827,4214.871794871796,4217.948717948719,4087.1794871794878,4374.871794871796,4067.692307692308,4253.333333333334
414027,80.0,0.0,0.0,4515.8974358974365,4177.948717948719,4313.846153846154,4813.333333333334,3781.538461538462,4210.256410256411,4216.923076923077,4084.1025641025644,4373.846153846154,4062.564102564103,4253.333333333334
414027,81.0,0.0,321.0,4502.564102564103,4171.282051282052,4298.974358974359,4804.615384615386,3780.0000000000005,4194.871794871796,4209.2307692307695,4073.8461538461543,4360.000000000001,4052.307692307693,4251.282051282052
414027,82.0,0.0,495.0,4484.615384615385,4166.666666666667,4297.435897435898,4806.666666666667,3777.9487179487182,4195.384615384616,4204.615384615385,4064.615384615385,4355.8974358974365,4046.1538461538466,4247.6923076923085
414028,83.0,0.0,375.0,4494.358974358975,4172.307692307693,4310.256410256411,4815.8974358974365,3777.9487179487182,4205.641025641026,4211.282051282052,4065.1282051282055,4363.589743589744,4052.307692307693,4251.794871794872
414028,84.0,0.0,0.0,4511.794871794872,4173.333333333334,4319.48717948718,4808.205128205129,3778.9743589743593,4206.153846153847,4216.923076923077,4069.23076923077,4365.128205128206,4058.461538461539,4255.384615384616
414050,85.0,0.0,321.0,4500.512820512821,4172.307692307693,4318.974358974359,4808.717948717949,3781.0256410256416,4203.076923076924,4215.384615384616,4071.7948717948725,4365.128205128206,4056.410256410257,4254.871794871796
414050,86.0,0.0,495.0,4498.461538461539,4176.923076923077,4316.410256410257,4814.871794871796,3783.589743589744,4207.6923076923085,4215.8974358974365,4076.9230769230776,4371.794871794872,4059.48717948718,4253.333333333334
414050,87.0,0.0,375.0,4509.743589743591,4178.461538461539,4315.8974358974365,4812.820512820514,3784.1025641025644,4211.282051282052,4221.025641025642,4084.1025641025644,4374.871794871796,4065.6410256410263,4254.358974358975
414050,88.0,0.0,0.0,4491.794871794872,4170.769230769231,4311.794871794872,4810.769230769231,3785.6410256410263,4207.6923076923085,4219.48717948718,4085.6410256410263,4370.256410256411,4061.538461538462,4255.384615384616
414527,89.0,0.0,321.0,4481.538461538462,4162.564102564103,4313.333333333334,4804.615384615386,3784.615384615385,4204.102564102564,4214.871794871796,4086.1538461538466,4371.282051282052,4058.461538461539,4255.8974358974365
414527,90.0,0.0,495.0,4515.8974358974365,4166.666666666667,4321.538461538462,4807.6923076923085,3785.6410256410263,4205.641025641026,4217.948717948719,4090.2564102564106,4376.923076923077,4065.6410256410263,4256.923076923077
414527,91.0,0.0,375.0,4522.564102564103,4169.2307692307695,4320.000000000001,4811.794871794872,3783.589743589744,4205.641025641026,4218.974358974359,4090.2564102564106,4376.923076923077,4064.1025641025644,4253.333333333334
414527,92.0,0.0,0.0,4477.948717948719,4162.564102564103,4314.871794871796,4804.615384615386,3776.9230769230776,4206.153846153847,4216.410256410257,4086.666666666667,4374.358974358975,4055.3846153846157,4251.282051282052
414527,93.0,0.0,321.0,4462.051282051282,4160.512820512821,4316.410256410257,4803.076923076924,3777.435897435898,4210.769230769231,4216.923076923077,4084.1025641025644,4371.282051282052,4055.3846153846157,4253.846153846154
414527,94.0,0.0,495.0,4487.179487179488,4161.025641025642,4311.282051282052,4800.512820512821,3779.48717948718,4213.333333333334,4216.923076923077,4081.538461538462,4367.179487179487,4056.410256410257,4251.794871794872
414527,95.0,0.0,375.0,4499.48717948718,4163.076923076924,4303.589743589744,4803.076923076924,3777.435897435898,4209.2307692307695,4209.74358974359,4074.8717948717954,4363.589743589744,4049.23076923077,4251.282051282052
414528,96.0,0.0,0.0,4488.717948717949,4164.102564102564,4304.615384615385,4806.153846153847,3777.9487179487182,4206.153846153847,4200.512820512821,4065.1282051282055,4358.974358974359,4044.1025641025644,4251.794871794872
414528,97.0,0.0,321.0,4465.641025641026,4158.461538461539,4307.179487179487,4795.8974358974365,3778.461538461539,4205.641025641026,4197.435897435898,4054.358974358975,4352.307692307693,4042.564102564103,4249.74358974359
414528,98.0,0.0,495.0,4455.384615384616,4154.358974358975,4304.615384615385,4795.384615384616,3777.435897435898,4198.461538461539,4193.333333333334,4047.692307692308,4349.2307692307695,4035.8974358974365,4250.256410256411
414528,99.0,0.0,375.0,4473.846153846154,4154.871794871796,4296.410256410257,4797.435897435898,3775.3846153846157,4191.282051282052,4189.74358974359,4047.692307692308,4350.256410256411,4029.23076923077,4251.282051282052
414528,100.0,0.0,0.0,4488.205128205129,4152.307692307693,4288.205128205129,4793.846153846154,3773.333333333334,4191.282051282052,4191.282051282052,4048.717948717949,4349.2307692307695,4027.692307692308,4250.769230769231
414528,101.0,0.0,321.0,4474.871794871796,4148.717948717949,4288.205128205129,4795.384615384616,3773.333333333334,4190.256410256411,4191.282051282052,4048.717948717949,4346.153846153847,4024.1025641025644,4252.307692307693
414528,102.0,0.0,495.0,4458.461538461539,4148.205128205129,4290.769230769231,4791.282051282052,3773.8461538461543,4188.205128205129,4188.205128205129,4052.307692307693,4348.717948717949,4020.5128205128212,4250.769230769231
414528,103.0,0.0,375.0,4457.435897435898,4150.256410256411,4286.666666666667,4789.743589743591,3775.3846153846157,4185.641025641026,4188.205128205129,4049.23076923077,4349.2307692307695,4021.538461538462,4248.205128205129
414528,104.0,0.0,0.0,4464.102564102564,4150.256410256411,4284.102564102564,4790.769230769231,3776.9230769230776,4180.000000000001,4190.256410256411,4038.9743589743593,4344.615384615385,4024.1025641025644,4250.256410256411
414529,105.0,0.0,321.0,4468.205128205129,4151.794871794872,4290.769230769231,4792.307692307693,3778.9743589743593,4178.974358974359,4190.256410256411,4041.0256410256416,4346.153846153847,4026.1538461538466,4253.846153846154
414530,106.0,0.0,495.0,4473.846153846154,4156.923076923077,4302.051282051282,4799.48717948718,3780.512820512821,4183.076923076924,4193.333333333334,4055.3846153846157,4355.384615384616,4033.8461538461543,4254.358974358975
414530,107.0,0.0,375.0,4484.102564102564,4153.846153846154,4307.179487179487,4795.384615384616,3778.9743589743593,4186.153846153847,4196.923076923077,4060.5128205128212,4360.512820512821,4041.0256410256416,4252.307692307693
414530,108.0,0.0,0.0,4475.8974358974365,4149.2307692307695,4300.512820512821,4790.256410256411,3776.410256410257,4182.051282051282,4192.307692307693,4049.23076923077,4351.282051282052,4032.307692307693,4252.820512820514
414530,109.0,0.0,321.0,4461.538461538462,4151.794871794872,4296.923076923077,4790.256410256411,3772.307692307693,4178.461538461539,4190.769230769231,4038.9743589743593,4342.564102564103,4023.589743589744,4253.846153846154
414530,110.0,0.0,495.0,4480.000000000001,4155.8974358974365,4300.512820512821,4793.333333333334,3770.7692307692314,4183.076923076924,4194.358974358975,4045.6410256410263,4349.743589743591,4031.2820512820517,4252.820512820514
414531,111.0,0.0,375.0,4495.384615384616,4157.435897435898,4299.48717948718,4800.512820512821,3773.333333333334,4189.74358974359,4195.384615384616,4056.9230769230776,4356.410256410257,4039.48717948718,4250.769230769231
414531,112.0,0.0,0.0,4481.025641025642,4154.358974358975,4300.512820512821,4794.871794871796,3770.7692307692314,4196.410256410257,4201.538461538462,4063.589743589744,4358.461538461539,4043.076923076924,4250.256410256411
414531,113.0,0.0,321.0,4480.000000000001,4154.358974358975,4306.666666666667,4795.384615384616,3770.2564102564106,4202.564102564103,4212.820512820514,4071.2820512820517,4367.179487179487,4048.717948717949,4253.333333333334
414531,114.0,0.0,495.0,4486.666666666667,4160.000000000001,4310.769230769231,4802.564102564103,3777.435897435898,4204.615384615385,4213.846153846154,4079.48717948718,4375.8974358974365,4056.410256410257,4253.846153846154
414531,115.0,0.0,375.0,4485.641025641026,4160.512820512821,4305.128205128206,4799.48717948718,3777.9487179487182,4202.564102564103,4206.153846153847,4079.48717948718,4372.307692307693,4059.48717948718,4251.794871794872
414532,116.0,0.0,0.0,4492.307692307693,4153.333333333334,4294.358974358975,4796.923076923077,3774.358974358975,4200.000000000001,4199.48717948718,4069.7435897435903,4362.051282051282,4051.2820512820517,4253.333333333334
414532,117.0,0.0,321.0,4484.102564102564,4147.6923076923085,4294.358974358975,4793.846153846154,3773.333333333334,4198.461538461539,4197.948717948719,4064.615384615385,4359.48717948718,4045.6410256410263,4255.8974358974365
414532,118.0,0.0,495.0,4463.076923076924,4150.769230769231,4302.051282051282,4795.384615384616,3772.820512820513,4198.974358974359,4200.000000000001,4067.692307692308,4362.051282051282,4049.7435897435903,4254.358974358975
414532,119.0,0.0,375.0,4469.2307692307695,4154.358974358975,4300.000000000001,4800.512820512821,3770.2564102564106,4199.48717948718,4202.564102564103,4066.666666666667,4362.051282051282,4045.6410256410263,4252.307692307693
