timestamp,cnt,inerpolated,raw_cq,af3,f7,f3,fc5,t7,p7,o1,o2,p8,t8,fc6,f4,f8,af4,gyrox,gyroy,epoc_timestamp,epoc_es_timestamp,func_id,func_value,marker,sync_signal
1729156,89.0,0.0,327.0,4457.435897435898,4175.8974358974365,4311.282051282052,4813.333333333334,3761.0256410256416,4222.564102564103,4259.48717948718,4172.307692307693,4385.128205128206,4057.435897435898,4266.666666666667,4341.025641025642,4372.307692307693,4351.282051282052,1683.0,1689.0,1730.788,1617.1241455078125,0.0,0.0,0.0,0.0
1729156,90.0,0.0,493.0,4467.179487179487,4180.000000000001,4315.8974358974365,4810.769230769231,3762.0512820512827,4224.615384615385,4261.025641025642,4177.435897435898,4388.205128205129,4066.1538461538466,4260.512820512821,4343.076923076924,4377.435897435898,4353.333333333334,1682.0,1688.0,1730.797,1617.1241455078125,0.0,0.0,0.0,0.0
1729156,91.0,0.0,490.0,4471.794871794872,4182.564102564103,4316.923076923077,4811.282051282052,3763.589743589744,4223.076923076924,4260.512820512821,4175.8974358974365,4388.717948717949,4069.23076923077,4261.538461538462,4345.128205128206,4380.000000000001,4351.794871794872,1681.0,1688.0,1730.803,1617.1241455078125,0.0,0.0,0.0,0.0
1729156,92.0,0.0,0.0,4464.102564102564,4181.538461538462,4317.948717948719,4805.641025641026,3766.1538461538466,4226.153846153847,4261.538461538462,4178.974358974359,4397.435897435898,4069.7435897435903,4262.051282051282,4345.128205128206,4379.48717948718,4356.410256410257,1681.0,1688.0,1730.812,1617.1241455078125,0.0,0.0,0.0,0.0
1729156,93.0,0.0,327.0,4459.48717948718,4182.564102564103,4321.538461538462,4812.820512820514,3769.7435897435903,4229.2307692307695,4262.564102564103,4182.051282051282,4401.538461538462,4075.8974358974365,4262.564102564103,4344.615384615385,4382.564102564103,4361.025641025642,1681.0,1689.0,1730.82,1617.1241455078125,0.0,0.0,0.0,0.0
1729157,94.0,0.0,493.0,4463.076923076924,4182.564102564103,4324.615384615385,4815.384615384616,3774.358974358975,4232.820512820514,4263.589743589744,4180.512820512821,4396.923076923077,4078.461538461539,4264.102564102564,4342.564102564103,4384.102564102564,4356.923076923077,1682.0,1689.0,1730.828,1617.1241455078125,0.0,0.0,0.0,0.0
1729157,95.0,0.0,490.0,4462.564102564103,4179.48717948718,4322.051282051282,4807.179487179488,3774.358974358975,4234.358974358975,4264.615384615385,4184.102564102564,4400.000000000001,4075.8974358974365,4262.051282051282,4342.051282051282,4379.48717948718,4355.384615384616,1681.0,1689.0,1730.835,1617.1241455078125,0.0,0.0,0.0,0.0
1729157,96.0,0.0,0.0,4459.48717948718,4176.410256410257,4315.384615384616,4811.794871794872,3770.7692307692314,4230.769230769231,4266.153846153847,4189.74358974359,4404.615384615385,4073.8461538461543,4260.000000000001,4343.076923076924,4375.384615384616,4357.435897435898,1682.0,1689.0,1730.842,1617.1241455078125,0.0,0.0,0.0,0.0
1729157,97.0,0.0,327.0,4458.461538461539,4174.871794871796,4311.282051282052,4811.794871794872,3765.6410256410263,4228.717948717949,4266.666666666667,4179.48717948718,4397.948717948719,4073.333333333334,4260.512820512821,4340.000000000001,4374.871794871796,4354.358974358975,1682.0,1689.0,1730.85,1617.1241455078125,0.0,0.0,0.0,0.0
1729157,98.0,0.0,493.0,4455.8974358974365,4171.282051282052,4309.743589743591,4815.384615384616,3760.512820512821,4224.615384615385,4260.000000000001,4167.6923076923085,4391.794871794872,4069.7435897435903,4266.153846153847,4338.974358974359,4374.358974358975,4353.333333333334,1682.0,1688.0,1730.858,1617.1241455078125,0.0,0.0,0.0,0.0
1729157,99.0,0.0,490.0,4457.435897435898,4172.307692307693,4312.820512820514,4815.8974358974365,3762.0512820512827,4221.025641025642,4259.48717948718,4176.923076923077,4402.564102564103,4070.2564102564106,4266.666666666667,4343.076923076924,4378.461538461539,4362.564102564103,1683.0,1689.0,1730.866,1617.1241455078125,0.0,0.0,0.0,0.0
1729157,100.0,0.0,0.0,4468.205128205129,4181.025641025642,4320.000000000001,4809.743589743591,3769.2307692307695,4228.205128205129,4270.769230769231,4191.794871794872,4413.333333333334,4078.461538461539,4262.051282051282,4346.666666666667,4387.6923076923085,4369.743589743591,1683.0,1689.0,1730.874,1617.1241455078125,0.0,0.0,0.0,0.0
1729158,101.0,0.0,327.0,4477.435897435898,4185.641025641026,4326.666666666667,4813.846153846154,3776.410256410257,4234.358974358975,4272.307692307693,4194.871794871796,4408.717948717949,4083.076923076924,4264.615384615385,4348.205128205129,4390.769230769231,4367.179487179487,1681.0,1690.0,1730.882,1617.1241455078125,0.0,0.0,0.0,0.0
1729158,102.0,0.0,493.0,4478.461538461539,4184.102564102564,4329.2307692307695,4811.282051282052,3777.9487179487182,4232.307692307693,4267.179487179487,4192.820512820514,4402.051282051282,4082.564102564103,4265.128205128206,4344.615384615385,4390.256410256411,4366.666666666667,1681.0,1689.0,1730.889,1617.1241455078125,0.0,0.0,0.0,0.0
1729158,103.0,0.0,490.0,4473.846153846154,4178.461538461539,4329.743589743591,4812.307692307693,3776.410256410257,4233.333333333334,4269.74358974359,4193.333333333334,4402.564102564103,4083.589743589744,4262.564102564103,4342.564102564103,4388.717948717949,4370.769230769231,1681.0,1689.0,1730.898,1617.1241455078125,0.0,0.0,0.0,0.0
1729158,104.0,0.0,0.0,4472.307692307693,4175.384615384616,4327.6923076923085,4815.8974358974365,3775.8974358974365,4234.871794871796,4272.307692307693,4196.410256410257,4405.641025641026,4084.615384615385,4262.564102564103,4345.641025641026,4386.666666666667,4371.282051282052,1680.0,1687.0,1730.905,1617.1241455078125,0.0,0.0,0.0,0.0
1729277,105.0,0.0,327.0,4481.025641025642,4181.025641025642,4328.205128205129,4810.256410256411,3775.8974358974365,4228.717948717949,4267.6923076923085,4198.974358974359,4411.794871794872,4088.717948717949,4263.589743589744,4349.2307692307695,4394.358974358975,4376.410256410257,1680.0,1687.0,1730.913,1617.2491455078125,0.0,0.0,0.0,0.0
1729277,106.0,0.0,493.0,4484.102564102564,4183.589743589744,4330.769230769231,4812.307692307693,3773.333333333334,4221.538461538462,4262.564102564103,4192.820512820514,4411.282051282052,4092.307692307693,4264.102564102564,4349.743589743591,4402.051282051282,4384.102564102564,1680.0,1686.0,1730.921,1617.2491455078125,0.0,0.0,0.0,0.0
1729278,107.0,0.0,490.0,4477.435897435898,4175.8974358974365,4325.641025641026,4810.769230769231,3771.794871794872,4223.589743589744,4265.641025641026,4189.74358974359,4403.076923076924,4087.1794871794878,4263.589743589744,4346.153846153847,4396.923076923077,4381.025641025642,1677.0,1687.0,1730.93,1617.2491455078125,0.0,0.0,0.0,0.0
1729278,108.0,0.0,0.0,4480.512820512821,4175.8974358974365,4325.641025641026,4812.307692307693,3773.333333333334,4225.641025641026,4268.717948717949,4191.282051282052,4400.512820512821,4081.0256410256416,4264.615384615385,4349.2307692307695,4392.820512820514,4379.48717948718,1678.0,1688.0,1730.936,1617.2491455078125,0.0,0.0,0.0,0.0
1729278,109.0,0.0,327.0,4492.307692307693,4184.615384615385,4338.461538461539,4814.358974358975,3777.9487179487182,4225.641025641026,4268.205128205129,4190.256410256411,4404.102564102564,4085.1282051282055,4264.615384615385,4354.871794871796,4400.000000000001,4387.179487179487,1676.0,1687.0,1730.945,1617.2491455078125,0.0,0.0,0.0,0.0
1729278,110.0,0.0,493.0,4492.307692307693,4185.128205128206,4342.564102564103,4807.179487179488,3783.076923076924,4233.333333333334,4273.846153846154,4190.769230769231,4404.102564102564,4085.1282051282055,4264.102564102564,4351.282051282052,4403.589743589744,4386.153846153847,1675.0,1688.0,1730.952,1617.2491455078125,0.0,0.0,0.0,0.0
1729279,111.0,0.0,490.0,4487.6923076923085,4180.000000000001,4336.410256410257,4812.307692307693,3786.666666666667,4238.461538461539,4278.461538461539,4191.794871794872,4396.923076923077,4074.358974358975,4266.153846153847,4349.2307692307695,4397.948717948719,4381.538461538462,1676.0,1687.0,1730.96,1617.2491455078125,0.0,0.0,0.0,0.0
1729279,112.0,0.0,0.0,4492.820512820514,4182.564102564103,4341.025641025642,4814.358974358975,3787.1794871794878,4235.384615384616,4277.948717948719,4198.461538461539,4396.410256410257,4077.435897435898,4265.128205128206,4353.333333333334,4402.564102564103,4392.307692307693,1674.0,1687.0,1730.968,1617.2491455078125,0.0,0.0,0.0,0.0
1729279,113.0,0.0,327.0,4497.948717948719,4183.589743589744,4346.666666666667,4811.282051282052,3784.615384615385,4231.282051282052,4278.974358974359,4208.205128205129,4407.6923076923085,4090.2564102564106,4263.076923076924,4356.923076923077,4411.794871794872,4400.512820512821,1675.0,1687.0,1730.975,1617.2491455078125,0.0,0.0,0.0,0.0
1729279,114.0,0.0,493.0,4494.358974358975,4178.461538461539,4342.051282051282,4813.846153846154,3781.0256410256416,4228.205128205129,4277.948717948719,4200.000000000001,4407.179487179487,4084.615384615385,4263.076923076924,4354.358974358975,4408.717948717949,4393.333333333334,1675.0,1687.0,1730.983,1617.2491455078125,0.0,0.0,0.0,0.0
1729279,115.0,0.0,490.0,4490.256410256411,4175.384615384616,4340.000000000001,4809.743589743591,3776.9230769230776,4225.641025641026,4272.820512820514,4187.6923076923085,4398.461538461539,4073.8461538461543,4264.102564102564,4349.2307692307695,4402.564102564103,4385.641025641026,1676.0,1688.0,1730.991,1617.2491455078125,0.0,0.0,0.0,0.0
1729279,116.0,0.0,0.0,4486.666666666667,4173.846153846154,4338.461538461539,4813.846153846154,3771.794871794872,4221.025641025642,4265.641025641026,4197.435897435898,4396.923076923077,4075.8974358974365,4267.6923076923085,4348.205128205129,4401.025641025642,4383.076923076924,1676.0,1689.0,1730.999,1617.2491455078125,0.0,0.0,0.0,0.0
1729280,117.0,0.0,327.0,4483.076923076924,4175.8974358974365,4334.871794871796,4815.384615384616,3767.1794871794878,4218.974358974359,4263.076923076924,4210.256410256411,4397.435897435898,4082.0512820512827,4265.641025641026,4350.256410256411,4402.564102564103,4387.179487179487,1678.0,1688.0,1731.008,1617.2491455078125,0.0,0.0,0.0,0.0
1729280,118.0,0.0,493.0,4484.615384615385,4178.461538461539,4337.435897435898,4811.794871794872,3766.666666666667,4218.974358974359,4266.153846153847,4213.333333333334,4402.051282051282,4084.615384615385,4261.538461538462,4352.307692307693,4403.076923076924,4389.743589743591,1676.0,1688.0,1731.015,1617.2491455078125,0.0,0.0,0.0,0.0
1729280,119.0,0.0,490.0,4490.769230769231,4176.410256410257,4337.435897435898,4814.871794871796,3770.7692307692314,4221.538461538462,4272.307692307693,4216.410256410257,4413.333333333334,4086.1538461538466,4262.051282051282,4350.769230769231,4398.974358974359,4383.589743589744,1677.0,1687.0,1731.021,1617.2491455078125,0.0,0.0,0.0,0.0
1729280,120.0,0.0,0.0,4489.2307692307695,4175.384615384616,4330.769230769231,4810.256410256411,3772.307692307693,4226.666666666667,4271.794871794872,4208.717948717949,4407.179487179487,4082.564102564103,4261.538461538462,4344.615384615385,4395.8974358974365,4377.435897435898,1676.0,1686.0,1731.031,1617.2491455078125,0.0,0.0,0.0,0.0
1729312,121.0,0.0,327.0,4482.051282051282,4180.000000000001,4329.2307692307695,4811.794871794872,3770.7692307692314,4226.666666666667,4263.589743589744,4193.333333333334,4394.358974358975,4082.0512820512827,4265.641025641026,4343.589743589744,4397.948717948719,4382.051282051282,1676.0,1687.0,1731.038,1617.374267578125,0.0,0.0,0.0,0.0
1729312,122.0,0.0,493.0,4486.666666666667,4188.717948717949,4336.923076923077,4813.333333333334,3769.7435897435903,4220.512820512821,4262.564102564103,4198.974358974359,4409.2307692307695,4093.333333333334,4264.615384615385,4348.717948717949,4407.6923076923085,4391.282051282052,1676.0,1686.0,1731.047,1617.374267578125,0.0,0.0,0.0,0.0
1729312,123.0,0.0,490.0,4499.48717948718,4194.358974358975,4345.128205128206,4807.6923076923085,3769.7435897435903,4216.923076923077,4265.641025641026,4211.282051282052,4418.461538461539,4098.461538461539,4259.48717948718,4351.282051282052,4412.820512820514,4395.384615384616,1674.0,1688.0,1731.055,1617.374267578125,0.0,0.0,0.0,0.0
1729312,124.0,0.0,0.0,4501.025641025642,4191.282051282052,4344.102564102564,4809.2307692307695,3772.307692307693,4218.461538461539,4264.615384615385,4205.641025641026,4398.974358974359,4091.2820512820517,4265.128205128206,4350.256410256411,4407.6923076923085,4392.307692307693,1674.0,1687.0,1731.062,1617.374267578125,0.0,0.0,0.0,0.0
1729406,125.0,0.0,327.0,4497.435897435898,4187.179487179487,4338.974358974359,4808.205128205129,3775.3846153846157,4223.076923076924,4267.6923076923085,4198.974358974359,4397.435897435898,4090.7692307692314,4266.153846153847,4349.2307692307695,4406.153846153847,4388.205128205129,1672.0,1689.0,1731.07,1617.4056396484375,0.0,0.0,0.0,0.0
1729406,126.0,0.0,493.0,4497.948717948719,4187.179487179487,4338.974358974359,4813.333333333334,3776.9230769230776,4228.205128205129,4272.820512820514,4203.589743589744,4412.820512820514,4094.358974358975,4264.102564102564,4349.2307692307695,4409.2307692307695,4389.2307692307695,1670.0,1690.0,1731.078,1617.4056396484375,0.0,0.0,0.0,0.0
1729406,127.0,0.0,490.0,4497.948717948719,4187.179487179487,4341.538461538462,4816.410256410257,3776.9230769230776,4233.846153846154,4270.769230769231,4207.179487179487,4411.282051282052,4089.7435897435903,4265.641025641026,4347.6923076923085,4406.153846153847,4390.256410256411,1669.0,1690.0,1731.085,1617.4056396484375,0.0,0.0,0.0,0.0
1729406,128.0,0.0,0.0,4497.435897435898,4186.666666666667,4338.974358974359,4809.743589743591,3777.9487179487182,4239.48717948718,4268.717948717949,4202.564102564103,4403.589743589744,4086.666666666667,4263.076923076924,4344.615384615385,4402.564102564103,4387.6923076923085,1668.0,1689.0,1731.093,1617.4056396484375,0.0,0.0,0.0,0.0
1729406,0.0,0.0,513.0,4503.589743589744,4188.717948717949,4338.461538461539,4812.820512820514,3778.9743589743593,4243.589743589744,4272.820512820514,4196.410256410257,4405.641025641026,4089.23076923077,4262.564102564103,4347.6923076923085,4405.641025641026,4388.205128205129,1666.0,1690.0,1731.1,1617.4056396484375,0.0,0.0,0.0,0.0
1729406,1.0,0.0,0.0,4504.102564102564,4187.6923076923085,4340.512820512821,4813.333333333334,3777.9487179487182,4247.6923076923085,4277.948717948719,4196.923076923077,4410.256410256411,4091.7948717948725,4264.615384615385,4348.205128205129,4409.2307692307695,4389.743589743591,1666.0,1690.0,1731.108,1617.4056396484375,0.0,0.0,0.0,0.0
1729407,2.0,0.0,511.0,4492.820512820514,4181.538461538462,4333.846153846154,4812.820512820514,3777.435897435898,4249.74358974359,4278.974358974359,4197.948717948719,4408.205128205129,4089.7435897435903,4265.128205128206,4342.564102564103,4405.128205128206,4385.128205128206,1666.0,1689.0,1731.116,1617.4056396484375,0.0,0.0,0.0,0.0
1729407,3.0,0.0,531.0,4491.282051282052,4182.051282051282,4330.769230769231,4811.282051282052,3777.9487179487182,4245.128205128206,4277.435897435898,4197.435897435898,4407.6923076923085,4086.666666666667,4263.589743589744,4345.128205128206,4401.025641025642,4384.102564102564,1667.0,1690.0,1731.124,1617.4056396484375,0.0,0.0,0.0,0.0
1729407,4.0,0.0,504.0,4503.589743589744,4191.794871794872,4343.589743589744,4805.641025641026,3780.512820512821,4241.025641025642,4279.48717948718,4202.051282051282,4413.846153846154,4092.307692307693,4262.564102564103,4351.282051282052,4407.6923076923085,4392.307692307693,1669.0,1688.0,1731.132,1617.4056396484375,0.0,0.0,0.0,0.0
1729407,5.0,0.0,552.0,4505.128205128206,4191.282051282052,4347.179487179487,4815.8974358974365,3783.589743589744,4241.538461538462,4280.512820512821,4205.128205128206,4408.205128205129,4094.8717948717954,4266.153846153847,4350.256410256411,4409.2307692307695,4394.871794871796,1668.0,1688.0,1731.14,1617.4056396484375,0.0,0.0,0.0,0.0
1729407,6.0,0.0,546.0,4496.923076923077,4182.564102564103,4340.000000000001,4817.948717948719,3780.512820512821,4241.538461538462,4280.000000000001,4200.512820512821,4400.000000000001,4090.2564102564106,4266.153846153847,4342.564102564103,4402.051282051282,4388.717948717949,1671.0,1688.0,1731.147,1617.4056396484375,0.0,0.0,0.0,0.0
1729407,7.0,0.0,370.0,4496.410256410257,4183.076923076924,4337.435897435898,4811.794871794872,3777.435897435898,4235.384615384616,4277.948717948719,4193.333333333334,4400.512820512821,4084.615384615385,4263.076923076924,4341.538461538462,4398.974358974359,4385.128205128206,1671.0,1689.0,1731.155,1617.4056396484375,0.0,0.0,0.0,0.0
1729523,8.0,0.0,461.0,4502.051282051282,4187.6923076923085,4334.358974358975,4813.333333333334,3778.461538461539,4231.794871794872,4272.820512820514,4188.205128205129,4395.8974358974365,4079.48717948718,4264.102564102564,4346.153846153847,4401.025641025642,4383.076923076924,1675.0,1690.0,1731.164,1617.4993896484375,0.0,0.0,0.0,0.0
1729523,9.0,0.0,478.0,4501.025641025642,4190.256410256411,4332.820512820514,4811.282051282052,3782.0512820512827,4236.410256410257,4270.769230769231,4185.641025641026,4389.743589743591,4076.410256410257,4266.153846153847,4345.641025641026,4400.000000000001,4382.051282051282,1675.0,1690.0,1731.171,1617.4993896484375,0.0,0.0,0.0,0.0
1729523,10.0,0.0,493.0,4492.820512820514,4185.641025641026,4334.871794871796,4815.384615384616,3784.1025641025644,4241.538461538462,4273.846153846154,4182.051282051282,4387.6923076923085,4070.7692307692314,4264.102564102564,4343.076923076924,4389.743589743591,4380.000000000001,1677.0,1691.0,1731.18,1617.4993896484375,0.0,0.0,0.0,0.0
1729523,11.0,0.0,490.0,4491.282051282052,4180.512820512821,4332.820512820514,4815.384615384616,3782.564102564103,4241.025641025642,4272.307692307693,4173.846153846154,4387.179487179487,4065.6410256410263,4262.564102564103,4341.538461538462,4383.589743589744,4375.384615384616,1678.0,1690.0,1731.187,1617.4993896484375,0.0,0.0,0.0,0.0
1729524,12.0,0.0,0.0,4500.512820512821,4183.589743589744,4330.256410256411,4808.717948717949,3781.0256410256416,4241.538461538462,4267.6923076923085,4174.871794871796,4397.948717948719,4074.358974358975,4265.641025641026,4342.051282051282,4393.333333333334,4376.410256410257,1680.0,1690.0,1731.194,1617.4993896484375,0.0,0.0,0.0,0.0
1729524,13.0,0.0,327.0,4508.717948717949,4189.74358974359,4335.8974358974365,4810.769230769231,3785.1282051282055,4248.717948717949,4270.256410256411,4187.179487179487,4414.871794871796,4090.2564102564106,4264.102564102564,4345.128205128206,4405.128205128206,4383.589743589744,1682.0,1688.0,1731.202,1617.4993896484375,0.0,0.0,0.0,0.0
1729524,14.0,0.0,493.0,4509.743589743591,4190.769230769231,4341.538461538462,4809.743589743591,3789.7435897435903,4252.820512820514,4277.948717948719,4192.307692307693,4417.948717948719,4093.8461538461543,4260.512820512821,4345.641025641026,4406.153846153847,4383.589743589744,1683.0,1689.0,1731.21,1617.4993896484375,0.0,0.0,0.0,0.0
1729524,15.0,0.0,490.0,4509.743589743591,4188.205128205129,4338.974358974359,4815.384615384616,3787.1794871794878,4246.666666666667,4277.948717948719,4187.179487179487,4413.846153846154,4088.205128205129,4265.641025641026,4346.153846153847,4400.512820512821,4383.076923076924,1686.0,1686.0,1731.218,1617.4993896484375,0.0,0.0,0.0,0.0
1729524,16.0,0.0,0.0,4511.794871794872,4186.666666666667,4337.435897435898,4813.846153846154,3783.589743589744,4240.000000000001,4274.358974358975,4181.538461538462,4411.282051282052,4086.666666666667,4267.6923076923085,4346.666666666667,4400.000000000001,4390.256410256411,1686.0,1688.0,1731.226,1617.4993896484375,0.0,0.0,0.0,0.0
1729524,17.0,0.0,0.0,4510.256410256411,4182.564102564103,4340.000000000001,4805.641025641026,3784.1025641025644,4235.8974358974365,4273.333333333334,4182.051282051282,4411.794871794872,4087.1794871794878,4264.615384615385,4345.641025641026,4401.538461538462,4392.820512820514,1691.0,1686.0,1731.234,1617.4993896484375,0.0,0.0,0.0,0.0
1729524,18.0,0.0,0.0,4505.641025641026,4175.8974358974365,4335.8974358974365,4810.256410256411,3786.666666666667,4228.205128205129,4270.769230769231,4182.051282051282,4412.307692307693,4083.076923076924,4265.641025641026,4344.615384615385,4398.974358974359,4385.128205128206,1694.0,1685.0,1731.241,1617.4993896484375,0.0,0.0,0.0,0.0
1729524,19.0,0.0,0.0,4502.564102564103,4173.333333333334,4328.205128205129,4809.743589743591,3788.717948717949,4229.2307692307695,4266.153846153847,4174.871794871796,4397.948717948719,4075.8974358974365,4264.615384615385,4342.564102564103,4394.358974358975,4377.435897435898,1697.0,1684.0,1731.249,1617.4993896484375,0.0,0.0,0.0,0.0
1729525,20.0,0.0,0.0,4496.923076923077,4171.794871794872,4323.589743589744,4812.307692307693,3786.1538461538466,4235.8974358974365,4260.512820512821,4164.615384615385,4376.410256410257,4068.205128205129,4266.153846153847,4340.000000000001,4392.307692307693,4374.358974358975,1700.0,1684.0,1731.257,1617.4993896484375,0.0,0.0,0.0,0.0
1729525,21.0,0.0,0.0,4490.769230769231,4166.666666666667,4322.051282051282,4814.871794871796,3782.564102564103,4232.307692307693,4257.435897435898,4159.48717948718,4373.333333333334,4062.0512820512827,4265.641025641026,4337.435897435898,4394.358974358975,4373.333333333334,1702.0,1685.0,1731.265,1617.4993896484375,0.0,0.0,0.0,0.0
1729525,22.0,0.0,0.0,4493.333333333334,4163.589743589744,4320.512820512821,4808.717948717949,3782.564102564103,4227.179487179487,4258.974358974359,4160.512820512821,4381.025641025642,4059.48717948718,4261.538461538462,4336.923076923077,4393.846153846154,4372.307692307693,1703.0,1686.0,1731.273,1617.4993896484375,0.0,0.0,0.0,0.0
1729525,23.0,0.0,0.0,4498.974358974359,4167.179487179487,4321.025641025642,4810.256410256411,3783.076923076924,4226.666666666667,4260.000000000001,4162.051282051282,4381.025641025642,4061.538461538462,4263.589743589744,4342.051282051282,4388.205128205129,4374.871794871796,1705.0,1687.0,1731.281,1617.4993896484375,0.0,0.0,0.0,0.0
1729652,24.0,0.0,0.0,4503.076923076924,4172.820512820514,4326.153846153847,4808.205128205129,3782.564102564103,4229.2307692307695,4264.615384615385,4166.666666666667,4391.282051282052,4072.307692307693,4266.153846153847,4347.179487179487,4394.358974358975,4385.128205128206,1705.0,1688.0,1731.288,1617.62451171875,0.0,0.0,0.0,0.0
1729653,25.0,0.0,0.0,4505.641025641026,4174.358974358975,4330.256410256411,4811.282051282052,3787.692307692308,4233.333333333334,4271.282051282052,4175.384615384616,4408.205128205129,4086.1538461538466,4267.179487179487,4347.179487179487,4405.128205128206,4393.846153846154,1703.0,1688.0,1731.297,1617.62451171875,0.0,0.0,0.0,0.0
1729653,26.0,0.0,0.0,4507.179487179488,4174.871794871796,4330.256410256411,4814.871794871796,3789.7435897435903,4232.307692307693,4271.282051282052,4179.48717948718,4410.256410256411,4089.23076923077,4265.128205128206,4345.128205128206,4403.076923076924,4394.358974358975,1700.0,1688.0,1731.304,1617.62451171875,0.0,0.0,0.0,0.0
1729653,27.0,0.0,0.0,4504.102564102564,4174.358974358975,4326.153846153847,4810.256410256411,3783.076923076924,4227.179487179487,4264.102564102564,4173.846153846154,4405.128205128206,4081.538461538462,4259.48717948718,4342.564102564103,4394.358974358975,4389.2307692307695,1698.0,1687.0,1731.313,1617.62451171875,0.0,0.0,0.0,0.0
1729653,28.0,0.0,0.0,4492.307692307693,4161.538461538462,4315.384615384616,4816.410256410257,3780.0000000000005,4234.871794871796,4263.589743589744,4166.153846153847,4398.461538461539,4070.7692307692314,4264.102564102564,4337.948717948719,4382.564102564103,4374.871794871796,1695.0,1686.0,1731.32,1617.62451171875,0.0,0.0,0.0,0.0
1729653,29.0,0.0,0.0,4488.717948717949,4161.025641025642,4314.871794871796,4814.358974358975,3784.1025641025644,4245.641025641026,4269.74358974359,4166.666666666667,4399.48717948718,4073.333333333334,4267.6923076923085,4337.948717948719,4383.589743589744,4370.256410256411,1694.0,1686.0,1731.327,1617.62451171875,0.0,0.0,0.0,0.0
1729654,30.0,0.0,0.0,4504.102564102564,4182.051282051282,4328.205128205129,4809.2307692307695,3785.1282051282055,4231.282051282052,4264.615384615385,4168.717948717949,4411.794871794872,4090.7692307692314,4264.102564102564,4346.666666666667,4404.102564102564,4387.179487179487,1692.0,1686.0,1731.335,1617.62451171875,0.0,0.0,0.0,0.0
1729654,31.0,0.0,0.0,4513.846153846154,4191.794871794872,4333.333333333334,4810.769230769231,3783.589743589744,4216.410256410257,4253.333333333334,4166.153846153847,4420.512820512821,4099.48717948718,4262.051282051282,4348.717948717949,4414.358974358975,4397.435897435898,1690.0,1688.0,1731.344,1617.62451171875,0.0,0.0,0.0,0.0
1729654,32.0,0.0,0.0,4504.615384615385,4185.641025641026,4327.179487179487,4806.666666666667,3783.076923076924,4225.641025641026,4250.769230769231,4162.564102564103,4408.205128205129,4091.7948717948725,4262.051282051282,4339.48717948718,4406.666666666667,4387.179487179487,1688.0,1686.0,1731.351,1617.62451171875,0.0,0.0,0.0,0.0
1729654,33.0,0.0,0.0,4494.871794871796,4181.025641025642,4322.051282051282,4813.846153846154,3781.538461538462,4229.2307692307695,4249.2307692307695,4157.948717948719,4387.179487179487,4081.0256410256416,4263.589743589744,4335.8974358974365,4403.076923076924,4378.974358974359,1686.0,1687.0,1731.359,1617.62451171875,0.0,0.0,0.0,0.0
1729655,34.0,0.0,0.0,4492.820512820514,4180.512820512821,4322.051282051282,4816.923076923077,3780.0000000000005,4220.512820512821,4246.666666666667,4156.923076923077,4387.6923076923085,4076.9230769230776,4264.102564102564,4336.923076923077,4406.666666666667,4380.000000000001,1686.0,1686.0,1731.366,1617.62451171875,0.0,0.0,0.0,0.0
1729655,35.0,0.0,0.0,4497.435897435898,4183.076923076924,4326.666666666667,4811.282051282052,3779.48717948718,4222.051282051282,4249.74358974359,4158.974358974359,4396.923076923077,4075.3846153846157,4264.615384615385,4336.923076923077,4404.102564102564,4381.538461538462,1684.0,1687.0,1731.374,1617.62451171875,0.0,0.0,0.0,0.0
1729655,36.0,0.0,0.0,4503.589743589744,4187.6923076923085,4333.846153846154,4810.769230769231,3780.0000000000005,4229.2307692307695,4254.358974358975,4163.076923076924,4397.948717948719,4078.9743589743593,4264.102564102564,4341.538461538462,4406.666666666667,4386.153846153847,1685.0,1687.0,1731.382,1617.62451171875,0.0,0.0,0.0,0.0
1729655,37.0,0.0,0.0,4501.538461538462,4189.2307692307695,4332.820512820514,4808.717948717949,3781.0256410256416,4232.307692307693,4258.461538461539,4166.666666666667,4401.025641025642,4087.692307692308,4261.538461538462,4340.512820512821,4416.923076923077,4386.666666666667,1682.0,1687.0,1731.39,1617.62451171875,0.0,0.0,0.0,0.0
1729655,38.0,0.0,0.0,4491.282051282052,4183.589743589744,4326.153846153847,4814.871794871796,3782.0512820512827,4233.846153846154,4258.974358974359,4168.205128205129,4406.153846153847,4089.23076923077,4264.102564102564,4338.461538461539,4415.8974358974365,4380.000000000001,1681.0,1689.0,1731.398,1617.62451171875,0.0,0.0,0.0,0.0
1729656,39.0,0.0,0.0,4491.282051282052,4184.102564102564,4326.666666666667,4815.384615384616,3785.6410256410263,4237.435897435898,4260.512820512821,4170.256410256411,4409.743589743591,4088.205128205129,4264.102564102564,4344.102564102564,4412.820512820514,4380.512820512821,1680.0,1688.0,1731.405,1617.62451171875,0.0,0.0,0.0,0.0
1729775,40.0,0.0,0.0,4500.000000000001,4188.717948717949,4329.2307692307695,4809.743589743591,3788.205128205129,4241.025641025642,4265.641025641026,4173.333333333334,4413.333333333334,4089.7435897435903,4261.538461538462,4344.102564102564,4415.8974358974365,4384.615384615385,1679.0,1688.0,1731.414,1617.7496337890625,0.0,0.0,0.0,0.0
1729775,41.0,0.0,0.0,4501.025641025642,4185.128205128206,4327.6923076923085,4813.846153846154,3784.1025641025644,4237.948717948719,4265.128205128206,4170.769230769231,4408.717948717949,4087.1794871794878,4263.589743589744,4341.538461538462,4413.333333333334,4385.128205128206,1678.0,1688.0,1731.422,1617.7496337890625,0.0,0.0,0.0,0.0
1729775,42.0,0.0,0.0,4494.358974358975,4183.076923076924,4327.179487179487,4810.256410256411,3780.0000000000005,4235.384615384616,4262.564102564103,4163.076923076924,4400.000000000001,4083.589743589744,4266.153846153847,4343.076923076924,4412.307692307693,4386.666666666667,1677.0,1688.0,1731.429,1617.7496337890625,0.0,0.0,0.0,0.0
1729775,43.0,0.0,0.0,4490.256410256411,4184.102564102564,4325.128205128206,4811.794871794872,3780.0000000000005,4235.8974358974365,4260.512820512821,4154.358974358975,4398.974358974359,4081.538461538462,4265.128205128206,4343.589743589744,4414.871794871796,4385.641025641026,1676.0,1686.0,1731.437,1617.7496337890625,0.0,0.0,0.0,0.0
1729775,44.0,0.0,0.0,4491.282051282052,4180.512820512821,4320.000000000001,4813.846153846154,3778.461538461539,4236.923076923077,4256.923076923077,4149.2307692307695,4401.025641025642,4076.9230769230776,4262.564102564103,4336.923076923077,4412.820512820514,4378.461538461539,1674.0,1688.0,1731.446,1617.7496337890625,0.0,0.0,0.0,0.0
1729776,45.0,0.0,0.0,4491.794871794872,4176.410256410257,4319.48717948718,4808.205128205129,3776.410256410257,4235.384615384616,4252.820512820514,4152.307692307693,4405.128205128206,4074.358974358975,4262.051282051282,4335.8974358974365,4411.794871794872,4377.435897435898,1675.0,1687.0,1731.452,1617.7496337890625,0.0,0.0,0.0,0.0
1729776,46.0,0.0,0.0,4494.871794871796,4180.512820512821,4323.076923076924,4813.333333333334,3778.461538461539,4231.282051282052,4248.205128205129,4153.846153846154,4403.076923076924,4076.9230769230776,4266.153846153847,4342.564102564103,4418.974358974359,4383.076923076924,1673.0,1688.0,1731.46,1617.7496337890625,0.0,0.0,0.0,0.0
1729776,47.0,0.0,0.0,4496.410256410257,4187.179487179487,4325.641025641026,4813.333333333334,3778.9743589743593,4231.794871794872,4249.74358974359,4152.307692307693,4394.871794871796,4082.0512820512827,4265.128205128206,4342.564102564103,4422.051282051282,4385.128205128206,1674.0,1688.0,1731.468,1617.7496337890625,0.0,0.0,0.0,0.0
1729776,48.0,0.0,0.0,4493.333333333334,4185.641025641026,4326.153846153847,4813.333333333334,3778.461538461539,4232.307692307693,4255.8974358974365,4149.2307692307695,4391.794871794872,4083.589743589744,4264.102564102564,4337.948717948719,4415.384615384616,4382.051282051282,1672.0,1687.0,1731.476,1617.7496337890625,0.0,0.0,0.0,0.0
1729776,49.0,0.0,0.0,4494.871794871796,4182.564102564103,4324.615384615385,4812.307692307693,3781.0256410256416,4231.282051282052,4257.435897435898,4143.589743589744,4399.48717948718,4084.1025641025644,4265.128205128206,4337.435897435898,4412.820512820514,4380.512820512821,1673.0,1688.0,1731.484,1617.7496337890625,0.0,0.0,0.0,0.0
1729777,50.0,0.0,0.0,4497.948717948719,4184.615384615385,4323.589743589744,4803.076923076924,3783.076923076924,4237.435897435898,4258.974358974359,4138.974358974359,4405.128205128206,4083.589743589744,4264.615384615385,4338.974358974359,4415.8974358974365,4380.000000000001,1674.0,1686.0,1731.491,1617.7496337890625,0.0,0.0,0.0,0.0
1729777,51.0,0.0,0.0,4495.8974358974365,4187.179487179487,4325.641025641026,4810.256410256411,3785.1282051282055,4240.000000000001,4259.48717948718,4121.025641025642,4399.48717948718,4083.076923076924,4263.589743589744,4343.589743589744,4416.923076923077,4384.102564102564,1674.0,1687.0,1731.499,1617.7496337890625,0.0,0.0,0.0,0.0
1729777,52.0,0.0,0.0,4496.410256410257,4188.205128205129,4328.205128205129,4813.333333333334,3784.1025641025644,4233.846153846154,4255.8974358974365,4092.307692307693,4397.435897435898,4085.6410256410263,4264.102564102564,4345.128205128206,4418.974358974359,4389.743589743591,1674.0,1686.0,1731.507,1617.7496337890625,0.0,0.0,0.0,0.0
1729777,53.0,0.0,0.0,4501.538461538462,4183.589743589744,4327.6923076923085,4810.256410256411,3778.9743589743593,4230.256410256411,4252.820512820514,4068.717948717949,4405.641025641026,4086.1538461538466,4267.179487179487,4345.128205128206,4421.025641025642,4388.717948717949,1675.0,1686.0,1731.515,1617.7496337890625,0.0,0.0,0.0,0.0
1729778,54.0,0.0,0.0,4505.128205128206,4181.538461538462,4328.717948717949,4812.820512820514,3776.410256410257,4231.794871794872,4257.948717948719,4063.589743589744,4407.6923076923085,4083.076923076924,4267.6923076923085,4344.615384615385,4418.974358974359,4387.6923076923085,1676.0,1685.0,1731.523,1617.7496337890625,0.0,0.0,0.0,0.0
1729778,55.0,0.0,0.0,4509.2307692307695,4190.256410256411,4335.8974358974365,4810.256410256411,3780.0000000000005,4234.871794871796,4262.051282051282,4083.589743589744,4401.538461538462,4088.205128205129,4264.102564102564,4344.102564102564,4423.076923076924,4393.333333333334,1675.0,1686.0,1731.531,1617.7496337890625,0.0,0.0,0.0,0.0
1729810,56.0,0.0,0.0,4512.820512820514,4195.384615384616,4339.48717948718,4812.820512820514,3787.1794871794878,4237.435897435898,4260.512820512821,4108.205128205129,4399.48717948718,4096.923076923077,4266.666666666667,4345.128205128206,4429.2307692307695,4396.923076923077,1677.0,1685.0,1731.538,1617.874755859375,0.0,0.0,0.0,0.0
1729810,57.0,0.0,0.0,4507.6923076923085,4185.641025641026,4333.846153846154,4812.307692307693,3788.205128205129,4238.974358974359,4264.102564102564,4106.666666666667,4403.589743589744,4092.307692307693,4264.615384615385,4341.538461538462,4423.589743589744,4390.256410256411,1676.0,1686.0,1731.547,1617.874755859375,0.0,0.0,0.0,0.0
1729810,58.0,0.0,0.0,4503.589743589744,4178.461538461539,4328.205128205129,4808.205128205129,3784.615384615385,4235.384615384616,4268.717948717949,4100.512820512821,4408.205128205129,4085.1282051282055,4259.48717948718,4336.410256410257,4413.333333333334,4384.615384615385,1677.0,1686.0,1731.554,1617.874755859375,0.0,0.0,0.0,0.0
1729811,59.0,0.0,0.0,4509.743589743591,4185.641025641026,4332.820512820514,4810.769230769231,3785.1282051282055,4233.846153846154,4268.205128205129,4115.8974358974365,4404.615384615385,4091.7948717948725,4264.102564102564,4343.076923076924,4414.358974358975,4393.333333333334,1676.0,1686.0,1731.563,1617.874755859375,0.0,0.0,0.0,0.0
1730023,60.0,0.0,0.0,4513.846153846154,4188.205128205129,4341.025641025642,4808.717948717949,3788.205128205129,4235.8974358974365,4265.641025641026,4107.179487179487,4401.025641025642,4099.48717948718,4264.615384615385,4349.743589743591,4425.128205128206,4403.589743589744,1676.0,1687.0,1731.57,1617.906005859375,0.0,0.0,0.0,0.0
1730023,61.0,0.0,0.0,4506.153846153847,4181.025641025642,4336.923076923077,4814.358974358975,3784.1025641025644,4234.358974358975,4261.538461538462,4075.3846153846157,4408.717948717949,4098.461538461539,4264.615384615385,4346.666666666667,4427.6923076923085,4401.538461538462,1677.0,1686.0,1731.579,1617.906005859375,0.0,0.0,0.0,0.0
1730023,62.0,0.0,0.0,4502.564102564103,4181.538461538462,4327.179487179487,4813.846153846154,3777.9487179487182,4231.282051282052,4257.948717948719,4083.076923076924,4415.384615384616,4096.923076923077,4265.128205128206,4341.025641025642,4424.102564102564,4397.435897435898,1676.0,1687.0,1731.585,1617.906005859375,0.0,0.0,0.0,0.0
1730023,63.0,0.0,0.0,4504.102564102564,4186.666666666667,4324.102564102564,4807.179487179488,3775.3846153846157,4231.282051282052,4255.8974358974365,4106.666666666667,4408.717948717949,4098.461538461539,4263.589743589744,4341.538461538462,4424.615384615385,4396.923076923077,1678.0,1687.0,1731.593,1617.906005859375,0.0,0.0,0.0,0.0
1730023,64.0,0.0,513.0,4497.948717948719,4183.076923076924,4325.128205128206,4813.846153846154,3773.8461538461543,4228.205128205129,4251.282051282052,4108.205128205129,4405.641025641026,4100.000000000001,4266.153846153847,4342.051282051282,4426.666666666667,4395.8974358974365,1677.0,1689.0,1731.601,1617.906005859375,0.0,0.0,0.0,0.0
1730023,65.0,0.0,0.0,4494.871794871796,4181.025641025642,4325.128205128206,4811.282051282052,3773.8461538461543,4223.589743589744,4250.769230769231,4099.48717948718,4409.743589743591,4101.025641025642,4265.641025641026,4337.435897435898,4426.666666666667,4393.846153846154,1679.0,1690.0,1731.609,1617.906005859375,0.0,0.0,0.0,0.0
1730024,66.0,0.0,511.0,4495.8974358974365,4184.102564102564,4325.641025641026,4810.256410256411,3775.3846153846157,4226.153846153847,4255.384615384616,4068.717948717949,4406.666666666667,4096.410256410257,4264.102564102564,4336.410256410257,4422.564102564103,4391.794871794872,1677.0,1692.0,1731.617,1617.906005859375,0.0,0.0,0.0,0.0
1730024,67.0,0.0,531.0,4491.282051282052,4183.589743589744,4325.128205128206,4814.358974358975,3776.9230769230776,4233.333333333334,4256.410256410257,4021.538461538462,4401.025641025642,4091.7948717948725,4262.564102564103,4336.923076923077,4419.48717948718,4388.205128205129,1679.0,1692.0,1731.624,1617.906005859375,0.0,0.0,0.0,0.0
1730024,68.0,0.0,504.0,4485.641025641026,4180.000000000001,4321.025641025642,4812.307692307693,3777.435897435898,4235.384615384616,4255.384615384616,4014.8717948717954,4398.461538461539,4088.717948717949,4263.076923076924,4331.282051282052,4414.871794871796,4382.051282051282,1678.0,1691.0,1731.632,1617.906005859375,0.0,0.0,0.0,0.0
1730024,69.0,0.0,552.0,4482.564102564103,4170.769230769231,4315.384615384616,4816.923076923077,3772.820512820513,4231.794871794872,4253.333333333334,4028.717948717949,4396.410256410257,4079.48717948718,4266.153846153847,4329.2307692307695,4409.2307692307695,4375.384615384616,1680.0,1690.0,1731.64,1617.906005859375,0.0,0.0,0.0,0.0
1730024,70.0,0.0,546.0,4485.128205128206,4170.769230769231,4317.948717948719,4812.307692307693,3770.2564102564106,4224.615384615385,4249.74358974359,4017.435897435898,4396.410256410257,4077.9487179487187,4266.153846153847,4336.923076923077,4414.871794871796,4379.48717948718,1680.0,1688.0,1731.648,1617.906005859375,0.0,0.0,0.0,0.0
1730024,71.0,0.0,369.0,4493.846153846154,4181.538461538462,4327.179487179487,4811.282051282052,3772.820512820513,4217.948717948719,4245.641025641026,4002.0512820512827,4396.923076923077,4085.6410256410263,4263.589743589744,4343.076923076924,4423.589743589744,4390.769230769231,1680.0,1689.0,1731.656,1617.906005859375,0.0,0.0,0.0,0.0
1730024,72.0,0.0,461.0,4497.435897435898,4180.512820512821,4326.666666666667,4814.358974358975,3772.820512820513,4220.000000000001,4248.717948717949,3994.358974358975,4405.128205128206,4086.1538461538466,4262.564102564103,4340.512820512821,4418.974358974359,4388.717948717949,1681.0,1688.0,1731.664,1617.906005859375,0.0,0.0,0.0,0.0
1730024,73.0,0.0,478.0,4493.333333333334,4172.307692307693,4326.666666666667,4806.666666666667,3773.8461538461543,4229.74358974359,4258.974358974359,3994.8717948717954,4411.282051282052,4082.0512820512827,4263.076923076924,4335.8974358974365,4414.358974358975,4380.512820512821,1680.0,1689.0,1731.671,1617.906005859375,0.0,0.0,0.0,0.0
1730025,74.0,0.0,493.0,4494.871794871796,4174.358974358975,4333.333333333334,4811.282051282052,3780.0000000000005,4230.769230769231,4262.564102564103,3999.48717948718,4394.358974358975,4082.564102564103,4262.051282051282,4338.461538461539,4420.000000000001,4384.615384615385,1682.0,1688.0,1731.68,1617.906005859375,0.0,0.0,0.0,0.0
1730025,75.0,0.0,490.0,4502.564102564103,4182.051282051282,4335.8974358974365,4814.358974358975,3782.0512820512827,4226.666666666667,4259.48717948718,3996.410256410257,4381.538461538462,4084.615384615385,4260.512820512821,4341.538461538462,4424.615384615385,4394.358974358975,1681.0,1687.0,1731.687,1617.906005859375,0.0,0.0,0.0,0.0
1730025,76.0,0.0,0.0,4505.128205128206,4183.589743589744,4332.820512820514,4812.307692307693,3780.512820512821,4227.179487179487,4258.461538461539,3996.9230769230776,4394.358974358975,4085.6410256410263,4264.102564102564,4341.025641025642,4421.025641025642,4394.358974358975,1681.0,1685.0,1731.696,1617.906005859375,0.0,0.0,0.0,0.0
1730025,77.0,0.0,327.0,4504.615384615385,4178.974358974359,4332.307692307693,4812.820512820514,3781.538461538462,4228.205128205129,4261.538461538462,4009.23076923077,4405.641025641026,4089.23076923077,4264.102564102564,4337.948717948719,4416.410256410257,4387.179487179487,1680.0,1684.0,1731.703,1617.906005859375,0.0,0.0,0.0,0.0
1730025,78.0,0.0,493.0,4506.666666666667,4180.512820512821,4336.410256410257,4808.717948717949,3781.538461538462,4226.666666666667,4263.076923076924,4013.333333333334,4407.6923076923085,4095.8974358974365,4258.974358974359,4336.923076923077,4420.000000000001,4387.179487179487,1680.0,1683.0,1731.711,1617.906005859375,0.0,0.0,0.0,0.0
1730025,79.0,0.0,490.0,4505.128205128206,4182.564102564103,4336.923076923077,4812.820512820514,3780.0000000000005,4221.025641025642,4261.538461538462,3998.9743589743593,4402.564102564103,4094.8717948717954,4263.076923076924,4338.461538461539,4423.589743589744,4390.256410256411,1679.0,1684.0,1731.719,1617.906005859375,0.0,0.0,0.0,0.0
1730025,80.0,0.0,0.0,4499.48717948718,4176.410256410257,4329.743589743591,4812.820512820514,3780.0000000000005,4221.538461538462,4261.025641025642,3987.692307692308,4392.820512820514,4084.1025641025644,4266.666666666667,4334.871794871796,4417.435897435898,4386.666666666667,1678.0,1686.0,1731.726,1617.906005859375,0.0,0.0,0.0,0.0
1730025,81.0,0.0,327.0,4500.000000000001,4172.820512820514,4326.666666666667,4810.256410256411,3779.48717948718,4226.666666666667,4262.051282051282,3985.6410256410263,4393.333333333334,4078.9743589743593,4264.102564102564,4332.820512820514,4411.794871794872,4380.512820512821,1677.0,1687.0,1731.734,1617.906005859375,0.0,0.0,0.0,0.0
1730025,82.0,0.0,493.0,4504.615384615385,4175.384615384616,4328.717948717949,4815.384615384616,3778.461538461539,4223.589743589744,4257.948717948719,3981.538461538462,4396.410256410257,4083.589743589744,4264.102564102564,4335.8974358974365,4412.820512820514,4379.48717948718,1678.0,1685.0,1731.742,1617.906005859375,0.0,0.0,0.0,0.0
1730026,83.0,0.0,490.0,4502.051282051282,4171.282051282052,4328.205128205129,4809.743589743591,3775.3846153846157,4221.025641025642,4254.871794871796,3981.0256410256416,4394.358974358975,4083.589743589744,4265.641025641026,4332.307692307693,4414.871794871796,4381.025641025642,1678.0,1685.0,1731.75,1617.906005859375,0.0,0.0,0.0,0.0
1730027,84.0,0.0,0.0,4492.820512820514,4163.589743589744,4324.102564102564,4812.307692307693,3776.410256410257,4230.769230769231,4259.48717948718,3988.205128205129,4396.410256410257,4080.0000000000005,4268.205128205129,4331.282051282052,4413.333333333334,4379.48717948718,1679.0,1684.0,1731.757,1617.906005859375,0.0,0.0,0.0,0.0
1730027,85.0,0.0,327.0,4494.358974358975,4166.153846153847,4326.153846153847,4816.923076923077,3781.0256410256416,4236.923076923077,4265.641025641026,3989.23076923077,4401.538461538462,4082.564102564103,4265.128205128206,4334.358974358975,4414.358974358975,4381.025641025642,1680.0,1684.0,1731.764,1617.906005859375,0.0,0.0,0.0,0.0
1730027,86.0,0.0,493.0,4502.564102564103,4170.769230769231,4331.282051282052,4810.769230769231,3781.0256410256416,4231.794871794872,4263.076923076924,3992.820512820513,4400.000000000001,4082.0512820512827,4259.48717948718,4332.307692307693,4417.435897435898,4383.076923076924,1681.0,1682.0,1731.773,1617.906005859375,0.0,0.0,0.0,0.0
1730027,87.0,0.0,490.0,4500.000000000001,4167.6923076923085,4328.205128205129,4810.769230769231,3777.435897435898,4226.153846153847,4254.871794871796,4004.615384615385,4394.871794871796,4074.8717948717954,4261.538461538462,4330.256410256411,4414.358974358975,4377.948717948719,1681.0,1681.0,1731.781,1617.906005859375,0.0,0.0,0.0,0.0
1730282,88.0,0.0,0.0,4495.8974358974365,4160.512820512821,4324.615384615385,4810.769230769231,3775.8974358974365,4227.179487179487,4255.384615384616,4003.589743589744,4402.051282051282,4078.461538461539,4264.102564102564,4333.846153846154,4413.846153846154,4372.820512820514,1683.0,1682.0,1731.789,1618.125,0.0,0.0,0.0,0.0
1730282,89.0,0.0,327.0,4496.923076923077,4156.410256410257,4327.179487179487,4815.384615384616,3776.9230769230776,4227.179487179487,4262.051282051282,4008.717948717949,4425.641025641026,4093.8461538461543,4267.179487179487,4337.948717948719,4422.051282051282,4378.461538461539,1682.0,1679.0,1731.796,1618.125,0.0,0.0,0.0,0.0
1730283,90.0,0.0,493.0,4502.564102564103,4165.128205128206,4332.820512820514,4813.333333333334,3778.9743589743593,4228.205128205129,4264.615384615385,4051.2820512820517,4434.358974358975,4100.512820512821,4264.615384615385,4340.512820512821,4430.769230769231,4391.794871794872,1682.0,1680.0,1731.804,1618.125,0.0,0.0,0.0,0.0
1730283,91.0,0.0,490.0,4507.179487179488,4174.871794871796,4336.410256410257,4805.641025641026,3781.538461538462,4233.333333333334,4263.076923076924,4093.333333333334,4415.8974358974365,4093.333333333334,4261.025641025642,4340.000000000001,4432.820512820514,4395.384615384616,1683.0,1678.0,1731.812,1618.125,0.0,0.0,0.0,0.0
1730284,92.0,0.0,0.0,4504.615384615385,4165.641025641026,4332.307692307693,4813.846153846154,3781.0256410256416,4233.333333333334,4256.923076923077,4103.076923076924,4402.051282051282,4083.589743589744,4265.641025641026,4336.410256410257,4428.205128205129,4389.2307692307695,1683.0,1679.0,1731.82,1618.125,0.0,0.0,0.0,0.0
1730284,93.0,0.0,327.0,4498.974358974359,4156.923076923077,4327.6923076923085,4814.358974358975,3778.9743589743593,4233.846153846154,4252.820512820514,4103.076923076924,4403.076923076924,4078.461538461539,4265.641025641026,4332.307692307693,4423.589743589744,4385.641025641026,1685.0,1680.0,1731.829,1618.125,0.0,0.0,0.0,0.0
1730285,94.0,0.0,493.0,4496.923076923077,4158.974358974359,4321.538461538462,4810.256410256411,3778.461538461539,4240.000000000001,4252.307692307693,4098.461538461539,4395.8974358974365,4071.7948717948725,4263.076923076924,4331.794871794872,4418.461538461539,4386.153846153847,1685.0,1682.0,1731.836,1618.125,0.0,0.0,0.0,0.0
1730285,95.0,0.0,490.0,4497.435897435898,4155.8974358974365,4315.8974358974365,4813.333333333334,3778.9743589743593,4245.641025641026,4250.769230769231,4089.7435897435903,4383.589743589744,4061.538461538462,4263.076923076924,4330.769230769231,4412.307692307693,4380.512820512821,1687.0,1687.0,1731.843,1618.125,0.0,0.0,0.0,0.0
1730285,96.0,0.0,0.0,4495.8974358974365,4156.410256410257,4317.948717948719,4809.743589743591,3777.435897435898,4242.051282051282,4249.2307692307695,4085.1282051282055,4384.615384615385,4058.461538461539,4263.076923076924,4327.6923076923085,4409.743589743591,4375.384615384616,1687.0,1690.0,1731.851,1618.125,0.0,0.0,0.0,0.0
1730286,97.0,0.0,327.0,4495.8974358974365,4165.641025641026,4324.102564102564,4814.871794871796,3776.410256410257,4229.74358974359,4249.2307692307695,4085.1282051282055,4390.769230769231,4065.1282051282055,4266.153846153847,4331.282051282052,4414.358974358975,4382.564102564103,1688.0,1691.0,1731.859,1618.125,0.0,0.0,0.0,0.0
1730286,98.0,0.0,493.0,4501.538461538462,4171.794871794872,4329.2307692307695,4815.384615384616,3778.9743589743593,4227.6923076923085,4256.410256410257,4093.8461538461543,4405.128205128206,4079.48717948718,4265.128205128206,4337.948717948719,4425.641025641026,4391.794871794872,1686.0,1692.0,1731.867,1618.125,0.0,0.0,0.0,0.0
1730286,99.0,0.0,490.0,4506.153846153847,4169.74358974359,4330.256410256411,4811.282051282052,3782.0512820512827,4238.461538461539,4264.102564102564,4105.641025641026,4426.153846153847,4093.333333333334,4262.051282051282,4340.512820512821,4432.820512820514,4391.282051282052,1686.0,1692.0,1731.875,1618.125,0.0,0.0,0.0,0.0
1730286,100.0,0.0,0.0,4506.666666666667,4173.333333333334,4331.794871794872,4813.333333333334,3782.0512820512827,4239.48717948718,4262.564102564103,4105.641025641026,4426.666666666667,4095.8974358974365,4264.102564102564,4339.48717948718,4434.871794871796,4394.358974358975,1685.0,1691.0,1731.882,1618.125,0.0,0.0,0.0,0.0
1730287,101.0,0.0,327.0,4500.000000000001,4175.384615384616,4332.307692307693,4810.256410256411,3778.461538461539,4232.307692307693,4256.410256410257,4099.48717948718,4413.846153846154,4091.2820512820517,4265.641025641026,4335.384615384616,4436.410256410257,4395.8974358974365,1684.0,1691.0,1731.89,1618.125,0.0,0.0,0.0,0.0
1730287,102.0,0.0,493.0,4489.743589743591,4165.128205128206,4323.589743589744,4816.923076923077,3771.2820512820517,4231.794871794872,4250.256410256411,4096.923076923077,4403.589743589744,4080.5128205128212,4266.153846153847,4332.307692307693,4426.153846153847,4382.564102564103,1685.0,1688.0,1731.898,1618.125,0.0,0.0,0.0,0.0
1730287,103.0,0.0,490.0,4485.641025641026,4163.076923076924,4315.8974358974365,4816.410256410257,3767.1794871794878,4235.8974358974365,4247.179487179487,4098.974358974359,4394.871794871796,4072.820512820513,4266.666666666667,4330.769230769231,4416.923076923077,4373.333333333334,1685.0,1688.0,1731.906,1618.125,0.0,0.0,0.0,0.0
1730287,104.0,0.0,0.0,4485.641025641026,4163.076923076924,4316.410256410257,4808.717948717949,3770.7692307692314,4235.384615384616,4252.307692307693,4111.794871794872,4400.512820512821,4073.8461538461543,4264.615384615385,4330.769230769231,4416.923076923077,4376.923076923077,1686.0,1685.0,1731.914,1618.125,0.0,0.0,0.0,0.0
1730288,105.0,0.0,327.0,4484.102564102564,4154.871794871796,4314.871794871796,4810.256410256411,3775.8974358974365,4230.256410256411,4255.384615384616,4117.435897435898,4410.256410256411,4076.9230769230776,4264.102564102564,4328.205128205129,4415.384615384616,4378.461538461539,1685.0,1683.0,1731.922,1618.125,0.0,0.0,0.0,0.0
1730288,106.0,0.0,493.0,4487.6923076923085,4160.000000000001,4315.8974358974365,4808.717948717949,3776.410256410257,4224.102564102564,4250.769230769231,4105.641025641026,4401.025641025642,4078.461538461539,4265.641025641026,4327.6923076923085,4418.461538461539,4379.48717948718,1686.0,1683.0,1731.93,1618.125,0.0,0.0,0.0,0.0
1730288,107.0,0.0,490.0,4492.820512820514,4172.307692307693,4325.641025641026,4814.358974358975,3774.358974358975,4221.025641025642,4247.6923076923085,4101.538461538462,4393.846153846154,4082.0512820512827,4266.666666666667,4336.410256410257,4427.6923076923085,4385.128205128206,1685.0,1681.0,1731.937,1618.125,0.0,0.0,0.0,0.0
1730288,108.0,0.0,0.0,4484.615384615385,4169.2307692307695,4329.2307692307695,4814.358974358975,3776.410256410257,4224.615384615385,4252.307692307693,4109.74358974359,4406.666666666667,4085.1282051282055,4264.615384615385,4340.000000000001,4426.666666666667,4389.743589743591,1687.0,1682.0,1731.946,1618.125,0.0,0.0,0.0,0.0
1730289,109.0,0.0,327.0,4474.358974358975,4169.2307692307695,4326.666666666667,4806.666666666667,3778.461538461539,4225.641025641026,4253.333333333334,4112.307692307693,4414.871794871796,4086.666666666667,4263.589743589744,4336.410256410257,4425.128205128206,4392.307692307693,1686.0,1681.0,1731.953,1618.125,0.0,0.0,0.0,0.0
1730289,110.0,0.0,493.0,4473.846153846154,4177.948717948719,4326.666666666667,4811.794871794872,3778.461538461539,4220.512820512821,4249.2307692307695,4109.2307692307695,4409.2307692307695,4087.692307692308,4263.589743589744,4338.461538461539,4428.205128205129,4390.769230769231,1686.0,1681.0,1731.962,1618.125,0.0,0.0,0.0,0.0
1730289,111.0,0.0,490.0,4474.871794871796,4175.8974358974365,4327.179487179487,4811.794871794872,3776.9230769230776,4219.48717948718,4251.794871794872,4113.333333333334,4411.794871794872,4087.692307692308,4263.076923076924,4339.48717948718,4426.666666666667,4384.615384615385,1685.0,1678.0,1731.971,1618.125,0.0,0.0,0.0,0.0
1730289,112.0,0.0,0.0,4475.8974358974365,4170.769230769231,4329.2307692307695,4811.282051282052,3775.8974358974365,4218.461538461539,4255.384615384616,4120.000000000001,4420.512820512821,4090.7692307692314,4265.128205128206,4338.974358974359,4425.641025641026,4389.2307692307695,1684.0,1680.0,1731.976,1618.125,0.0,0.0,0.0,0.0
1730290,113.0,0.0,327.0,4483.589743589744,4176.923076923077,4337.435897435898,4808.717948717949,3778.9743589743593,4220.000000000001,4255.8974358974365,4122.564102564103,4424.615384615385,4098.461538461539,4264.615384615385,4344.102564102564,4433.333333333334,4403.076923076924,1684.0,1679.0,1731.984,1618.125,0.0,0.0,0.0,0.0
1730290,114.0,0.0,493.0,4490.769230769231,4187.179487179487,4346.153846153847,4804.102564102564,3786.1538461538466,4229.2307692307695,4259.48717948718,4124.615384615385,4426.666666666667,4104.102564102564,4262.564102564103,4347.6923076923085,4439.48717948718,4409.743589743591,1682.0,1680.0,1731.992,1618.125,0.0,0.0,0.0,0.0
1730290,115.0,0.0,490.0,4488.205128205129,4189.74358974359,4348.205128205129,4813.333333333334,3792.820512820513,4235.384615384616,4266.153846153847,4129.2307692307695,4428.205128205129,4103.589743589744,4265.641025641026,4344.102564102564,4438.461538461539,4405.128205128206,1682.0,1681.0,1732.0,1618.125,0.0,0.0,0.0,0.0
1730290,116.0,0.0,0.0,4482.051282051282,4185.128205128206,4342.564102564103,4813.846153846154,3794.8717948717954,4235.8974358974365,4270.256410256411,4130.256410256411,4429.2307692307695,4100.512820512821,4267.179487179487,4335.8974358974365,4433.846153846154,4396.410256410257,1681.0,1682.0,1732.008,1618.125,0.0,0.0,0.0,0.0
1730290,117.0,0.0,327.0,4477.435897435898,4181.025641025642,4333.846153846154,4809.743589743591,3793.8461538461543,4236.923076923077,4267.179487179487,4124.102564102564,4427.179487179487,4096.923076923077,4265.641025641026,4331.282051282052,4428.205128205129,4390.769230769231,1681.0,1683.0,1732.015,1618.125,0.0,0.0,0.0,0.0
1730290,118.0,0.0,493.0,4474.871794871796,4183.076923076924,4332.307692307693,4810.256410256411,3790.7692307692314,4235.384615384616,4263.589743589744,4121.538461538462,4427.6923076923085,4091.7948717948725,4264.102564102564,4335.384615384616,4427.6923076923085,4390.256410256411,1680.0,1684.0,1732.023,1618.125,0.0,0.0,0.0,0.0
1730290,119.0,0.0,490.0,4473.333333333334,4185.641025641026,4336.410256410257,4808.205128205129,3790.7692307692314,4234.358974358975,4266.153846153847,4122.051282051282,4431.282051282052,4090.7692307692314,4263.589743589744,4338.461538461539,4429.2307692307695,4392.820512820514,1679.0,1686.0,1732.031,1618.125,0.0,0.0,0.0,0.0
1730311,120.0,0.0,0.0,4471.282051282052,4182.564102564103,4337.948717948719,4814.871794871796,3794.8717948717954,4235.8974358974365,4267.6923076923085,4120.000000000001,4428.205128205129,4093.8461538461543,4267.6923076923085,4337.948717948719,4429.743589743591,4394.358974358975,1679.0,1687.0,1732.039,1618.3751220703125,0.0,0.0,0.0,0.0
1730311,121.0,0.0,327.0,4472.307692307693,4181.025641025642,4341.538461538462,4811.794871794872,3795.3846153846157,4236.923076923077,4268.717948717949,4124.102564102564,4429.743589743591,4102.051282051282,4266.153846153847,4340.512820512821,4435.384615384616,4395.8974358974365,1679.0,1688.0,1732.047,1618.3751220703125,0.0,0.0,0.0,0.0
1730311,122.0,0.0,493.0,4474.358974358975,4180.000000000001,4343.589743589744,4808.717948717949,3792.307692307693,4237.948717948719,4272.307692307693,4130.256410256411,4436.923076923077,4107.179487179487,4263.076923076924,4344.615384615385,4440.512820512821,4399.48717948718,1679.0,1688.0,1732.055,1618.3751220703125,0.0,0.0,0.0,0.0
1730311,123.0,0.0,490.0,4473.333333333334,4178.974358974359,4340.512820512821,4811.794871794872,3792.307692307693,4240.000000000001,4273.333333333334,4125.641025641026,4435.384615384616,4103.076923076924,4265.641025641026,4343.076923076924,4438.974358974359,4401.538461538462,1679.0,1688.0,1732.062,1618.3751220703125,0.0,0.0,0.0,0.0
1730407,124.0,0.0,0.0,4466.666666666667,4183.076923076924,4340.512820512821,4806.666666666667,3793.8461538461543,4241.538461538462,4269.74358974359,4118.974358974359,4427.6923076923085,4101.538461538462,4263.076923076924,4337.948717948719,4436.410256410257,4398.461538461539,1680.0,1687.0,1732.07,1618.406494140625,0.0,0.0,0.0,0.0
1730407,125.0,0.0,327.0,4458.974358974359,4181.538461538462,4337.435897435898,4812.820512820514,3791.7948717948725,4238.974358974359,4265.641025641026,4114.358974358975,4421.538461538462,4102.051282051282,4262.564102564103,4336.410256410257,4435.8974358974365,4390.769230769231,1679.0,1688.0,1732.078,1618.406494140625,0.0,0.0,0.0,0.0
1730407,126.0,0.0,493.0,4457.435897435898,4173.846153846154,4328.717948717949,4813.333333333334,3787.692307692308,4235.384615384616,4263.076923076924,4109.74358974359,4418.461538461539,4094.8717948717954,4263.589743589744,4334.871794871796,4432.307692307693,4385.128205128206,1680.0,1687.0,1732.086,1618.406494140625,0.0,0.0,0.0,0.0
1730407,127.0,0.0,490.0,4457.435897435898,4169.2307692307695,4326.153846153847,4804.102564102564,3786.1538461538466,4234.358974358975,4260.512820512821,4105.641025641026,4414.358974358975,4085.1282051282055,4263.589743589744,4334.358974358975,4426.666666666667,4386.153846153847,1680.0,1686.0,1732.094,1618.406494140625,0.0,0.0,0.0,0.0
1730407,128.0,0.0,0.0,4455.8974358974365,4169.2307692307695,4328.205128205129,4811.282051282052,3789.2307692307695,4235.8974358974365,4262.564102564103,4105.641025641026,4412.820512820514,4086.666666666667,4267.179487179487,4336.923076923077,4426.666666666667,4390.256410256411,1680.0,1687.0,1732.101,1618.406494140625,0.0,0.0,0.0,0.0
1730407,0.0,0.0,513.0,4454.871794871796,4170.256410256411,4326.666666666667,4811.794871794872,3791.7948717948725,4240.000000000001,4268.717948717949,4110.256410256411,4418.974358974359,4095.3846153846157,4265.641025641026,4336.410256410257,4432.307692307693,4389.2307692307695,1681.0,1686.0,1732.108,1618.406494140625,0.0,0.0,0.0,0.0
1730408,1.0,0.0,0.0,4456.410256410257,4174.871794871796,4330.769230769231,4810.256410256411,3789.7435897435903,4236.410256410257,4267.179487179487,4116.923076923077,4426.666666666667,4102.564102564103,4264.615384615385,4336.923076923077,4435.8974358974365,4391.282051282052,1681.0,1687.0,1732.117,1618.406494140625,0.0,0.0,0.0,0.0
1730408,2.0,0.0,511.0,4458.974358974359,4177.948717948719,4335.384615384616,4812.307692307693,3788.205128205129,4231.794871794872,4262.051282051282,4115.8974358974365,4427.179487179487,4100.512820512821,4265.641025641026,4338.461538461539,4435.384615384616,4395.8974358974365,1681.0,1686.0,1732.125,1618.406494140625,0.0,0.0,0.0,0.0
1730409,3.0,0.0,531.0,4458.974358974359,4174.871794871796,4331.282051282052,4808.205128205129,3788.205128205129,4232.307692307693,4262.051282051282,4111.794871794872,4423.076923076924,4093.333333333334,4263.589743589744,4334.871794871796,4429.743589743591,4390.769230769231,1680.0,1686.0,1732.133,1618.406494140625,0.0,0.0,0.0,0.0
1730409,4.0,0.0,504.0,4457.435897435898,4172.307692307693,4326.666666666667,4811.282051282052,3785.6410256410263,4225.128205128206,4257.435897435898,4111.282051282052,4421.538461538462,4092.820512820513,4263.589743589744,4333.846153846154,4425.128205128206,4387.179487179487,1680.0,1686.0,1732.14,1618.406494140625,0.0,0.0,0.0,0.0
1730409,5.0,0.0,552.0,4456.923076923077,4176.923076923077,4326.666666666667,4812.820512820514,3782.564102564103,4218.461538461539,4253.846153846154,4110.769230769231,4421.025641025642,4095.3846153846157,4263.589743589744,4333.333333333334,4431.282051282052,4389.743589743591,1679.0,1687.0,1732.148,1618.406494140625,0.0,0.0,0.0,0.0
1730410,6.0,0.0,548.0,4451.794871794872,4173.846153846154,4319.48717948718,4816.410256410257,3781.538461538462,4223.076923076924,4255.384615384616,4106.153846153847,4414.871794871796,4088.205128205129,4264.102564102564,4328.205128205129,4432.307692307693,4383.076923076924,1679.0,1686.0,1732.156,1618.406494140625,0.0,0.0,0.0,0.0
1730524,7.0,0.0,369.0,4448.717948717949,4166.153846153847,4313.846153846154,4816.410256410257,3776.9230769230776,4226.153846153847,4253.333333333334,4102.051282051282,4407.6923076923085,4077.435897435898,4265.641025641026,4325.641025641026,4425.641025641026,4376.410256410257,1678.0,1686.0,1732.164,1618.500244140625,0.0,0.0,0.0,0.0
1730524,8.0,0.0,461.0,4455.384615384616,4169.2307692307695,4322.051282051282,4807.6923076923085,3774.8717948717954,4224.102564102564,4253.333333333334,4101.538461538462,4407.6923076923085,4078.461538461539,4264.615384615385,4329.2307692307695,4427.6923076923085,4385.641025641026,1679.0,1686.0,1732.172,1618.500244140625,0.0,0.0,0.0,0.0
1730524,9.0,0.0,478.0,4460.000000000001,4173.846153846154,4328.205128205129,4813.333333333334,3779.48717948718,4224.615384615385,4253.333333333334,4101.538461538462,4406.666666666667,4082.0512820512827,4263.076923076924,4334.358974358975,4432.307692307693,4390.769230769231,1679.0,1686.0,1732.181,1618.500244140625,0.0,0.0,0.0,0.0
1730524,10.0,0.0,493.0,4461.025641025642,4175.8974358974365,4329.2307692307695,4813.333333333334,3781.538461538462,4224.615384615385,4251.282051282052,4101.538461538462,4406.666666666667,4085.6410256410263,4264.615384615385,4335.384615384616,4432.307692307693,4390.256410256411,1679.0,1685.0,1732.187,1618.500244140625,0.0,0.0,0.0,0.0
1730524,11.0,0.0,490.0,4463.589743589744,4176.923076923077,4326.153846153847,4810.256410256411,3782.0512820512827,4224.615384615385,4253.846153846154,4104.102564102564,4415.384615384616,4090.7692307692314,4266.666666666667,4334.358974358975,4434.871794871796,4394.871794871796,1680.0,1685.0,1732.196,1618.500244140625,0.0,0.0,0.0,0.0
1730525,12.0,0.0,0.0,4462.564102564103,4173.333333333334,4320.000000000001,4812.307692307693,3783.076923076924,4227.179487179487,4256.410256410257,4105.641025641026,4421.538461538462,4090.7692307692314,4266.153846153847,4330.256410256411,4434.871794871796,4391.794871794872,1680.0,1684.0,1732.204,1618.500244140625,0.0,0.0,0.0,0.0
1730525,13.0,0.0,327.0,4456.923076923077,4169.74358974359,4319.48717948718,4808.205128205129,3782.564102564103,4224.615384615385,4253.846153846154,4105.641025641026,4418.461538461539,4087.1794871794878,4264.615384615385,4324.615384615385,4428.205128205129,4381.025641025642,1680.0,1685.0,1732.212,1618.500244140625,0.0,0.0,0.0,0.0
1730525,14.0,0.0,493.0,4451.794871794872,4165.641025641026,4320.512820512821,4813.846153846154,3781.538461538462,4222.564102564103,4252.307692307693,4108.205128205129,4414.871794871796,4083.076923076924,4267.179487179487,4327.179487179487,4421.538461538462,4377.435897435898,1681.0,1684.0,1732.219,1618.500244140625,0.0,0.0,0.0,0.0
1730525,15.0,0.0,490.0,4452.820512820514,4162.564102564103,4318.461538461539,4813.333333333334,3782.564102564103,4227.6923076923085,4257.435897435898,4110.769230769231,4416.923076923077,4085.6410256410263,4267.6923076923085,4328.717948717949,4423.076923076924,4382.564102564103,1681.0,1684.0,1732.228,1618.500244140625,0.0,0.0,0.0,0.0
1730525,16.0,0.0,0.0,4460.512820512821,4168.717948717949,4323.589743589744,4809.743589743591,3780.0000000000005,4222.051282051282,4254.871794871796,4106.153846153847,4412.307692307693,4089.23076923077,4265.641025641026,4328.205128205129,4429.743589743591,4389.2307692307695,1683.0,1685.0,1732.235,1618.500244140625,0.0,0.0,0.0,0.0
1730525,17.0,0.0,0.0,4466.153846153847,4178.461538461539,4329.743589743591,4813.333333333334,3776.410256410257,4205.128205128206,4245.128205128206,4100.512820512821,4404.615384615385,4092.307692307693,4262.564102564103,4334.358974358975,4435.8974358974365,4396.410256410257,1682.0,1686.0,1732.242,1618.500244140625,0.0,0.0,0.0,0.0
1730525,18.0,0.0,0.0,4464.102564102564,4179.48717948718,4329.743589743591,4808.205128205129,3777.435897435898,4204.615384615385,4246.153846153847,4106.153846153847,4413.846153846154,4097.435897435898,4260.000000000001,4335.8974358974365,4440.000000000001,4397.435897435898,1683.0,1688.0,1732.25,1618.500244140625,0.0,0.0,0.0,0.0
1730526,19.0,0.0,0.0,4462.051282051282,4174.871794871796,4327.179487179487,4812.820512820514,3781.538461538462,4214.871794871796,4253.333333333334,4112.307692307693,4420.512820512821,4097.435897435898,4266.153846153847,4331.282051282052,4438.974358974359,4392.820512820514,1683.0,1688.0,1732.258,1618.500244140625,0.0,0.0,0.0,0.0
1730526,20.0,0.0,0.0,4461.538461538462,4171.282051282052,4325.128205128206,4814.871794871796,3779.48717948718,4213.846153846154,4251.282051282052,4105.641025641026,4404.102564102564,4090.2564102564106,4270.769230769231,4330.769230769231,4435.8974358974365,4389.2307692307695,1682.0,1689.0,1732.267,1618.500244140625,0.0,0.0,0.0,0.0
1730526,21.0,0.0,0.0,4460.512820512821,4169.2307692307695,4322.564102564103,4808.205128205129,3773.8461538461543,4209.2307692307695,4246.666666666667,4097.948717948719,4389.2307692307695,4085.1282051282055,4267.6923076923085,4332.307692307693,4433.333333333334,4384.615384615385,1681.0,1689.0,1732.273,1618.500244140625,0.0,0.0,0.0,0.0
1730526,22.0,0.0,0.0,4458.461538461539,4166.666666666667,4323.076923076924,4810.769230769231,3775.8974358974365,4210.769230769231,4248.717948717949,4100.000000000001,4399.48717948718,4087.692307692308,4264.615384615385,4332.820512820514,4428.205128205129,4379.48717948718,1680.0,1689.0,1732.281,1618.500244140625,0.0,0.0,0.0,0.0
1730649,23.0,0.0,0.0,4456.410256410257,4163.076923076924,4323.589743589744,4810.769230769231,3780.512820512821,4212.820512820514,4248.205128205129,4102.051282051282,4407.179487179487,4090.2564102564106,4263.076923076924,4330.256410256411,4425.128205128206,4378.974358974359,1680.0,1687.0,1732.289,1618.6253662109375,0.0,0.0,0.0,0.0
1730649,24.0,0.0,0.0,4454.871794871796,4163.076923076924,4323.589743589744,4812.820512820514,3775.8974358974365,4212.820512820514,4241.538461538462,4094.8717948717954,4393.333333333334,4086.1538461538466,4266.153846153847,4328.205128205129,4428.205128205129,4384.102564102564,1679.0,1687.0,1732.297,1618.6253662109375,0.0,0.0,0.0,0.0
1730649,25.0,0.0,0.0,4456.923076923077,4169.74358974359,4325.128205128206,4811.794871794872,3773.333333333334,4217.948717948719,4243.076923076924,4094.358974358975,4392.307692307693,4088.717948717949,4265.641025641026,4332.307692307693,4434.358974358975,4388.717948717949,1681.0,1685.0,1732.305,1618.6253662109375,0.0,0.0,0.0,0.0
1730650,26.0,0.0,0.0,4458.974358974359,4174.358974358975,4323.589743589744,4807.6923076923085,3778.9743589743593,4224.102564102564,4252.820512820514,4106.153846153847,4408.205128205129,4095.8974358974365,4261.025641025642,4333.333333333334,4436.410256410257,4384.102564102564,1678.0,1686.0,1732.313,1618.6253662109375,0.0,0.0,0.0,0.0
1730650,27.0,0.0,0.0,4455.384615384616,4169.74358974359,4320.512820512821,4812.820512820514,3781.538461538462,4222.051282051282,4255.384615384616,4109.2307692307695,4407.179487179487,4090.7692307692314,4262.051282051282,4329.2307692307695,4430.769230769231,4373.846153846154,1680.0,1686.0,1732.32,1618.6253662109375,0.0,0.0,0.0,0.0
1730650,28.0,0.0,0.0,4456.410256410257,4168.717948717949,4322.051282051282,4809.743589743591,3778.461538461539,4220.512820512821,4252.307692307693,4102.564102564103,4394.358974358975,4083.076923076924,4263.589743589744,4327.6923076923085,4428.717948717949,4374.358974358975,1678.0,1685.0,1732.329,1618.6253662109375,0.0,0.0,0.0,0.0
1730651,29.0,0.0,0.0,4460.000000000001,4170.256410256411,4323.076923076924,4812.307692307693,3780.0000000000005,4222.564102564103,4249.74358974359,4100.512820512821,4390.769230769231,4082.564102564103,4265.128205128206,4330.769230769231,4429.743589743591,4382.564102564103,1678.0,1686.0,1732.336,1618.6253662109375,0.0,0.0,0.0,0.0
1730651,30.0,0.0,0.0,4459.48717948718,4169.74358974359,4323.076923076924,4814.358974358975,3784.1025641025644,4224.102564102564,4251.794871794872,4104.102564102564,4393.846153846154,4084.1025641025644,4264.102564102564,4332.307692307693,4431.794871794872,4383.076923076924,1678.0,1685.0,1732.345,1618.6253662109375,0.0,0.0,0.0,0.0
1730651,31.0,0.0,0.0,4461.025641025642,4174.871794871796,4324.615384615385,4805.641025641026,3786.1538461538466,4227.6923076923085,4257.948717948719,4105.128205128206,4400.512820512821,4089.23076923077,4262.051282051282,4331.282051282052,4436.410256410257,4381.025641025642,1677.0,1686.0,1732.352,1618.6253662109375,0.0,0.0,0.0,0.0
1730651,32.0,0.0,0.0,4461.538461538462,4177.435897435898,4324.615384615385,4812.820512820514,3786.1538461538466,4227.179487179487,4257.435897435898,4101.538461538462,4404.102564102564,4090.2564102564106,4266.666666666667,4330.769230769231,4433.333333333334,4380.000000000001,1678.0,1686.0,1732.359,1618.6253662109375,0.0,0.0,0.0,0.0
1730652,33.0,0.0,0.0,4460.512820512821,4174.871794871796,4326.666666666667,4815.384615384616,3784.615384615385,4224.615384615385,4252.307692307693,4096.410256410257,4398.461538461539,4082.0512820512827,4266.666666666667,4329.743589743591,4427.179487179487,4377.435897435898,1677.0,1687.0,1732.367,1618.6253662109375,0.0,0.0,0.0,0.0
1730652,34.0,0.0,0.0,4461.538461538462,4174.358974358975,4330.256410256411,4810.256410256411,3782.564102564103,4226.666666666667,4250.256410256411,4093.8461538461543,4390.769230769231,4078.461538461539,4264.615384615385,4329.743589743591,4424.615384615385,4378.974358974359,1678.0,1688.0,1732.375,1618.6253662109375,0.0,0.0,0.0,0.0
1730653,35.0,0.0,0.0,4464.102564102564,4172.307692307693,4327.6923076923085,4810.769230769231,3782.564102564103,4228.205128205129,4250.769230769231,4095.3846153846157,4389.743589743591,4081.0256410256416,4264.102564102564,4330.769230769231,4423.076923076924,4383.076923076924,1677.0,1689.0,1732.383,1618.6253662109375,0.0,0.0,0.0,0.0
1730653,36.0,0.0,0.0,4464.615384615385,4172.820512820514,4326.666666666667,4809.2307692307695,3784.1025641025644,4222.564102564103,4249.2307692307695,4102.564102564103,4398.974358974359,4084.1025641025644,4261.538461538462,4330.256410256411,4427.6923076923085,4383.589743589744,1677.0,1688.0,1732.391,1618.6253662109375,0.0,0.0,0.0,0.0
1730653,37.0,0.0,0.0,4459.48717948718,4176.410256410257,4328.205128205129,4816.410256410257,3784.615384615385,4215.8974358974365,4248.205128205129,4104.615384615385,4404.615384615385,4084.1025641025644,4263.589743589744,4330.769230769231,4432.307692307693,4383.589743589744,1676.0,1689.0,1732.399,1618.6253662109375,0.0,0.0,0.0,0.0
1730654,38.0,0.0,0.0,4456.410256410257,4173.846153846154,4328.717948717949,4815.384615384616,3782.0512820512827,4218.461538461539,4251.282051282052,4096.410256410257,4394.358974358975,4080.0000000000005,4265.128205128206,4329.743589743591,4427.6923076923085,4385.128205128206,1677.0,1688.0,1732.408,1618.6253662109375,0.0,0.0,0.0,0.0
1730781,39.0,0.0,0.0,4461.025641025642,4165.128205128206,4328.205128205129,4808.717948717949,3777.9487179487182,4218.974358974359,4251.282051282052,4091.2820512820517,4384.102564102564,4071.7948717948725,4263.076923076924,4328.717948717949,4420.512820512821,4381.538461538462,1677.0,1687.0,1732.414,1618.75048828125,0.0,0.0,0.0,0.0
1730781,40.0,0.0,0.0,4464.615384615385,4162.564102564103,4325.641025641026,4812.307692307693,3775.8974358974365,4216.923076923077,4248.717948717949,4095.8974358974365,4386.153846153847,4066.666666666667,4263.076923076924,4330.769230769231,4417.435897435898,4380.000000000001,1678.0,1687.0,1732.422,1618.75048828125,0.0,0.0,0.0,0.0
1730781,41.0,0.0,0.0,4463.076923076924,4167.6923076923085,4328.717948717949,4810.769230769231,3780.0000000000005,4221.538461538462,4254.871794871796,4103.076923076924,4391.794871794872,4070.7692307692314,4264.102564102564,4332.307692307693,4418.974358974359,4383.076923076924,1679.0,1685.0,1732.431,1618.75048828125,0.0,0.0,0.0,0.0
1730781,42.0,0.0,0.0,4463.589743589744,4170.769230769231,4334.871794871796,4814.871794871796,3785.1282051282055,4225.128205128206,4260.512820512821,4103.589743589744,4390.256410256411,4078.461538461539,4265.128205128206,4334.871794871796,4424.615384615385,4385.641025641026,1678.0,1685.0,1732.438,1618.75048828125,0.0,0.0,0.0,0.0
1730782,43.0,0.0,0.0,4465.128205128206,4171.282051282052,4333.846153846154,4814.358974358975,3786.1538461538466,4223.589743589744,4261.025641025642,4104.102564102564,4394.358974358975,4084.1025641025644,4266.153846153847,4336.410256410257,4426.666666666667,4388.205128205129,1680.0,1684.0,1732.446,1618.75048828125,0.0,0.0,0.0,0.0
1730782,44.0,0.0,0.0,4464.102564102564,4169.74358974359,4328.205128205129,4806.153846153847,3786.666666666667,4226.153846153847,4264.102564102564,4111.794871794872,4408.717948717949,4086.666666666667,4265.128205128206,4334.358974358975,4421.538461538462,4391.282051282052,1679.0,1684.0,1732.453,1618.75048828125,0.0,0.0,0.0,0.0
1730782,45.0,0.0,0.0,4464.102564102564,4167.6923076923085,4326.666666666667,4809.743589743591,3788.717948717949,4229.2307692307695,4265.128205128206,4114.871794871796,4413.846153846154,4089.7435897435903,4264.615384615385,4333.846153846154,4423.076923076924,4390.769230769231,1680.0,1684.0,1732.462,1618.75048828125,0.0,0.0,0.0,0.0
1730782,46.0,0.0,0.0,4465.641025641026,4168.205128205129,4329.743589743591,4809.743589743591,3788.717948717949,4227.6923076923085,4261.025641025642,4110.256410256411,4405.641025641026,4088.717948717949,4264.102564102564,4333.333333333334,4426.153846153847,4388.717948717949,1680.0,1685.0,1732.469,1618.75048828125,0.0,0.0,0.0,0.0
1730782,47.0,0.0,0.0,4460.512820512821,4164.615384615385,4328.717948717949,4814.358974358975,3785.6410256410263,4224.615384615385,4257.435897435898,4100.000000000001,4392.820512820514,4075.3846153846157,4264.102564102564,4330.256410256411,4414.358974358975,4383.589743589744,1682.0,1686.0,1732.478,1618.75048828125,0.0,0.0,0.0,0.0
1730782,48.0,0.0,0.0,4455.384615384616,4162.051282051282,4325.128205128206,4815.384615384616,3784.1025641025644,4221.538461538462,4254.358974358975,4088.205128205129,4385.128205128206,4066.1538461538466,4263.076923076924,4328.717948717949,4403.589743589744,4377.948717948719,1683.0,1688.0,1732.485,1618.75048828125,0.0,0.0,0.0,0.0
1730782,49.0,0.0,0.0,4458.974358974359,4166.666666666667,4323.589743589744,4807.6923076923085,3784.1025641025644,4221.025641025642,4254.358974358975,4087.1794871794878,4389.743589743591,4068.717948717949,4262.051282051282,4329.2307692307695,4407.6923076923085,4378.461538461539,1685.0,1690.0,1732.492,1618.75048828125,0.0,0.0,0.0,0.0
1730783,50.0,0.0,0.0,4461.025641025642,4168.205128205129,4322.564102564103,4811.794871794872,3787.692307692308,4223.076923076924,4255.8974358974365,4094.8717948717954,4396.410256410257,4071.2820512820517,4265.641025641026,4328.205128205129,4409.2307692307695,4380.000000000001,1686.0,1691.0,1732.5,1618.75048828125,0.0,0.0,0.0,0.0
1730783,51.0,0.0,0.0,4458.461538461539,4164.615384615385,4323.076923076924,4811.282051282052,3791.7948717948725,4227.179487179487,4258.461538461539,4102.564102564103,4400.512820512821,4077.9487179487187,4266.153846153847,4327.179487179487,4409.2307692307695,4380.512820512821,1687.0,1693.0,1732.509,1618.75048828125,0.0,0.0,0.0,0.0
1730783,52.0,0.0,0.0,4462.564102564103,4165.128205128206,4327.179487179487,4810.769230769231,3789.7435897435903,4228.205128205129,4260.000000000001,4110.256410256411,4407.179487179487,4087.692307692308,4264.615384615385,4334.358974358975,4416.410256410257,4384.102564102564,1688.0,1691.0,1732.516,1618.75048828125,0.0,0.0,0.0,0.0
1730784,53.0,0.0,0.0,4469.2307692307695,4170.256410256411,4329.743589743591,4812.307692307693,3784.615384615385,4223.076923076924,4260.512820512821,4114.871794871796,4410.769230769231,4090.7692307692314,4264.102564102564,4338.974358974359,4421.025641025642,4391.282051282052,1687.0,1691.0,1732.524,1618.75048828125,0.0,0.0,0.0,0.0
1730784,54.0,0.0,0.0,4464.102564102564,4170.769230769231,4328.717948717949,4806.666666666667,3786.1538461538466,4221.025641025642,4260.512820512821,4108.205128205129,4405.641025641026,4088.205128205129,4263.589743589744,4331.282051282052,4421.538461538462,4390.256410256411,1686.0,1689.0,1732.532,1618.75048828125,0.0,0.0,0.0,0.0
1730804,55.0,0.0,0.0,4450.769230769231,4161.538461538462,4320.512820512821,4812.820512820514,3786.666666666667,4222.564102564103,4256.923076923077,4099.48717948718,4400.512820512821,4084.615384615385,4266.153846153847,4326.666666666667,4420.512820512821,4377.435897435898,1684.0,1688.0,1732.539,1618.8756103515625,0.0,0.0,0.0,0.0
1730804,56.0,0.0,0.0,4446.666666666667,4151.282051282052,4311.794871794872,4811.282051282052,3781.538461538462,4223.589743589744,4253.846153846154,4102.051282051282,4406.153846153847,4082.0512820512827,4264.615384615385,4324.102564102564,4416.410256410257,4368.717948717949,1682.0,1687.0,1732.547,1618.8756103515625,0.0,0.0,0.0,0.0
1730804,57.0,0.0,0.0,4449.2307692307695,4149.74358974359,4308.717948717949,4803.589743589744,3782.0512820512827,4224.615384615385,4254.871794871796,4107.6923076923085,4411.282051282052,4076.9230769230776,4266.666666666667,4323.076923076924,4412.820512820514,4369.743589743591,1679.0,1684.0,1732.555,1618.8756103515625,0.0,0.0,0.0,0.0
1730804,58.0,0.0,0.0,4451.794871794872,4152.820512820514,4311.282051282052,4806.666666666667,3791.2820512820517,4231.794871794872,4258.461538461539,4106.153846153847,4401.025641025642,4070.2564102564106,4268.717948717949,4327.6923076923085,4411.794871794872,4372.820512820514,1676.0,1683.0,1732.564,1618.8756103515625,0.0,0.0,0.0,0.0
1731287,59.0,0.0,0.0,4453.846153846154,4152.820512820514,4316.410256410257,4808.717948717949,3794.8717948717954,4238.974358974359,4261.538461538462,4101.538461538462,4384.615384615385,4069.23076923077,4263.589743589744,4329.743589743591,4411.794871794872,4372.820512820514,1673.0,1682.0,1732.571,1618.9068603515625,0.0,0.0,0.0,0.0
1731287,60.0,0.0,0.0,4456.410256410257,4153.846153846154,4320.512820512821,4815.384615384616,3789.2307692307695,4233.333333333334,4258.974358974359,4100.000000000001,4380.000000000001,4071.7948717948725,4264.615384615385,4329.2307692307695,4414.358974358975,4375.8974358974365,1671.0,1681.0,1732.578,1618.9068603515625,0.0,0.0,0.0,0.0
1731287,61.0,0.0,0.0,4463.076923076924,4162.051282051282,4326.666666666667,4811.794871794872,3783.589743589744,4222.564102564103,4253.846153846154,4101.025641025642,4391.794871794872,4074.8717948717954,4265.641025641026,4333.333333333334,4420.000000000001,4386.666666666667,1671.0,1680.0,1732.586,1618.9068603515625,0.0,0.0,0.0,0.0
1731288,62.0,0.0,0.0,4471.794871794872,4167.179487179487,4329.2307692307695,4806.153846153847,3785.6410256410263,4218.974358974359,4249.74358974359,4100.000000000001,4397.435897435898,4077.9487179487187,4264.615384615385,4334.358974358975,4421.025641025642,4394.358974358975,1673.0,1681.0,1732.594,1618.9068603515625,0.0,0.0,0.0,0.0
1731288,63.0,0.0,0.0,4470.256410256411,4163.589743589744,4325.128205128206,4812.307692307693,3785.1282051282055,4217.948717948719,4246.666666666667,4097.435897435898,4392.307692307693,4077.435897435898,4264.615384615385,4332.307692307693,4418.974358974359,4389.2307692307695,1674.0,1683.0,1732.602,1618.9068603515625,0.0,0.0,0.0,0.0
1731288,64.0,0.0,513.0,4465.641025641026,4165.128205128206,4324.615384615385,4810.256410256411,3779.48717948718,4220.000000000001,4247.179487179487,4100.000000000001,4396.410256410257,4080.0000000000005,4262.564102564103,4333.333333333334,4424.102564102564,4388.205128205129,1676.0,1684.0,1732.611,1618.9068603515625,0.0,0.0,0.0,0.0
1731288,65.0,0.0,0.0,4467.6923076923085,4170.256410256411,4329.2307692307695,4813.846153846154,3778.9743589743593,4222.051282051282,4250.769230769231,4105.641025641026,4406.153846153847,4087.692307692308,4265.641025641026,4336.923076923077,4431.282051282052,4394.871794871796,1678.0,1685.0,1732.618,1618.9068603515625,0.0,0.0,0.0,0.0
1731288,66.0,0.0,511.0,4468.205128205129,4168.717948717949,4329.2307692307695,4814.871794871796,3782.564102564103,4221.025641025642,4254.358974358975,4104.102564102564,4404.102564102564,4088.717948717949,4266.153846153847,4335.384615384616,4430.256410256411,4395.384615384616,1680.0,1686.0,1732.625,1618.9068603515625,0.0,0.0,0.0,0.0
1731288,67.0,0.0,531.0,4463.589743589744,4166.153846153847,4327.179487179487,4810.256410256411,3779.48717948718,4220.000000000001,4252.820512820514,4097.435897435898,4397.435897435898,4085.1282051282055,4261.025641025642,4333.333333333334,4424.102564102564,4392.820512820514,1682.0,1687.0,1732.633,1618.9068603515625,0.0,0.0,0.0,0.0
1731288,68.0,0.0,504.0,4462.051282051282,4165.641025641026,4327.179487179487,4814.871794871796,3775.3846153846157,4221.538461538462,4249.74358974359,4094.358974358975,4397.435897435898,4081.538461538462,4262.564102564103,4333.846153846154,4418.974358974359,4391.282051282052,1684.0,1686.0,1732.641,1618.9068603515625,0.0,0.0,0.0,0.0
1731289,69.0,0.0,552.0,4464.102564102564,4165.641025641026,4325.128205128206,4811.794871794872,3778.461538461539,4224.615384615385,4256.923076923077,4102.051282051282,4406.666666666667,4083.589743589744,4265.128205128206,4333.333333333334,4423.076923076924,4389.2307692307695,1685.0,1684.0,1732.65,1618.9068603515625,0.0,0.0,0.0,0.0
1731289,70.0,0.0,548.0,4461.538461538462,4162.564102564103,4324.615384615385,4811.794871794872,3783.589743589744,4228.717948717949,4266.153846153847,4115.8974358974365,4427.6923076923085,4095.3846153846157,4265.641025641026,4336.923076923077,4428.717948717949,4389.2307692307695,1686.0,1685.0,1732.657,1618.9068603515625,0.0,0.0,0.0,0.0
1731289,71.0,0.0,369.0,4458.461538461539,4164.102564102564,4326.153846153847,4813.333333333334,3787.692307692308,4233.333333333334,4267.6923076923085,4119.48717948718,4441.538461538462,4103.076923076924,4266.666666666667,4337.435897435898,4426.666666666667,4390.769230769231,1688.0,1682.0,1732.664,1618.9068603515625,0.0,0.0,0.0,0.0
1731289,72.0,0.0,461.0,4458.974358974359,4168.717948717949,4326.153846153847,4808.205128205129,3788.205128205129,4233.846153846154,4262.564102564103,4107.179487179487,4424.615384615385,4094.8717948717954,4264.615384615385,4332.820512820514,4424.102564102564,4391.794871794872,1686.0,1683.0,1732.672,1618.9068603515625,0.0,0.0,0.0,0.0
1731289,73.0,0.0,478.0,4464.102564102564,4170.256410256411,4329.743589743591,4813.846153846154,3784.615384615385,4226.666666666667,4257.435897435898,4097.435897435898,4400.000000000001,4085.6410256410263,4262.564102564103,4339.48717948718,4429.2307692307695,4392.820512820514,1687.0,1682.0,1732.681,1618.9068603515625,0.0,0.0,0.0,0.0
1731289,74.0,0.0,493.0,4472.820512820514,4175.8974358974365,4340.512820512821,4811.282051282052,3784.615384615385,4223.076923076924,4254.871794871796,4100.000000000001,4394.358974358975,4093.333333333334,4263.589743589744,4345.641025641026,4440.000000000001,4396.410256410257,1685.0,1683.0,1732.688,1618.9068603515625,0.0,0.0,0.0,0.0
1731289,75.0,0.0,490.0,4475.8974358974365,4184.102564102564,4343.076923076924,4809.2307692307695,3788.205128205129,4223.076923076924,4250.769230769231,4101.025641025642,4395.8974358974365,4102.564102564103,4265.128205128206,4339.48717948718,4444.102564102564,4401.538461538462,1684.0,1684.0,1732.697,1618.9068603515625,0.0,0.0,0.0,0.0
1731289,76.0,0.0,0.0,4473.846153846154,4180.512820512821,4332.820512820514,4812.820512820514,3788.205128205129,4218.974358974359,4249.74358974359,4097.435897435898,4393.333333333334,4096.923076923077,4264.102564102564,4334.358974358975,4434.871794871796,4399.48717948718,1683.0,1685.0,1732.704,1618.9068603515625,0.0,0.0,0.0,0.0
1731290,77.0,0.0,327.0,4470.769230769231,4171.794871794872,4328.205128205129,4808.205128205129,3786.666666666667,4221.025641025642,4252.820512820514,4101.538461538462,4399.48717948718,4089.7435897435903,4262.564102564103,4334.871794871796,4423.589743589744,4389.743589743591,1681.0,1687.0,1732.712,1618.9068603515625,0.0,0.0,0.0,0.0
1731290,78.0,0.0,493.0,4467.6923076923085,4171.282051282052,4329.2307692307695,4814.358974358975,3787.692307692308,4225.128205128206,4251.794871794872,4105.128205128206,4407.6923076923085,4089.7435897435903,4263.589743589744,4334.358974358975,4421.538461538462,4384.615384615385,1680.0,1687.0,1732.719,1618.9068603515625,0.0,0.0,0.0,0.0
1731290,79.0,0.0,490.0,4463.076923076924,4172.307692307693,4326.666666666667,4815.8974358974365,3786.666666666667,4223.589743589744,4248.717948717949,4103.076923076924,4403.589743589744,4088.717948717949,4264.102564102564,4329.743589743591,4422.051282051282,4382.051282051282,1679.0,1688.0,1732.728,1618.9068603515625,0.0,0.0,0.0,0.0
1731290,80.0,0.0,0.0,4460.000000000001,4165.641025641026,4320.000000000001,4811.282051282052,3783.589743589744,4221.538461538462,4248.717948717949,4100.512820512821,4395.8974358974365,4079.48717948718,4264.102564102564,4326.666666666667,4414.358974358975,4372.307692307693,1677.0,1687.0,1732.735,1618.9068603515625,0.0,0.0,0.0,0.0
1731290,81.0,0.0,327.0,4460.000000000001,4161.025641025642,4316.923076923077,4809.2307692307695,3782.564102564103,4222.051282051282,4246.153846153847,4096.410256410257,4393.846153846154,4072.820512820513,4264.102564102564,4329.2307692307695,4410.256410256411,4369.2307692307695,1676.0,1690.0,1732.743,1618.9068603515625,0.0,0.0,0.0,0.0
1731290,82.0,0.0,493.0,4455.384615384616,4163.076923076924,4316.410256410257,4806.153846153847,3781.538461538462,4222.564102564103,4244.615384615385,4091.2820512820517,4392.307692307693,4073.333333333334,4264.615384615385,4325.128205128206,4412.820512820514,4373.333333333334,1676.0,1690.0,1732.75,1618.9068603515625,0.0,0.0,0.0,0.0
1731290,83.0,0.0,490.0,4444.615384615385,4157.435897435898,4307.179487179487,4814.358974358975,3780.512820512821,4221.538461538462,4245.128205128206,4088.717948717949,4383.076923076924,4072.820512820513,4266.153846153847,4316.923076923077,4408.205128205129,4366.153846153847,1674.0,1693.0,1732.758,1618.9068603515625,0.0,0.0,0.0,0.0
1731290,84.0,0.0,0.0,4440.512820512821,4150.256410256411,4300.000000000001,4813.333333333334,3779.48717948718,4221.025641025642,4245.128205128206,4094.8717948717954,4388.717948717949,4076.9230769230776,4264.615384615385,4318.461538461539,4407.179487179487,4360.512820512821,1675.0,1694.0,1732.766,1618.9068603515625,0.0,0.0,0.0,0.0
1731291,85.0,0.0,327.0,4446.666666666667,4153.846153846154,4304.102564102564,4808.205128205129,3778.461538461539,4222.051282051282,4250.769230769231,4101.538461538462,4408.717948717949,4084.1025641025644,4265.128205128206,4324.615384615385,4411.794871794872,4366.666666666667,1674.0,1693.0,1732.774,1618.9068603515625,0.0,0.0,0.0,0.0
1731291,86.0,0.0,493.0,4455.384615384616,4162.564102564103,4313.333333333334,4812.820512820514,3782.0512820512827,4225.128205128206,4256.923076923077,4102.051282051282,4408.717948717949,4083.076923076924,4266.666666666667,4331.282051282052,4414.871794871796,4377.435897435898,1674.0,1694.0,1732.782,1618.9068603515625,0.0,0.0,0.0,0.0
1731291,87.0,0.0,490.0,4463.589743589744,4169.74358974359,4325.128205128206,4808.717948717949,3787.692307692308,4229.2307692307695,4260.512820512821,4106.666666666667,4407.6923076923085,4088.205128205129,4264.102564102564,4338.974358974359,4425.641025641026,4389.743589743591,1674.0,1691.0,1732.79,1618.9068603515625,0.0,0.0,0.0,0.0
1731291,88.0,0.0,0.0,4466.153846153847,4172.820512820514,4332.820512820514,4812.307692307693,3790.7692307692314,4227.6923076923085,4264.102564102564,4118.974358974359,4420.000000000001,4102.564102564103,4264.615384615385,4343.076923076924,4436.923076923077,4398.461538461539,1675.0,1689.0,1732.797,1618.9068603515625,0.0,0.0,0.0,0.0
1731291,89.0,0.0,327.0,4459.48717948718,4166.153846153847,4327.6923076923085,4816.410256410257,3793.333333333334,4231.282051282052,4267.179487179487,4122.051282051282,4416.410256410257,4099.48717948718,4264.102564102564,4334.871794871796,4431.282051282052,4392.307692307693,1676.0,1686.0,1732.805,1618.9068603515625,0.0,0.0,0.0,0.0
1731291,90.0,0.0,493.0,4451.794871794872,4150.769230769231,4314.358974358975,4810.256410256411,3790.2564102564106,4235.384615384616,4267.179487179487,4109.74358974359,4402.051282051282,4083.076923076924,4261.025641025642,4326.153846153847,4417.435897435898,4376.923076923077,1677.0,1685.0,1732.814,1618.9068603515625,0.0,0.0,0.0,0.0
1731291,91.0,0.0,490.0,4451.794871794872,4151.282051282052,4312.307692307693,4811.282051282052,3785.1282051282055,4225.128205128206,4263.076923076924,4095.8974358974365,4408.205128205129,4084.615384615385,4264.102564102564,4328.205128205129,4414.358974358975,4375.384615384616,1679.0,1684.0,1732.821,1618.9068603515625,0.0,0.0,0.0,0.0
1731292,92.0,0.0,0.0,4462.051282051282,4168.717948717949,4323.589743589744,4807.6923076923085,3789.7435897435903,4213.333333333334,4261.025641025642,4095.3846153846157,4417.948717948719,4098.974358974359,4264.615384615385,4335.384615384616,4423.589743589744,4387.179487179487,1679.0,1684.0,1732.829,1618.9068603515625,0.0,0.0,0.0,0.0
1731292,93.0,0.0,327.0,4466.153846153847,4171.282051282052,4328.205128205129,4809.2307692307695,3791.7948717948725,4212.820512820514,4260.000000000001,4101.025641025642,4408.717948717949,4096.923076923077,4265.128205128206,4340.000000000001,4428.205128205129,4388.717948717949,1681.0,1683.0,1732.837,1618.9068603515625,0.0,0.0,0.0,0.0
1731292,94.0,0.0,493.0,4464.615384615385,4163.589743589744,4323.589743589744,4812.820512820514,3786.666666666667,4218.461538461539,4257.948717948719,4097.948717948719,4398.974358974359,4085.6410256410263,4264.615384615385,4335.8974358974365,4423.589743589744,4380.000000000001,1681.0,1684.0,1732.845,1618.9068603515625,0.0,0.0,0.0,0.0
1731292,95.0,0.0,490.0,4466.666666666667,4164.102564102564,4321.025641025642,4807.179487179488,3786.1538461538466,4221.025641025642,4254.871794871796,4105.641025641026,4394.871794871796,4083.076923076924,4260.512820512821,4327.179487179487,4419.48717948718,4376.410256410257,1683.0,1684.0,1732.852,1618.9068603515625,0.0,0.0,0.0,0.0
1731292,96.0,0.0,0.0,4465.128205128206,4162.051282051282,4315.8974358974365,4812.820512820514,3785.6410256410263,4213.846153846154,4247.179487179487,4137.948717948719,4391.794871794872,4082.0512820512827,4265.641025641026,4324.102564102564,4416.923076923077,4374.871794871796,1683.0,1684.0,1732.861,1618.9068603515625,0.0,0.0,0.0,0.0
1731292,97.0,0.0,327.0,4461.538461538462,4159.48717948718,4309.743589743591,4812.820512820514,3779.48717948718,4206.666666666667,4243.076923076924,4162.051282051282,4395.8974358974365,4084.1025641025644,4266.666666666667,4324.102564102564,4420.512820512821,4371.282051282052,1683.0,1686.0,1732.869,1618.9068603515625,0.0,0.0,0.0,0.0
1731292,98.0,0.0,493.0,4469.2307692307695,4166.666666666667,4313.846153846154,4810.769230769231,3781.0256410256416,4210.769230769231,4248.205128205129,4163.589743589744,4405.128205128206,4095.3846153846157,4263.589743589744,4330.769230769231,4430.256410256411,4377.948717948719,1683.0,1686.0,1732.876,1618.9068603515625,0.0,0.0,0.0,0.0
1731292,99.0,0.0,490.0,4483.076923076924,4175.384615384616,4325.641025641026,4812.820512820514,3788.717948717949,4219.48717948718,4254.871794871796,4168.717948717949,4412.307692307693,4107.6923076923085,4264.102564102564,4337.435897435898,4436.410256410257,4386.153846153847,1682.0,1688.0,1732.883,1618.9068603515625,0.0,0.0,0.0,0.0
1731293,100.0,0.0,0.0,4484.615384615385,4177.435897435898,4327.179487179487,4810.769230769231,3790.2564102564106,4223.076923076924,4256.410256410257,4174.358974358975,4418.461538461539,4107.6923076923085,4263.589743589744,4332.820512820514,4437.948717948719,4383.589743589744,1681.0,1687.0,1732.891,1618.9068603515625,0.0,0.0,0.0,0.0
1731293,101.0,0.0,327.0,4477.435897435898,4177.435897435898,4318.974358974359,4814.871794871796,3788.717948717949,4222.564102564103,4254.358974358975,4167.179487179487,4414.358974358975,4101.025641025642,4264.102564102564,4329.743589743591,4436.410256410257,4377.435897435898,1680.0,1689.0,1732.899,1618.9068603515625,0.0,0.0,0.0,0.0
1731293,102.0,0.0,493.0,4474.871794871796,4178.461538461539,4320.512820512821,4812.307692307693,3787.692307692308,4220.512820512821,4254.358974358975,4161.025641025642,4404.102564102564,4096.923076923077,4265.128205128206,4329.743589743591,4433.846153846154,4375.384615384616,1679.0,1688.0,1732.907,1618.9068603515625,0.0,0.0,0.0,0.0
1731293,103.0,0.0,490.0,4476.923076923077,4180.000000000001,4324.102564102564,4809.743589743591,3785.6410256410263,4218.461538461539,4249.2307692307695,4157.435897435898,4396.410256410257,4090.2564102564106,4266.153846153847,4325.641025641026,4425.641025641026,4372.820512820514,1679.0,1687.0,1732.915,1618.9068603515625,0.0,0.0,0.0,0.0
1731293,104.0,0.0,0.0,4474.358974358975,4173.846153846154,4313.846153846154,4813.333333333334,3782.564102564103,4215.8974358974365,4241.538461538462,4153.333333333334,4386.666666666667,4077.9487179487187,4264.615384615385,4322.051282051282,4413.333333333334,4367.179487179487,1680.0,1684.0,1732.922,1618.9068603515625,0.0,0.0,0.0,0.0
1731294,105.0,0.0,327.0,4470.769230769231,4168.717948717949,4309.743589743591,4808.205128205129,3778.9743589743593,4215.8974358974365,4237.948717948719,4156.410256410257,4382.051282051282,4075.8974358974365,4262.051282051282,4324.102564102564,4413.846153846154,4367.6923076923085,1678.0,1685.0,1732.93,1618.9068603515625,0.0,0.0,0.0,0.0
1731294,106.0,0.0,493.0,4472.820512820514,4172.307692307693,4316.923076923077,4814.358974358975,3776.9230769230776,4209.74358974359,4233.846153846154,4163.076923076924,4386.666666666667,4085.6410256410263,4264.615384615385,4329.743589743591,4424.615384615385,4374.871794871796,1679.0,1686.0,1732.938,1618.9068603515625,0.0,0.0,0.0,0.0
1731294,107.0,0.0,490.0,4480.000000000001,4180.000000000001,4322.564102564103,4816.410256410257,3779.48717948718,4202.051282051282,4234.871794871796,4170.256410256411,4394.871794871796,4093.8461538461543,4266.153846153847,4333.333333333334,4431.282051282052,4381.025641025642,1679.0,1686.0,1732.947,1618.9068603515625,0.0,0.0,0.0,0.0
1731294,108.0,0.0,0.0,4485.641025641026,4183.076923076924,4328.717948717949,4810.256410256411,3783.589743589744,4203.589743589744,4245.128205128206,4174.871794871796,4401.538461538462,4094.358974358975,4263.076923076924,4331.794871794872,4429.2307692307695,4384.615384615385,1680.0,1688.0,1732.954,1618.9068603515625,0.0,0.0,0.0,0.0
1731295,109.0,0.0,327.0,4480.512820512821,4174.358974358975,4324.615384615385,4811.794871794872,3781.538461538462,4210.256410256411,4247.6923076923085,4171.282051282052,4403.076923076924,4087.692307692308,4263.076923076924,4327.6923076923085,4421.538461538462,4378.974358974359,1681.0,1687.0,1732.962,1618.9068603515625,0.0,0.0,0.0,0.0
1731295,110.0,0.0,493.0,4472.820512820514,4168.205128205129,4312.820512820514,4807.6923076923085,3777.9487179487182,4211.794871794872,4244.102564102564,4164.102564102564,4401.538461538462,4082.564102564103,4264.615384615385,4326.153846153847,4415.8974358974365,4370.256410256411,1680.0,1689.0,1732.969,1618.9068603515625,0.0,0.0,0.0,0.0
1731295,111.0,0.0,490.0,4474.358974358975,4169.74358974359,4313.333333333334,4811.794871794872,3782.0512820512827,4210.256410256411,4245.641025641026,4156.410256410257,4395.384615384616,4080.0000000000005,4266.153846153847,4326.666666666667,4416.410256410257,4370.769230769231,1682.0,1687.0,1732.978,1618.9068603515625,0.0,0.0,0.0,0.0
1731295,112.0,0.0,0.0,4480.000000000001,4171.282051282052,4324.102564102564,4815.384615384616,3784.615384615385,4211.282051282052,4247.6923076923085,4126.153846153847,4394.358974358975,4080.0000000000005,4266.666666666667,4327.179487179487,4418.974358974359,4377.435897435898,1682.0,1686.0,1732.985,1618.9068603515625,0.0,0.0,0.0,0.0
1731295,113.0,0.0,327.0,4484.615384615385,4173.846153846154,4326.153846153847,4809.2307692307695,3782.0512820512827,4213.333333333334,4248.205128205129,4081.538461538462,4403.589743589744,4086.666666666667,4264.102564102564,4328.205128205129,4420.512820512821,4378.974358974359,1682.0,1685.0,1732.993,1618.9068603515625,0.0,0.0,0.0,0.0
1731295,114.0,0.0,493.0,4483.589743589744,4174.871794871796,4322.051282051282,4811.794871794872,3782.564102564103,4215.384615384616,4250.256410256411,4059.48717948718,4406.153846153847,4089.23076923077,4264.102564102564,4332.820512820514,4420.512820512821,4378.974358974359,1682.0,1685.0,1733.001,1618.9068603515625,0.0,0.0,0.0,0.0
1731295,115.0,0.0,490.0,4479.48717948718,4172.820512820514,4323.589743589744,4811.282051282052,3783.076923076924,4215.8974358974365,4251.282051282052,4058.461538461539,4395.8974358974365,4086.1538461538466,4265.128205128206,4334.871794871796,4421.538461538462,4383.076923076924,1683.0,1685.0,1733.008,1618.9068603515625,0.0,0.0,0.0,0.0
1731296,116.0,0.0,0.0,4479.48717948718,4170.769230769231,4326.153846153847,4813.333333333334,3780.0000000000005,4209.74358974359,4246.666666666667,4056.9230769230776,4392.820512820514,4085.1282051282055,4265.641025641026,4333.333333333334,4421.538461538462,4382.564102564103,1682.0,1686.0,1733.016,1618.9068603515625,0.0,0.0,0.0,0.0
1731296,117.0,0.0,327.0,4484.615384615385,4173.846153846154,4327.6923076923085,4812.820512820514,3778.9743589743593,4205.128205128206,4243.589743589744,4054.8717948717954,4400.000000000001,4084.615384615385,4263.589743589744,4333.333333333334,4420.000000000001,4382.051282051282,1682.0,1685.0,1733.024,1618.9068603515625,0.0,0.0,0.0,0.0
1731296,118.0,0.0,493.0,4482.051282051282,4175.8974358974365,4327.179487179487,4808.205128205129,3779.48717948718,4206.666666666667,4245.641025641026,4056.410256410257,4397.948717948719,4080.5128205128212,4263.589743589744,4334.871794871796,4420.512820512821,4382.564102564103,1681.0,1684.0,1733.032,1618.9068603515625,0.0,0.0,0.0,0.0
1731306,119.0,0.0,490.0,4474.358974358975,4167.6923076923085,4321.538461538462,4814.871794871796,3780.512820512821,4205.128205128206,4248.717948717949,4052.820512820513,4389.2307692307695,4075.3846153846157,4266.153846153847,4333.846153846154,4413.846153846154,4377.948717948719,1681.0,1682.0,1733.04,1619.3759765625,0.0,0.0,0.0,0.0
1731306,120.0,0.0,0.0,4471.282051282052,4162.051282051282,4320.000000000001,4810.769230769231,3781.538461538462,4207.179487179487,4252.307692307693,4051.2820512820517,4392.820512820514,4073.8461538461543,4264.102564102564,4328.717948717949,4406.153846153847,4371.282051282052,1680.0,1682.0,1733.048,1619.3759765625,0.0,0.0,0.0,0.0
1731306,121.0,0.0,327.0,4473.846153846154,4163.589743589744,4320.512820512821,4808.717948717949,3778.9743589743593,4210.769230769231,4250.769230769231,4060.5128205128212,4397.435897435898,4072.307692307693,4264.615384615385,4328.205128205129,4409.2307692307695,4368.205128205129,1681.0,1680.0,1733.055,1619.3759765625,0.0,0.0,0.0,0.0
1731306,122.0,0.0,493.0,4478.461538461539,4162.564102564103,4318.461538461539,4813.846153846154,3777.435897435898,4209.74358974359,4247.6923076923085,4066.666666666667,4400.000000000001,4072.307692307693,4265.128205128206,4332.307692307693,4410.769230769231,4371.794871794872,1681.0,1681.0,1733.064,1619.3759765625,0.0,0.0,0.0,0.0
1731779,123.0,0.0,490.0,4478.461538461539,4159.48717948718,4317.435897435898,4807.179487179488,3781.538461538462,4214.358974358975,4253.333333333334,4065.1282051282055,4403.589743589744,4072.307692307693,4261.025641025642,4330.256410256411,4404.102564102564,4372.307692307693,1683.0,1680.0,1733.071,1619.4073486328125,0.0,0.0,0.0,0.0
1731779,124.0,0.0,0.0,4473.846153846154,4159.48717948718,4318.461538461539,4814.358974358975,3786.1538461538466,4220.512820512821,4257.435897435898,4083.076923076924,4397.435897435898,4068.205128205129,4264.102564102564,4325.641025641026,4400.512820512821,4367.6923076923085,1682.0,1682.0,1733.08,1619.4073486328125,0.0,0.0,0.0,0.0
1731779,125.0,0.0,327.0,4479.48717948718,4166.153846153847,4322.051282051282,4816.410256410257,3788.717948717949,4218.974358974359,4251.282051282052,4127.179487179487,4389.2307692307695,4070.2564102564106,4265.128205128206,4326.153846153847,4408.717948717949,4369.743589743591,1685.0,1682.0,1733.087,1619.4073486328125,0.0,0.0,0.0,0.0
1731780,126.0,0.0,493.0,4490.769230769231,4172.820512820514,4327.6923076923085,4809.2307692307695,3788.717948717949,4214.871794871796,4243.589743589744,4154.358974358975,4393.846153846154,4080.5128205128212,4263.589743589744,4331.282051282052,4415.8974358974365,4378.461538461539,1685.0,1683.0,1733.096,1619.4073486328125,0.0,0.0,0.0,0.0
1731780,127.0,0.0,490.0,4489.743589743591,4175.384615384616,4327.179487179487,4809.2307692307695,3790.7692307692314,4215.384615384616,4245.128205128206,4153.333333333334,4405.641025641026,4087.1794871794878,4265.128205128206,4332.307692307693,4416.410256410257,4381.538461538462,1687.0,1686.0,1733.102,1619.4073486328125,0.0,0.0,0.0,0.0
1731780,128.0,0.0,0.0,4483.076923076924,4174.358974358975,4324.102564102564,4807.179487179488,3793.8461538461543,4222.564102564103,4252.307692307693,4151.282051282052,4410.256410256411,4087.692307692308,4264.102564102564,4329.2307692307695,4416.410256410257,4380.000000000001,1688.0,1684.0,1733.11,1619.4073486328125,0.0,0.0,0.0,0.0
1731780,0.0,0.0,513.0,4478.974358974359,4172.307692307693,4324.102564102564,4813.333333333334,3793.333333333334,4224.615384615385,4252.820512820514,4150.769230769231,4405.128205128206,4087.692307692308,4267.179487179487,4330.769230769231,4416.410256410257,4377.435897435898,1687.0,1685.0,1733.118,1619.4073486328125,0.0,0.0,0.0,0.0
1731781,1.0,0.0,0.0,4478.461538461539,4171.282051282052,4324.102564102564,4814.358974358975,3789.7435897435903,4221.025641025642,4250.769230769231,4151.282051282052,4404.102564102564,4088.205128205129,4268.205128205129,4332.307692307693,4416.923076923077,4375.8974358974365,1688.0,1684.0,1733.126,1619.4073486328125,0.0,0.0,0.0,0.0
1731781,2.0,0.0,511.0,4481.538461538462,4169.74358974359,4322.564102564103,4809.743589743591,3789.7435897435903,4225.128205128206,4251.794871794872,4153.333333333334,4411.282051282052,4088.205128205129,4262.564102564103,4327.6923076923085,4416.923076923077,4377.435897435898,1688.0,1684.0,1733.135,1619.4073486328125,0.0,0.0,0.0,0.0
1731781,3.0,0.0,531.0,4486.153846153847,4170.256410256411,4322.564102564103,4812.307692307693,3791.7948717948725,4227.179487179487,4248.205128205129,4144.615384615385,4407.179487179487,4086.666666666667,4262.051282051282,4327.179487179487,4415.8974358974365,4376.923076923077,1688.0,1684.0,1733.141,1619.4073486328125,0.0,0.0,0.0,0.0
1731781,4.0,0.0,504.0,4485.641025641026,4175.8974358974365,4326.153846153847,4810.769230769231,3788.717948717949,4218.461538461539,4244.102564102564,4135.384615384616,4395.8974358974365,4086.666666666667,4265.641025641026,4329.743589743591,4420.512820512821,4375.384615384616,1687.0,1685.0,1733.149,1619.4073486328125,0.0,0.0,0.0,0.0
1731781,5.0,0.0,552.0,4484.102564102564,4178.461538461539,4329.2307692307695,4817.948717948719,3787.1794871794878,4212.820512820514,4245.128205128206,4136.923076923077,4396.923076923077,4088.717948717949,4266.666666666667,4330.769230769231,4429.2307692307695,4378.974358974359,1687.0,1685.0,1733.157,1619.4073486328125,0.0,0.0,0.0,0.0
1731781,6.0,0.0,549.0,4491.794871794872,4175.384615384616,4330.256410256411,4818.974358974359,3790.7692307692314,4215.384615384616,4248.205128205129,4141.538461538462,4403.589743589744,4096.410256410257,4263.589743589744,4332.820512820514,4435.384615384616,4387.179487179487,1685.0,1686.0,1733.165,1619.4073486328125,0.0,0.0,0.0,0.0
1731781,7.0,0.0,369.0,4495.8974358974365,4171.794871794872,4330.256410256411,4810.769230769231,3792.307692307693,4218.974358974359,4252.307692307693,4142.564102564103,4404.615384615385,4100.512820512821,4261.025641025642,4332.820512820514,4433.846153846154,4389.2307692307695,1684.0,1686.0,1733.173,1619.4073486328125,0.0,0.0,0.0,0.0
1731782,8.0,0.0,461.0,4487.6923076923085,4170.256410256411,4327.179487179487,4815.8974358974365,3790.7692307692314,4221.025641025642,4253.333333333334,4138.974358974359,4395.384615384616,4090.7692307692314,4263.589743589744,4332.820512820514,4430.256410256411,4385.641025641026,1682.0,1685.0,1733.181,1619.4073486328125,0.0,0.0,0.0,0.0
1731782,9.0,0.0,478.0,4485.641025641026,4167.179487179487,4325.641025641026,4813.846153846154,3789.2307692307695,4222.051282051282,4252.820512820514,4136.410256410257,4392.307692307693,4086.1538461538466,4266.153846153847,4334.358974358975,4432.307692307693,4385.641025641026,1681.0,1686.0,1733.188,1619.4073486328125,0.0,0.0,0.0,0.0
1731782,10.0,0.0,493.0,4483.589743589744,4158.461538461539,4320.512820512821,4811.794871794872,3784.615384615385,4219.48717948718,4251.282051282052,4140.000000000001,4397.948717948719,4090.7692307692314,4266.153846153847,4332.307692307693,4427.6923076923085,4382.564102564103,1680.0,1684.0,1733.196,1619.4073486328125,0.0,0.0,0.0,0.0
1731782,11.0,0.0,490.0,4474.871794871796,4152.307692307693,4312.820512820514,4811.282051282052,3778.461538461539,4219.48717948718,4249.74358974359,4147.179487179487,4399.48717948718,4090.2564102564106,4265.641025641026,4329.743589743591,4421.025641025642,4377.435897435898,1678.0,1685.0,1733.204,1619.4073486328125,0.0,0.0,0.0,0.0
1731782,12.0,0.0,0.0,4478.974358974359,4162.564102564103,4320.512820512821,4805.128205128206,3783.589743589744,4223.589743589744,4253.846153846154,4152.820512820514,4402.564102564103,4092.307692307693,4264.615384615385,4334.358974358975,4428.717948717949,4383.076923076924,1679.0,1685.0,1733.212,1619.4073486328125,0.0,0.0,0.0,0.0
1731782,13.0,0.0,327.0,4487.179487179488,4171.794871794872,4330.256410256411,4813.333333333334,3791.2820512820517,4224.102564102564,4256.410256410257,4154.358974358975,4408.717948717949,4097.435897435898,4265.641025641026,4339.48717948718,4434.871794871796,4391.282051282052,1678.0,1685.0,1733.22,1619.4073486328125,0.0,0.0,0.0,0.0
1731782,14.0,0.0,493.0,4482.051282051282,4164.615384615385,4326.153846153847,4813.846153846154,3787.692307692308,4222.564102564103,4253.333333333334,4153.333333333334,4411.282051282052,4095.3846153846157,4265.641025641026,4334.871794871796,4428.205128205129,4387.6923076923085,1679.0,1685.0,1733.227,1619.4073486328125,0.0,0.0,0.0,0.0
1731782,15.0,0.0,490.0,4479.48717948718,4160.000000000001,4323.589743589744,4809.2307692307695,3787.1794871794878,4220.512820512821,4252.820512820514,4154.358974358975,4410.256410256411,4094.8717948717954,4263.589743589744,4334.358974358975,4426.153846153847,4388.205128205129,1678.0,1684.0,1733.235,1619.4073486328125,0.0,0.0,0.0,0.0
1731783,16.0,0.0,0.0,4490.256410256411,4169.74358974359,4333.333333333334,4812.307692307693,3793.333333333334,4220.512820512821,4255.384615384616,4154.871794871796,4407.179487179487,4099.48717948718,4263.076923076924,4339.48717948718,4432.307692307693,4399.48717948718,1679.0,1684.0,1733.243,1619.4073486328125,0.0,0.0,0.0,0.0
1731783,17.0,0.0,0.0,4487.6923076923085,4174.358974358975,4333.846153846154,4810.256410256411,3790.2564102564106,4218.974358974359,4253.846153846154,4149.74358974359,4398.461538461539,4094.8717948717954,4263.076923076924,4335.8974358974365,4430.769230769231,4399.48717948718,1679.0,1685.0,1733.251,1619.4073486328125,0.0,0.0,0.0,0.0
1731783,18.0,0.0,0.0,4473.846153846154,4165.641025641026,4322.051282051282,4813.846153846154,3784.615384615385,4214.358974358975,4249.2307692307695,4147.179487179487,4389.743589743591,4086.666666666667,4264.615384615385,4330.256410256411,4423.076923076924,4385.641025641026,1680.0,1686.0,1733.259,1619.4073486328125,0.0,0.0,0.0,0.0
1731783,19.0,0.0,0.0,4473.333333333334,4160.512820512821,4320.000000000001,4812.820512820514,3784.615384615385,4209.2307692307695,4248.205128205129,4140.512820512821,4386.153846153847,4083.589743589744,4264.615384615385,4330.769230769231,4421.538461538462,4381.025641025642,1680.0,1685.0,1733.267,1619.4073486328125,0.0,0.0,0.0,0.0
1731783,20.0,0.0,0.0,4476.923076923077,4161.538461538462,4322.051282051282,4809.2307692307695,3778.9743589743593,4204.102564102564,4243.076923076924,4124.615384615385,4377.435897435898,4074.358974358975,4264.102564102564,4328.205128205129,4416.923076923077,4383.589743589744,1681.0,1687.0,1733.274,1619.4073486328125,0.0,0.0,0.0,0.0
1731783,21.0,0.0,0.0,4474.871794871796,4157.435897435898,4317.435897435898,4811.282051282052,3772.307692307693,4203.076923076924,4238.974358974359,4122.564102564103,4372.820512820514,4067.1794871794878,4264.102564102564,4326.666666666667,4410.256410256411,4383.076923076924,1683.0,1685.0,1733.282,1619.4073486328125,0.0,0.0,0.0,0.0
1731783,22.0,0.0,0.0,4471.282051282052,4155.384615384616,4317.435897435898,4811.794871794872,3777.9487179487182,4208.205128205129,4243.076923076924,4135.384615384616,4381.538461538462,4074.8717948717954,4264.102564102564,4330.256410256411,4412.820512820514,4382.051282051282,1683.0,1685.0,1733.29,1619.4073486328125,0.0,0.0,0.0,0.0
1731784,23.0,0.0,0.0,4467.6923076923085,4157.948717948719,4318.461538461539,4816.410256410257,3784.1025641025644,4212.820512820514,4245.641025641026,4140.000000000001,4389.2307692307695,4081.538461538462,4267.179487179487,4329.2307692307695,4414.358974358975,4376.410256410257,1684.0,1682.0,1733.298,1619.4073486328125,0.0,0.0,0.0,0.0
1731784,24.0,0.0,0.0,4467.6923076923085,4158.461538461539,4312.820512820514,4812.307692307693,3782.564102564103,4214.871794871796,4244.615384615385,4139.48717948718,4396.410256410257,4082.0512820512827,4264.102564102564,4323.076923076924,4411.794871794872,4370.769230769231,1684.0,1680.0,1733.306,1619.4073486328125,0.0,0.0,0.0,0.0
1731784,25.0,0.0,0.0,4469.743589743591,4155.8974358974365,4308.717948717949,4805.641025641026,3779.48717948718,4213.333333333334,4243.076923076924,4141.538461538462,4406.153846153847,4084.615384615385,4261.538461538462,4321.538461538462,4410.256410256411,4371.282051282052,1685.0,1679.0,1733.314,1619.4073486328125,0.0,0.0,0.0,0.0
1731784,26.0,0.0,0.0,4468.717948717949,4155.384615384616,4307.6923076923085,4809.743589743591,3778.9743589743593,4211.282051282052,4240.512820512821,4136.923076923077,4401.025641025642,4083.589743589744,4265.128205128206,4325.641025641026,4407.6923076923085,4373.846153846154,1685.0,1677.0,1733.322,1619.4073486328125,0.0,0.0,0.0,0.0
1731784,27.0,0.0,0.0,4469.743589743591,4162.051282051282,4308.205128205129,4807.179487179488,3782.0512820512827,4215.8974358974365,4244.615384615385,4131.282051282052,4386.666666666667,4081.538461538462,4262.564102564103,4328.205128205129,4411.282051282052,4375.8974358974365,1686.0,1677.0,1733.33,1619.4073486328125,0.0,0.0,0.0,0.0
1731784,28.0,0.0,0.0,4476.410256410257,4169.2307692307695,4314.358974358975,4811.282051282052,3786.1538461538466,4216.410256410257,4247.6923076923085,4127.6923076923085,4383.076923076924,4086.666666666667,4261.538461538462,4332.307692307693,4422.051282051282,4381.538461538462,1686.0,1677.0,1733.337,1619.4073486328125,0.0,0.0,0.0,0.0
1731784,29.0,0.0,0.0,4480.000000000001,4172.307692307693,4321.538461538462,4813.846153846154,3785.6410256410263,4210.769230769231,4240.000000000001,4126.153846153847,4386.153846153847,4090.2564102564106,4263.589743589744,4333.846153846154,4427.179487179487,4389.743589743591,1685.0,1679.0,1733.346,1619.4073486328125,0.0,0.0,0.0,0.0
1731784,30.0,0.0,0.0,4484.102564102564,4173.333333333334,4324.102564102564,4807.6923076923085,3785.1282051282055,4210.256410256411,4238.461538461539,4133.333333333334,4390.256410256411,4090.7692307692314,4263.589743589744,4331.794871794872,4428.717948717949,4396.923076923077,1684.0,1680.0,1733.353,1619.4073486328125,0.0,0.0,0.0,0.0
1731785,31.0,0.0,0.0,4488.717948717949,4171.794871794872,4324.102564102564,4813.846153846154,3785.1282051282055,4214.358974358975,4245.128205128206,4140.000000000001,4395.8974358974365,4094.358974358975,4266.666666666667,4334.871794871796,4428.717948717949,4398.974358974359,1683.0,1683.0,1733.361,1619.4073486328125,0.0,0.0,0.0,0.0
1731785,32.0,0.0,0.0,4483.589743589744,4168.717948717949,4323.589743589744,4811.282051282052,3783.589743589744,4218.974358974359,4249.2307692307695,4136.923076923077,4397.435897435898,4097.948717948719,4265.128205128206,4333.333333333334,4426.666666666667,4395.8974358974365,1684.0,1683.0,1733.369,1619.4073486328125,0.0,0.0,0.0,0.0
1731786,33.0,0.0,0.0,4473.333333333334,4164.102564102564,4316.923076923077,4810.769230769231,3784.1025641025644,4219.48717948718,4249.2307692307695,4138.974358974359,4396.923076923077,4096.410256410257,4264.615384615385,4327.6923076923085,4424.615384615385,4389.743589743591,1681.0,1685.0,1733.376,1619.4073486328125,0.0,0.0,0.0,0.0
1731786,34.0,0.0,0.0,4476.410256410257,4162.564102564103,4310.769230769231,4815.384615384616,3785.1282051282055,4215.384615384616,4248.205128205129,4148.205128205129,4401.538461538462,4094.358974358975,4266.666666666667,4331.282051282052,4427.6923076923085,4386.153846153847,1681.0,1686.0,1733.384,1619.4073486328125,0.0,0.0,0.0,0.0
1731786,35.0,0.0,0.0,4482.564102564103,4166.666666666667,4316.410256410257,4809.743589743591,3780.512820512821,4216.410256410257,4245.641025641026,4149.2307692307695,4405.641025641026,4093.8461538461543,4265.128205128206,4333.846153846154,4431.282051282052,4389.743589743591,1680.0,1685.0,1733.392,1619.4073486328125,0.0,0.0,0.0,0.0
1731787,36.0,0.0,0.0,4472.307692307693,4162.051282051282,4317.948717948719,4814.871794871796,3776.410256410257,4215.384615384616,4241.025641025642,4149.74358974359,4400.000000000001,4090.2564102564106,4263.076923076924,4331.794871794872,4424.615384615385,4393.846153846154,1682.0,1686.0,1733.399,1619.4073486328125,0.0,0.0,0.0,0.0
1731787,37.0,0.0,0.0,4461.538461538462,4154.871794871796,4311.794871794872,4813.846153846154,3777.435897435898,4209.74358974359,4241.025641025642,4158.974358974359,4400.512820512821,4093.333333333334,4263.076923076924,4330.256410256411,4421.025641025642,4391.282051282052,1683.0,1686.0,1733.407,1619.4073486328125,0.0,0.0,0.0,0.0
1731787,38.0,0.0,0.0,4467.179487179487,4157.948717948719,4308.717948717949,4809.743589743591,3772.820512820513,4209.2307692307695,4242.564102564103,4157.435897435898,4398.974358974359,4094.358974358975,4263.589743589744,4331.794871794872,4422.564102564103,4387.6923076923085,1685.0,1687.0,1733.415,1619.4073486328125,0.0,0.0,0.0,0.0
1731787,39.0,0.0,0.0,4470.769230769231,4158.461538461539,4307.6923076923085,4812.307692307693,3771.2820512820517,4213.846153846154,4240.000000000001,4143.076923076924,4384.615384615385,4079.48717948718,4262.564102564103,4328.717948717949,4414.871794871796,4386.666666666667,1688.0,1686.0,1733.423,1619.4073486328125,0.0,0.0,0.0,0.0
1731787,40.0,0.0,0.0,4464.615384615385,4155.384615384616,4307.6923076923085,4809.743589743591,3776.410256410257,4215.8974358974365,4238.974358974359,4140.512820512821,4377.948717948719,4070.7692307692314,4261.538461538462,4325.128205128206,4412.307692307693,4385.128205128206,1689.0,1686.0,1733.431,1619.4073486328125,0.0,0.0,0.0,0.0
1731787,41.0,0.0,0.0,4460.000000000001,4153.333333333334,4310.256410256411,4814.871794871796,3776.9230769230776,4215.8974358974365,4241.538461538462,4147.6923076923085,4387.179487179487,4078.9743589743593,4265.128205128206,4330.256410256411,4418.974358974359,4384.102564102564,1691.0,1684.0,1733.439,1619.4073486328125,0.0,0.0,0.0,0.0
1731787,42.0,0.0,0.0,4455.8974358974365,4148.717948717949,4308.205128205129,4813.333333333334,3772.307692307693,4221.025641025642,4245.128205128206,4144.615384615385,4391.794871794872,4084.615384615385,4265.128205128206,4329.743589743591,4417.948717948719,4381.538461538462,1692.0,1684.0,1733.447,1619.4073486328125,0.0,0.0,0.0,0.0
1731788,43.0,0.0,0.0,4456.410256410257,4146.153846153847,4304.102564102564,4807.179487179488,3771.794871794872,4223.076923076924,4243.589743589744,4133.333333333334,4387.179487179487,4081.538461538462,4263.589743589744,4326.666666666667,4415.384615384616,4375.8974358974365,1694.0,1683.0,1733.455,1619.4073486328125,0.0,0.0,0.0,0.0
1731788,44.0,0.0,0.0,4462.051282051282,4152.307692307693,4305.128205128206,4810.256410256411,3774.8717948717954,4216.410256410257,4237.435897435898,4127.179487179487,4388.205128205129,4081.0256410256416,4264.615384615385,4330.769230769231,4423.076923076924,4378.974358974359,1695.0,1685.0,1733.463,1619.4073486328125,0.0,0.0,0.0,0.0
1731788,45.0,0.0,0.0,4462.564102564103,4157.948717948719,4309.2307692307695,4809.743589743591,3774.358974358975,4212.820512820514,4238.461538461539,4132.307692307693,4397.435897435898,4089.23076923077,4263.076923076924,4334.871794871796,4432.307692307693,4389.743589743591,1694.0,1685.0,1733.471,1619.4073486328125,0.0,0.0,0.0,0.0
1731788,46.0,0.0,0.0,4463.076923076924,4157.948717948719,4312.307692307693,4815.384615384616,3775.8974358974365,4212.820512820514,4243.076923076924,4136.410256410257,4402.051282051282,4096.410256410257,4262.564102564103,4338.461538461539,4439.48717948718,4394.358974358975,1693.0,1686.0,1733.479,1619.4073486328125,0.0,0.0,0.0,0.0
1731788,47.0,0.0,0.0,4473.333333333334,4164.615384615385,4319.48717948718,4811.794871794872,3778.461538461539,4208.717948717949,4242.051282051282,4128.205128205129,4396.923076923077,4099.48717948718,4265.641025641026,4339.48717948718,4446.666666666667,4394.358974358975,1692.0,1685.0,1733.485,1619.4073486328125,0.0,0.0,0.0,0.0
1731788,48.0,0.0,0.0,4480.000000000001,4168.205128205129,4323.076923076924,4804.615384615386,3778.461538461539,4205.641025641026,4241.538461538462,4124.615384615385,4389.2307692307695,4098.461538461539,4265.128205128206,4334.871794871796,4446.153846153847,4393.846153846154,1691.0,1684.0,1733.493,1619.4073486328125,0.0,0.0,0.0,0.0
1731789,49.0,0.0,0.0,4477.948717948719,4164.615384615385,4323.076923076924,4809.743589743591,3778.9743589743593,4210.256410256411,4244.615384615385,4132.307692307693,4390.256410256411,4094.358974358975,4264.102564102564,4336.410256410257,4440.512820512821,4392.307692307693,1688.0,1682.0,1733.501,1619.4073486328125,0.0,0.0,0.0,0.0
1731789,50.0,0.0,0.0,4475.8974358974365,4163.076923076924,4325.641025641026,4808.205128205129,3783.589743589744,4215.8974358974365,4250.769230769231,4136.410256410257,4398.974358974359,4095.8974358974365,4263.076923076924,4338.461538461539,4441.538461538462,4391.794871794872,1687.0,1681.0,1733.509,1619.4073486328125,0.0,0.0,0.0,0.0
1731789,51.0,0.0,0.0,4471.794871794872,4155.8974358974365,4320.000000000001,4811.794871794872,3787.1794871794878,4217.435897435898,4255.384615384616,4135.384615384616,4396.923076923077,4093.8461538461543,4265.128205128206,4331.794871794872,4436.410256410257,4386.666666666667,1685.0,1678.0,1733.517,1619.4073486328125,0.0,0.0,0.0,0.0
1731789,52.0,0.0,0.0,4468.717948717949,4147.179487179487,4311.282051282052,4812.820512820514,3782.564102564103,4218.974358974359,4252.307692307693,4134.871794871796,4387.6923076923085,4084.615384615385,4266.666666666667,4327.6923076923085,4426.666666666667,4378.974358974359,1681.0,1680.0,1733.525,1619.4073486328125,0.0,0.0,0.0,0.0
1731789,53.0,0.0,0.0,4471.282051282052,4149.74358974359,4311.282051282052,4807.179487179488,3777.435897435898,4218.461538461539,4246.153846153847,4121.538461538462,4386.153846153847,4082.0512820512827,4265.128205128206,4329.2307692307695,4426.666666666667,4378.461538461539,1680.0,1682.0,1733.532,1619.4073486328125,0.0,0.0,0.0,0.0
1731811,54.0,0.0,0.0,4475.384615384616,4153.846153846154,4312.820512820514,4813.846153846154,3780.0000000000005,4211.794871794872,4244.615384615385,4101.538461538462,4390.769230769231,4087.692307692308,4265.128205128206,4332.820512820514,4431.282051282052,4388.205128205129,1678.0,1682.0,1733.54,1619.87646484375,0.0,0.0,0.0,0.0
1731811,55.0,0.0,0.0,4476.923076923077,4153.846153846154,4314.871794871796,4810.769230769231,3780.512820512821,4208.205128205129,4245.128205128206,4098.461538461539,4394.358974358975,4093.8461538461543,4261.538461538462,4336.923076923077,4436.410256410257,4399.48717948718,1676.0,1685.0,1733.548,1619.87646484375,0.0,0.0,0.0,0.0
1731811,56.0,0.0,0.0,4475.8974358974365,4151.794871794872,4316.923076923077,4808.717948717949,3775.8974358974365,4209.2307692307695,4242.051282051282,4101.025641025642,4390.769230769231,4094.358974358975,4261.538461538462,4335.384615384616,4435.8974358974365,4398.461538461539,1674.0,1684.0,1733.556,1619.87646484375,0.0,0.0,0.0,0.0
1731811,57.0,0.0,0.0,4473.333333333334,4148.717948717949,4311.794871794872,4812.307692307693,3776.410256410257,4213.333333333334,4243.076923076924,4095.3846153846157,4385.641025641026,4091.2820512820517,4263.589743589744,4330.256410256411,4428.717948717949,4389.743589743591,1672.0,1684.0,1733.564,1619.87646484375,0.0,0.0,0.0,0.0
1732281,58.0,0.0,0.0,4470.256410256411,4146.153846153847,4309.743589743591,4808.205128205129,3776.9230769230776,4218.461538461539,4250.769230769231,4096.410256410257,4390.769230769231,4091.7948717948725,4263.076923076924,4329.743589743591,4426.666666666667,4386.153846153847,1671.0,1683.0,1733.571,1619.90771484375,0.0,0.0,0.0,0.0
1732281,59.0,0.0,0.0,4468.205128205129,4142.564102564103,4313.846153846154,4815.384615384616,3772.307692307693,4214.871794871796,4252.820512820514,4103.076923076924,4405.128205128206,4094.8717948717954,4267.179487179487,4334.358974358975,4423.589743589744,4391.282051282052,1670.0,1681.0,1733.579,1619.90771484375,0.0,0.0,0.0,0.0
1732281,60.0,0.0,0.0,4467.179487179487,4137.435897435898,4310.769230769231,4814.871794871796,3771.2820512820517,4211.794871794872,4252.307692307693,4105.128205128206,4408.205128205129,4092.307692307693,4266.153846153847,4333.333333333334,4416.410256410257,4391.282051282052,1671.0,1678.0,1733.587,1619.90771484375,0.0,0.0,0.0,0.0
1732281,61.0,0.0,0.0,4462.051282051282,4135.384615384616,4302.564102564103,4809.743589743591,3775.8974358974365,4222.051282051282,4253.846153846154,4109.2307692307695,4394.358974358975,4086.1538461538466,4264.615384615385,4330.256410256411,4412.307692307693,4382.564102564103,1671.0,1678.0,1733.595,1619.90771484375,0.0,0.0,0.0,0.0
