timestamp,cnt,inerpolated,raw_cq,af3,f7,f3,fc5,t7,p7,o1,o2,p8,t8,fc6,f4,f8,af4,gyrox,gyroy,epoc_timestamp,epoc_es_timestamp,func_id,func_value,marker,sync_signal
1531656,127.0,0.0,488.0,4503.076923076924,4106.666666666667,4316.923076923077,4813.333333333334,3765.1282051282055,4227.179487179487,4251.282051282052,4178.461538461539,4398.461538461539,4096.923076923077,4277.435897435898,4314.871794871796,4360.000000000001,4278.974358974359,1683.0,1685.0,1533.371,1419.88427734375,0.0,0.0,0.0,0.0
1531656,128.0,0.0,0.0,4506.153846153847,4107.6923076923085,4317.948717948719,4813.846153846154,3767.1794871794878,4228.205128205129,4248.205128205129,4226.153846153847,4410.256410256411,4103.589743589744,4275.384615384616,4314.871794871796,4364.102564102564,4278.974358974359,1683.0,1685.0,1533.375,1419.88427734375,0.0,0.0,0.0,0.0
1531656,0.0,0.0,513.0,4507.6923076923085,4110.769230769231,4320.512820512821,4814.358974358975,3772.307692307693,4228.717948717949,4250.256410256411,4217.435897435898,4397.435897435898,4094.8717948717954,4276.923076923077,4310.769230769231,4362.564102564103,4277.948717948719,1683.0,1685.0,1533.382,1419.88427734375,0.0,0.0,0.0,0.0
1531656,1.0,0.0,0.0,4502.564102564103,4106.153846153847,4317.948717948719,4810.256410256411,3767.692307692308,4236.410256410257,4252.820512820514,4160.512820512821,4392.820512820514,4092.307692307693,4273.333333333334,4306.153846153847,4353.846153846154,4275.384615384616,1684.0,1684.0,1533.39,1419.88427734375,0.0,0.0,0.0,0.0
1531657,2.0,0.0,508.0,4502.564102564103,4101.025641025642,4314.358974358975,4811.794871794872,3767.692307692308,4243.589743589744,4252.307692307693,4160.000000000001,4398.461538461539,4096.410256410257,4272.307692307693,4311.794871794872,4351.794871794872,4278.974358974359,1683.0,1684.0,1533.398,1419.88427734375,0.0,0.0,0.0,0.0
1531657,3.0,0.0,527.0,4511.794871794872,4106.666666666667,4323.589743589744,4813.846153846154,3774.358974358975,4234.871794871796,4258.974358974359,4176.410256410257,4405.641025641026,4095.3846153846157,4276.410256410257,4317.435897435898,4358.974358974359,4285.128205128206,1683.0,1683.0,1533.406,1419.88427734375,0.0,0.0,0.0,0.0
1531657,4.0,0.0,497.0,4508.717948717949,4104.615384615385,4322.564102564103,4811.282051282052,3773.333333333334,4227.179487179487,4262.051282051282,4158.974358974359,4396.923076923077,4086.666666666667,4277.948717948719,4307.6923076923085,4352.307692307693,4273.846153846154,1682.0,1684.0,1533.414,1419.88427734375,0.0,0.0,0.0,0.0
1531657,5.0,0.0,551.0,4501.538461538462,4100.000000000001,4311.794871794872,4810.256410256411,3770.7692307692314,4231.794871794872,4256.923076923077,4225.641025641026,4376.410256410257,4081.0256410256416,4273.846153846154,4302.051282051282,4340.512820512821,4261.538461538462,1682.0,1684.0,1533.422,1419.88427734375,0.0,0.0,0.0,0.0
1531787,6.0,0.0,546.0,4504.615384615385,4109.2307692307695,4313.333333333334,4810.256410256411,3776.9230769230776,4240.000000000001,4256.923076923077,4357.435897435898,4385.128205128206,4084.1025641025644,4272.820512820514,4305.641025641026,4343.589743589744,4265.128205128206,1682.0,1685.0,1533.429,1419.94677734375,0.0,0.0,0.0,0.0
1531787,7.0,0.0,306.0,4501.538461538462,4109.2307692307695,4313.846153846154,4816.410256410257,3778.9743589743593,4244.615384615385,4258.461538461539,4407.6923076923085,4402.051282051282,4082.0512820512827,4276.410256410257,4307.6923076923085,4347.6923076923085,4264.102564102564,1683.0,1687.0,1533.437,1419.94677734375,0.0,0.0,0.0,0.0
1531787,8.0,0.0,456.0,4504.102564102564,4106.153846153847,4315.384615384616,4814.358974358975,3775.3846153846157,4241.025641025642,4260.512820512821,4401.538461538462,4393.333333333334,4080.5128205128212,4275.384615384616,4311.282051282052,4353.846153846154,4268.717948717949,1682.0,1687.0,1533.445,1419.94677734375,0.0,0.0,0.0,0.0
1531787,9.0,0.0,475.0,4524.615384615385,4123.076923076924,4330.256410256411,4809.2307692307695,3779.48717948718,4232.820512820514,4269.74358974359,4414.358974358975,4403.076923076924,4100.000000000001,4274.358974358975,4320.000000000001,4372.307692307693,4286.153846153847,1681.0,1689.0,1533.453,1419.94677734375,0.0,0.0,0.0,0.0
1531787,10.0,0.0,496.0,4530.769230769231,4131.282051282052,4338.974358974359,4816.410256410257,3789.7435897435903,4238.974358974359,4278.461538461539,4421.025641025642,4436.410256410257,4125.641025641026,4277.435897435898,4323.076923076924,4380.512820512821,4290.256410256411,1682.0,1688.0,1533.461,1419.94677734375,0.0,0.0,0.0,0.0
1531787,11.0,0.0,488.0,4517.435897435898,4117.948717948719,4331.282051282052,4816.923076923077,3790.7692307692314,4250.769230769231,4280.512820512821,4396.923076923077,4433.333333333334,4123.589743589744,4276.923076923077,4315.8974358974365,4368.717948717949,4281.538461538462,1681.0,1688.0,1533.468,1419.94677734375,0.0,0.0,0.0,0.0
1531788,12.0,0.0,0.0,4509.743589743591,4107.6923076923085,4318.974358974359,4815.384615384616,3784.615384615385,4246.666666666667,4276.923076923077,4367.179487179487,4409.2307692307695,4103.076923076924,4275.8974358974365,4310.769230769231,4355.384615384616,4277.948717948719,1681.0,1688.0,1533.476,1419.94677734375,0.0,0.0,0.0,0.0
1531788,13.0,0.0,298.0,4512.820512820514,4111.794871794872,4314.871794871796,4814.358974358975,3782.564102564103,4243.076923076924,4274.358974358975,4353.333333333334,4408.205128205129,4096.923076923077,4277.435897435898,4312.820512820514,4352.307692307693,4278.461538461539,1682.0,1688.0,1533.484,1419.94677734375,0.0,0.0,0.0,0.0
1531788,14.0,0.0,496.0,4522.564102564103,4123.589743589744,4326.153846153847,4812.820512820514,3787.692307692308,4245.641025641026,4280.000000000001,4369.2307692307695,4415.8974358974365,4105.641025641026,4278.974358974359,4314.871794871796,4360.000000000001,4284.615384615385,1682.0,1686.0,1533.493,1419.94677734375,0.0,0.0,0.0,0.0
1531788,15.0,0.0,488.0,4531.282051282052,4130.769230769231,4335.384615384616,4816.410256410257,3793.333333333334,4247.179487179487,4287.179487179487,4393.333333333334,4419.48717948718,4109.2307692307695,4278.461538461539,4313.846153846154,4368.717948717949,4294.358974358975,1681.0,1686.0,1533.5,1419.94677734375,0.0,0.0,0.0,0.0
1531788,16.0,0.0,0.0,4529.743589743591,4129.2307692307695,4330.769230769231,4813.333333333334,3793.333333333334,4248.205128205129,4284.102564102564,4396.410256410257,4421.025641025642,4104.102564102564,4275.8974358974365,4313.846153846154,4368.205128205129,4293.846153846154,1683.0,1684.0,1533.508,1419.94677734375,0.0,0.0,0.0,0.0
1531788,17.0,0.0,0.0,4527.6923076923085,4129.74358974359,4327.6923076923085,4813.333333333334,3791.2820512820517,4245.128205128206,4276.923076923077,4384.102564102564,4420.000000000001,4099.48717948718,4277.435897435898,4315.8974358974365,4363.589743589744,4287.6923076923085,1683.0,1684.0,1533.515,1419.94677734375,0.0,0.0,0.0,0.0
1531788,18.0,0.0,0.0,4536.410256410257,4137.948717948719,4332.307692307693,4814.871794871796,3790.2564102564106,4238.974358974359,4276.410256410257,4380.000000000001,4409.743589743591,4104.102564102564,4278.974358974359,4315.8974358974365,4368.205128205129,4292.820512820514,1683.0,1684.0,1533.523,1419.94677734375,0.0,0.0,0.0,0.0
1531788,19.0,0.0,0.0,4535.8974358974365,4136.923076923077,4328.205128205129,4811.794871794872,3788.717948717949,4239.48717948718,4278.461538461539,4374.871794871796,4404.615384615385,4111.794871794872,4274.358974358975,4313.846153846154,4370.256410256411,4297.435897435898,1683.0,1683.0,1533.532,1419.94677734375,0.0,0.0,0.0,0.0
1531788,20.0,0.0,0.0,4526.666666666667,4128.717948717949,4318.974358974359,4815.384615384616,3788.205128205129,4242.564102564103,4277.948717948719,4340.512820512821,4413.333333333334,4105.641025641026,4274.871794871796,4311.794871794872,4361.538461538462,4291.794871794872,1683.0,1684.0,1533.539,1419.94677734375,0.0,0.0,0.0,0.0
1531789,21.0,0.0,0.0,4528.717948717949,4129.74358974359,4322.564102564103,4813.846153846154,3789.7435897435903,4241.025641025642,4277.435897435898,4309.2307692307695,4411.282051282052,4094.8717948717954,4276.410256410257,4310.256410256411,4361.025641025642,4290.769230769231,1684.0,1683.0,1533.547,1419.94677734375,0.0,0.0,0.0,0.0
1531916,22.0,0.0,0.0,4535.8974358974365,4131.794871794872,4327.179487179487,4814.871794871796,3790.7692307692314,4240.512820512821,4277.435897435898,4313.333333333334,4400.512820512821,4093.333333333334,4275.8974358974365,4310.769230769231,4363.076923076924,4293.846153846154,1682.0,1684.0,1533.554,1420.0718994140625,0.0,0.0,0.0,0.0
1531916,23.0,0.0,0.0,4534.358974358975,4129.74358974359,4320.512820512821,4817.435897435898,3788.717948717949,4239.48717948718,4276.410256410257,4315.8974358974365,4397.435897435898,4089.23076923077,4275.384615384616,4306.666666666667,4356.923076923077,4285.641025641026,1683.0,1684.0,1533.563,1420.0718994140625,0.0,0.0,0.0,0.0
1531916,24.0,0.0,0.0,4527.6923076923085,4129.74358974359,4312.307692307693,4810.769230769231,3786.666666666667,4236.923076923077,4271.794871794872,4297.435897435898,4391.282051282052,4078.9743589743593,4275.384615384616,4302.564102564103,4349.743589743591,4274.358974358975,1682.0,1684.0,1533.57,1420.0718994140625,0.0,0.0,0.0,0.0
1531917,25.0,0.0,0.0,4525.641025641026,4129.74358974359,4313.333333333334,4814.358974358975,3785.1282051282055,4236.923076923077,4269.2307692307695,4295.8974358974365,4388.717948717949,4081.538461538462,4277.435897435898,4308.205128205129,4348.205128205129,4276.923076923077,1682.0,1685.0,1533.578,1420.0718994140625,0.0,0.0,0.0,0.0
1531917,26.0,0.0,0.0,4528.717948717949,4132.307692307693,4317.435897435898,4817.948717948719,3786.1538461538466,4239.48717948718,4276.923076923077,4316.410256410257,4403.589743589744,4092.307692307693,4280.000000000001,4309.743589743591,4353.333333333334,4284.615384615385,1681.0,1684.0,1533.586,1420.0718994140625,0.0,0.0,0.0,0.0
1531918,27.0,0.0,0.0,4531.282051282052,4135.384615384616,4314.358974358975,4813.846153846154,3784.615384615385,4240.512820512821,4280.000000000001,4329.2307692307695,4400.000000000001,4087.1794871794878,4279.48717948718,4303.589743589744,4356.410256410257,4278.974358974359,1681.0,1685.0,1533.594,1420.0718994140625,0.0,0.0,0.0,0.0
1531918,28.0,0.0,0.0,4525.128205128206,4129.74358974359,4302.051282051282,4814.871794871796,3778.9743589743593,4237.948717948719,4269.2307692307695,4335.384615384616,4378.974358974359,4074.358974358975,4274.871794871796,4302.564102564103,4347.6923076923085,4268.717948717949,1680.0,1683.0,1533.601,1420.0718994140625,0.0,0.0,0.0,0.0
1531918,29.0,0.0,0.0,4515.384615384616,4118.461538461539,4293.333333333334,4814.358974358975,3776.410256410257,4235.8974358974365,4262.051282051282,4349.743589743591,4385.641025641026,4074.358974358975,4273.333333333334,4304.102564102564,4339.48717948718,4268.205128205129,1680.0,1685.0,1533.609,1420.0718994140625,0.0,0.0,0.0,0.0
1531919,30.0,0.0,0.0,4516.410256410257,4120.512820512821,4300.512820512821,4815.8974358974365,3779.48717948718,4229.74358974359,4267.179487179487,4365.128205128206,4397.948717948719,4081.0256410256416,4278.974358974359,4307.6923076923085,4344.102564102564,4277.435897435898,1680.0,1683.0,1533.617,1420.0718994140625,0.0,0.0,0.0,0.0
1531919,31.0,0.0,0.0,4529.743589743591,4134.871794871796,4313.846153846154,4814.358974358975,3783.076923076924,4227.6923076923085,4274.871794871796,4367.6923076923085,4396.923076923077,4089.7435897435903,4278.461538461539,4313.333333333334,4352.820512820514,4283.589743589744,1678.0,1684.0,1533.625,1420.0718994140625,0.0,0.0,0.0,0.0
1531919,32.0,0.0,0.0,4537.435897435898,4139.48717948718,4315.8974358974365,4812.307692307693,3783.589743589744,4230.769230769231,4275.8974358974365,4365.128205128206,4394.871794871796,4092.307692307693,4272.820512820514,4313.846153846154,4354.871794871796,4283.076923076924,1679.0,1682.0,1533.633,1420.0718994140625,0.0,0.0,0.0,0.0
1531919,33.0,0.0,0.0,4531.282051282052,4132.307692307693,4306.153846153847,4815.384615384616,3780.0000000000005,4225.641025641026,4268.205128205129,4369.2307692307695,4393.846153846154,4084.1025641025644,4274.871794871796,4308.717948717949,4349.2307692307695,4282.051282051282,1678.0,1682.0,1533.64,1420.0718994140625,0.0,0.0,0.0,0.0
1531919,34.0,0.0,0.0,4526.666666666667,4131.794871794872,4302.564102564103,4814.358974358975,3778.461538461539,4225.128205128206,4264.615384615385,4363.589743589744,4393.846153846154,4078.9743589743593,4278.461538461539,4303.589743589744,4345.641025641026,4281.025641025642,1679.0,1681.0,1533.648,1420.0718994140625,0.0,0.0,0.0,0.0
1531920,35.0,0.0,0.0,4530.256410256411,4137.948717948719,4307.6923076923085,4814.871794871796,3781.538461538462,4229.74358974359,4268.205128205129,4358.974358974359,4397.435897435898,4081.538461538462,4277.948717948719,4304.102564102564,4349.2307692307695,4280.512820512821,1679.0,1681.0,1533.656,1420.0718994140625,0.0,0.0,0.0,0.0
1531920,36.0,0.0,0.0,4539.48717948718,4143.076923076924,4314.871794871796,4813.333333333334,3782.564102564103,4226.666666666667,4273.333333333334,4377.435897435898,4403.589743589744,4086.1538461538466,4274.358974358975,4308.717948717949,4354.358974358975,4284.615384615385,1679.0,1682.0,1533.664,1420.0718994140625,0.0,0.0,0.0,0.0
1531920,37.0,0.0,0.0,4544.102564102564,4147.179487179487,4316.410256410257,4810.256410256411,3780.512820512821,4223.076923076924,4273.333333333334,4374.358974358975,4399.48717948718,4080.5128205128212,4272.820512820514,4310.256410256411,4352.820512820514,4285.128205128206,1680.0,1682.0,1533.672,1420.0718994140625,0.0,0.0,0.0,0.0
1531941,38.0,0.0,0.0,4530.256410256411,4138.461538461539,4303.076923076924,4814.358974358975,3781.0256410256416,4227.6923076923085,4263.076923076924,4355.8974358974365,4378.974358974359,4059.48717948718,4275.384615384616,4304.102564102564,4336.923076923077,4273.846153846154,1680.0,1683.0,1533.68,1420.197021484375,0.0,0.0,0.0,0.0
1531942,39.0,0.0,0.0,4515.384615384616,4125.641025641026,4291.794871794872,4814.358974358975,3778.461538461539,4229.74358974359,4256.923076923077,4376.923076923077,4367.179487179487,4049.23076923077,4276.410256410257,4297.948717948719,4323.076923076924,4264.102564102564,1681.0,1683.0,1533.687,1420.197021484375,0.0,0.0,0.0,0.0
1531942,40.0,0.0,0.0,4524.615384615385,4134.871794871796,4299.48717948718,4815.384615384616,3775.3846153846157,4224.615384615385,4263.076923076924,4399.48717948718,4385.128205128206,4071.2820512820517,4277.435897435898,4303.076923076924,4332.820512820514,4269.2307692307695,1682.0,1683.0,1533.695,1420.197021484375,0.0,0.0,0.0,0.0
1531942,41.0,0.0,0.0,4543.076923076924,4151.794871794872,4312.820512820514,4814.358974358975,3777.435897435898,4221.538461538462,4267.6923076923085,4381.025641025642,4400.000000000001,4090.7692307692314,4276.410256410257,4313.333333333334,4352.307692307693,4282.051282051282,1682.0,1682.0,1533.703,1420.197021484375,0.0,0.0,0.0,0.0
1532036,42.0,0.0,0.0,4544.615384615385,4152.307692307693,4314.871794871796,4809.743589743591,3782.0512820512827,4219.48717948718,4267.6923076923085,4368.717948717949,4385.128205128206,4082.0512820512827,4274.358974358975,4314.871794871796,4353.333333333334,4289.2307692307695,1682.0,1684.0,1533.712,1420.228271484375,0.0,0.0,0.0,0.0
1532036,43.0,0.0,0.0,4530.256410256411,4139.48717948718,4302.564102564103,4815.8974358974365,3782.0512820512827,4220.000000000001,4268.205128205129,4368.205128205129,4368.717948717949,4064.615384615385,4275.8974358974365,4305.641025641026,4337.435897435898,4279.48717948718,1684.0,1683.0,1533.72,1420.228271484375,0.0,0.0,0.0,0.0
1532036,44.0,0.0,0.0,4524.615384615385,4135.8974358974365,4295.8974358974365,4815.8974358974365,3780.512820512821,4231.282051282052,4271.282051282052,4355.8974358974365,4375.384615384616,4061.0256410256416,4275.8974358974365,4301.025641025642,4332.820512820514,4268.205128205129,1683.0,1683.0,1533.727,1420.228271484375,0.0,0.0,0.0,0.0
1532036,45.0,0.0,0.0,4528.717948717949,4137.948717948719,4296.923076923077,4812.307692307693,3785.6410256410263,4240.000000000001,4273.333333333334,4355.384615384616,4383.589743589744,4063.076923076924,4274.871794871796,4303.589743589744,4338.974358974359,4268.717948717949,1684.0,1684.0,1533.735,1420.228271484375,0.0,0.0,0.0,0.0
1532036,46.0,0.0,0.0,4536.410256410257,4144.615384615385,4302.564102564103,4814.358974358975,3789.2307692307695,4233.333333333334,4272.820512820514,4369.743589743591,4383.076923076924,4074.8717948717954,4277.435897435898,4308.717948717949,4348.205128205129,4281.538461538462,1684.0,1683.0,1533.743,1420.228271484375,0.0,0.0,0.0,0.0
1532037,47.0,0.0,0.0,4542.051282051282,4158.461538461539,4312.307692307693,4814.358974358975,3785.1282051282055,4224.615384615385,4274.871794871796,4381.025641025642,4394.871794871796,4093.333333333334,4276.410256410257,4312.820512820514,4362.051282051282,4293.333333333334,1683.0,1684.0,1533.771,1420.228271484375,0.0,0.0,0.0,0.0
1532037,48.0,0.0,0.0,4530.769230769231,4150.769230769231,4304.102564102564,4817.435897435898,3778.9743589743593,4225.641025641026,4269.2307692307695,4377.435897435898,4390.769230769231,4080.5128205128212,4274.871794871796,4308.717948717949,4355.384615384616,4282.564102564103,1683.0,1683.0,1533.772,1420.228271484375,0.0,0.0,0.0,0.0
1532037,49.0,0.0,0.0,4515.8974358974365,4133.846153846154,4285.641025641026,4816.410256410257,3772.820512820513,4224.102564102564,4255.384615384616,4364.102564102564,4373.333333333334,4058.461538461539,4275.384615384616,4299.48717948718,4338.461538461539,4266.666666666667,1683.0,1684.0,1533.772,1420.228271484375,0.0,0.0,0.0,0.0
1532037,50.0,0.0,0.0,4518.974358974359,4138.974358974359,4285.641025641026,4813.333333333334,3771.2820512820517,4218.461538461539,4250.769230769231,4367.179487179487,4391.794871794872,4075.3846153846157,4274.871794871796,4302.564102564103,4344.615384615385,4269.74358974359,1683.0,1684.0,1533.774,1420.228271484375,0.0,0.0,0.0,0.0
1532037,51.0,0.0,0.0,4536.923076923077,4156.923076923077,4305.128205128206,4815.384615384616,3777.435897435898,4218.974358974359,4260.512820512821,4383.076923076924,4415.384615384616,4096.923076923077,4274.871794871796,4315.384615384616,4363.589743589744,4283.589743589744,1682.0,1684.0,1533.782,1420.228271484375,0.0,0.0,0.0,0.0
1532037,52.0,0.0,0.0,4548.717948717949,4165.128205128206,4317.435897435898,4813.846153846154,3783.076923076924,4226.666666666667,4270.769230769231,4380.000000000001,4405.641025641026,4097.435897435898,4274.871794871796,4318.974358974359,4373.846153846154,4293.846153846154,1682.0,1684.0,1533.789,1420.228271484375,0.0,0.0,0.0,0.0
1532037,53.0,0.0,0.0,4540.512820512821,4160.512820512821,4308.717948717949,4815.8974358974365,3782.0512820512827,4232.820512820514,4270.769230769231,4355.8974358974365,4395.8974358974365,4095.3846153846157,4277.435897435898,4313.846153846154,4371.794871794872,4289.2307692307695,1681.0,1684.0,1533.797,1420.228271484375,0.0,0.0,0.0,0.0
1532163,54.0,0.0,0.0,4530.256410256411,4154.871794871796,4296.923076923077,4816.410256410257,3783.076923076924,4237.948717948719,4267.179487179487,4349.2307692307695,4402.564102564103,4093.333333333334,4278.974358974359,4312.307692307693,4369.2307692307695,4281.025641025642,1681.0,1683.0,1533.806,1420.3221435546875,0.0,0.0,0.0,0.0
1532163,55.0,0.0,0.0,4535.8974358974365,4157.435897435898,4300.512820512821,4810.769230769231,3785.1282051282055,4235.8974358974365,4264.615384615385,4357.948717948719,4403.589743589744,4090.2564102564106,4276.410256410257,4315.8974358974365,4375.384615384616,4290.256410256411,1681.0,1684.0,1533.813,1420.3221435546875,0.0,0.0,0.0,0.0
1532163,56.0,0.0,0.0,4539.48717948718,4157.948717948719,4305.128205128206,4811.794871794872,3781.0256410256416,4228.205128205129,4259.48717948718,4342.564102564103,4395.384615384616,4089.7435897435903,4275.8974358974365,4312.307692307693,4375.384615384616,4297.435897435898,1681.0,1684.0,1533.82,1420.3221435546875,0.0,0.0,0.0,0.0
1532163,57.0,0.0,0.0,4529.743589743591,4151.282051282052,4296.410256410257,4812.820512820514,3776.410256410257,4233.333333333334,4253.333333333334,4319.48717948718,4385.128205128206,4081.538461538462,4276.410256410257,4303.076923076924,4363.076923076924,4284.102564102564,1681.0,1685.0,1533.828,1420.3221435546875,0.0,0.0,0.0,0.0
1532164,58.0,0.0,0.0,4531.794871794872,4156.923076923077,4296.923076923077,4815.384615384616,3781.0256410256416,4242.564102564103,4256.410256410257,4329.743589743591,4387.179487179487,4083.589743589744,4277.435897435898,4306.666666666667,4364.102564102564,4285.128205128206,1680.0,1684.0,1533.836,1420.3221435546875,0.0,0.0,0.0,0.0
1532164,59.0,0.0,0.0,4544.615384615385,4169.74358974359,4310.769230769231,4813.846153846154,3786.666666666667,4240.000000000001,4263.076923076924,4350.769230769231,4409.2307692307695,4100.000000000001,4275.8974358974365,4317.948717948719,4380.000000000001,4304.615384615385,1680.0,1686.0,1533.845,1420.3221435546875,0.0,0.0,0.0,0.0
1532164,60.0,0.0,0.0,4545.128205128206,4166.666666666667,4312.307692307693,4809.2307692307695,3785.1282051282055,4233.846153846154,4263.589743589744,4353.333333333334,4417.435897435898,4100.512820512821,4275.8974358974365,4317.435897435898,4380.512820512821,4306.153846153847,1681.0,1685.0,1533.852,1420.3221435546875,0.0,0.0,0.0,0.0
1532164,61.0,0.0,0.0,4541.025641025642,4158.461538461539,4305.641025641026,4814.358974358975,3781.0256410256416,4230.769230769231,4265.641025641026,4351.282051282052,4401.538461538462,4086.666666666667,4278.461538461539,4314.358974358975,4371.282051282052,4298.461538461539,1680.0,1685.0,1533.86,1420.3221435546875,0.0,0.0,0.0,0.0
1532164,62.0,0.0,0.0,4542.051282051282,4157.948717948719,4308.205128205129,4815.8974358974365,3780.512820512821,4229.2307692307695,4271.794871794872,4352.307692307693,4389.2307692307695,4086.666666666667,4277.948717948719,4317.948717948719,4371.794871794872,4298.461538461539,1682.0,1684.0,1533.868,1420.3221435546875,0.0,0.0,0.0,0.0
1532165,63.0,0.0,0.0,4544.102564102564,4159.48717948718,4312.820512820514,4813.846153846154,3787.692307692308,4226.153846153847,4269.74358974359,4353.333333333334,4393.846153846154,4097.435897435898,4277.435897435898,4320.000000000001,4376.410256410257,4301.538461538462,1681.0,1684.0,1533.876,1420.3221435546875,0.0,0.0,0.0,0.0
1532165,64.0,0.0,513.0,4546.153846153847,4160.000000000001,4310.769230769231,4813.333333333334,3802.0512820512827,4224.615384615385,4266.666666666667,4361.538461538462,4415.8974358974365,4104.102564102564,4276.410256410257,4315.8974358974365,4375.384615384616,4306.153846153847,1682.0,1683.0,1533.884,1420.3221435546875,0.0,0.0,0.0,0.0
1532165,65.0,0.0,0.0,4538.974358974359,4158.461538461539,4306.153846153847,4812.820512820514,3809.2307692307695,4234.358974358975,4267.6923076923085,4360.000000000001,4419.48717948718,4096.923076923077,4273.846153846154,4309.743589743591,4370.256410256411,4302.051282051282,1683.0,1683.0,1533.891,1420.3221435546875,0.0,0.0,0.0,0.0
1532165,66.0,0.0,508.0,4524.102564102564,4151.282051282052,4297.948717948719,4820.000000000001,3806.1538461538466,4240.512820512821,4261.538461538462,4349.2307692307695,4383.589743589744,4078.461538461539,4275.8974358974365,4308.205128205129,4361.025641025642,4286.153846153847,1682.0,1684.0,1533.899,1420.3221435546875,0.0,0.0,0.0,0.0
1532165,67.0,0.0,527.0,4516.923076923077,4151.794871794872,4295.8974358974365,4816.923076923077,3805.1282051282055,4229.74358974359,4257.948717948719,4350.256410256411,4360.000000000001,4072.820512820513,4278.461538461539,4308.205128205129,4355.8974358974365,4280.000000000001,1683.0,1683.0,1533.906,1420.3221435546875,0.0,0.0,0.0,0.0
1532166,68.0,0.0,497.0,4520.512820512821,4162.051282051282,4307.6923076923085,4812.820512820514,3808.205128205129,4225.641025641026,4264.615384615385,4360.512820512821,4373.846153846154,4080.0000000000005,4275.8974358974365,4309.2307692307695,4360.000000000001,4288.205128205129,1683.0,1683.0,1533.914,1420.3221435546875,0.0,0.0,0.0,0.0
1532166,69.0,0.0,551.0,4523.589743589744,4167.179487179487,4318.974358974359,4814.871794871796,3808.205128205129,4231.794871794872,4269.2307692307695,4368.717948717949,4394.358974358975,4085.6410256410263,4273.846153846154,4312.820512820514,4367.179487179487,4294.358974358975,1682.0,1683.0,1533.922,1420.3221435546875,0.0,0.0,0.0,0.0
1532285,70.0,0.0,546.0,4524.615384615385,4170.256410256411,4321.538461538462,4810.256410256411,3807.1794871794878,4229.74358974359,4269.2307692307695,4371.282051282052,4407.6923076923085,4099.48717948718,4275.8974358974365,4315.8974358974365,4373.333333333334,4292.820512820514,1681.0,1683.0,1533.93,1420.447265625,0.0,0.0,0.0,0.0
1532286,71.0,0.0,306.0,4519.48717948718,4169.74358974359,4319.48717948718,4811.282051282052,3809.2307692307695,4227.179487179487,4267.179487179487,4363.589743589744,4402.051282051282,4104.102564102564,4279.48717948718,4314.358974358975,4371.282051282052,4291.794871794872,1682.0,1683.0,1533.938,1420.447265625,0.0,0.0,0.0,0.0
1532286,72.0,0.0,456.0,4510.256410256411,4164.615384615385,4314.358974358975,4813.333333333334,3811.2820512820517,4236.410256410257,4269.74358974359,4360.512820512821,4395.8974358974365,4097.948717948719,4275.384615384616,4309.743589743591,4366.153846153847,4297.435897435898,1681.0,1685.0,1533.946,1420.447265625,0.0,0.0,0.0,0.0
1532286,73.0,0.0,475.0,4507.6923076923085,4162.051282051282,4311.282051282052,4810.769230769231,3809.7435897435903,4242.051282051282,4273.846153846154,4371.794871794872,4410.769230769231,4099.48717948718,4272.307692307693,4309.743589743591,4367.6923076923085,4297.435897435898,1681.0,1685.0,1533.953,1420.447265625,0.0,0.0,0.0,0.0
1532287,74.0,0.0,496.0,4512.820512820514,4169.74358974359,4316.923076923077,4813.333333333334,3808.717948717949,4234.358974358975,4272.307692307693,4372.307692307693,4415.8974358974365,4101.025641025642,4277.435897435898,4317.948717948719,4372.307692307693,4298.461538461539,1680.0,1686.0,1533.964,1420.447265625,0.0,0.0,0.0,0.0
1532287,75.0,0.0,488.0,4514.871794871796,4179.48717948718,4326.666666666667,4812.820512820514,3810.2564102564106,4230.256410256411,4272.820512820514,4366.666666666667,4412.820512820514,4105.128205128206,4278.974358974359,4322.564102564103,4380.512820512821,4313.333333333334,1679.0,1686.0,1533.97,1420.447265625,0.0,0.0,0.0,0.0
1532287,76.0,0.0,0.0,4506.153846153847,4174.871794871796,4321.025641025642,4814.358974358975,3810.2564102564106,4236.410256410257,4272.820512820514,4370.769230769231,4417.435897435898,4112.307692307693,4276.923076923077,4317.435897435898,4382.051282051282,4319.48717948718,1679.0,1685.0,1533.978,1420.447265625,0.0,0.0,0.0,0.0
1532287,77.0,0.0,299.0,4496.923076923077,4168.205128205129,4310.769230769231,4814.871794871796,3806.1538461538466,4240.512820512821,4268.205128205129,4371.794871794872,4405.128205128206,4105.128205128206,4274.358974358975,4313.333333333334,4375.8974358974365,4312.307692307693,1678.0,1685.0,1533.985,1420.447265625,0.0,0.0,0.0,0.0
1532287,78.0,0.0,496.0,4498.461538461539,4172.307692307693,4314.871794871796,4812.820512820514,3802.0512820512827,4233.846153846154,4263.589743589744,4370.769230769231,4386.666666666667,4095.3846153846157,4273.333333333334,4314.358974358975,4374.358974358975,4315.8974358974365,1679.0,1683.0,1533.993,1420.447265625,0.0,0.0,0.0,0.0
1532287,79.0,0.0,488.0,4496.923076923077,4169.2307692307695,4315.8974358974365,4814.871794871796,3805.1282051282055,4230.256410256411,4264.615384615385,4373.333333333334,4389.743589743591,4097.948717948719,4276.410256410257,4313.846153846154,4373.333333333334,4318.974358974359,1678.0,1683.0,1534.0,1420.447265625,0.0,0.0,0.0,0.0
1532287,80.0,0.0,0.0,4484.102564102564,4155.384615384616,4304.102564102564,4811.794871794872,3809.7435897435903,4245.128205128206,4269.74358974359,4366.153846153847,4399.48717948718,4098.974358974359,4275.384615384616,4309.2307692307695,4362.564102564103,4306.153846153847,1679.0,1682.0,1534.008,1420.447265625,0.0,0.0,0.0,0.0
1532287,81.0,0.0,299.0,4481.025641025642,4155.384615384616,4302.564102564103,4812.820512820514,3808.717948717949,4252.307692307693,4272.820512820514,4354.358974358975,4394.871794871796,4094.358974358975,4274.871794871796,4312.820512820514,4356.923076923077,4304.102564102564,1679.0,1682.0,1534.016,1420.447265625,0.0,0.0,0.0,0.0
1532288,82.0,0.0,496.0,4497.435897435898,4170.769230769231,4317.948717948719,4814.871794871796,3807.1794871794878,4242.564102564103,4274.871794871796,4362.051282051282,4394.358974358975,4097.435897435898,4275.8974358974365,4322.051282051282,4372.820512820514,4323.589743589744,1680.0,1683.0,1534.024,1420.447265625,0.0,0.0,0.0,0.0
1532288,83.0,0.0,488.0,4511.282051282052,4185.128205128206,4331.794871794872,4812.820512820514,3814.358974358975,4237.948717948719,4280.512820512821,4375.8974358974365,4405.128205128206,4107.6923076923085,4273.846153846154,4326.153846153847,4390.256410256411,4342.051282051282,1679.0,1684.0,1534.032,1420.447265625,0.0,0.0,0.0,0.0
1532288,84.0,0.0,0.0,4512.820512820514,4188.717948717949,4334.358974358975,4815.8974358974365,3818.9743589743593,4238.974358974359,4286.153846153847,4375.8974358974365,4406.666666666667,4117.435897435898,4275.384615384616,4326.153846153847,4390.256410256411,4346.153846153847,1681.0,1685.0,1534.039,1420.447265625,0.0,0.0,0.0,0.0
1532288,85.0,0.0,299.0,4500.512820512821,4173.846153846154,4324.102564102564,4812.820512820514,3812.820512820513,4243.076923076924,4286.153846153847,4373.333333333334,4405.641025641026,4113.333333333334,4277.948717948719,4317.948717948719,4372.820512820514,4329.2307692307695,1681.0,1686.0,1534.047,1420.447265625,0.0,0.0,0.0,0.0
1532415,86.0,0.0,496.0,4478.461538461539,4149.2307692307695,4302.564102564103,4812.307692307693,3807.1794871794878,4252.307692307693,4279.48717948718,4374.871794871796,4417.948717948719,4099.48717948718,4276.410256410257,4308.205128205129,4355.8974358974365,4308.205128205129,1682.0,1687.0,1534.055,1420.5723876953125,0.0,0.0,0.0,0.0
1532415,87.0,0.0,488.0,4475.8974358974365,4146.666666666667,4294.358974358975,4812.820512820514,3803.589743589744,4248.205128205129,4274.871794871796,4374.358974358975,4412.307692307693,4097.948717948719,4274.358974358975,4310.769230769231,4362.564102564103,4312.307692307693,1682.0,1686.0,1534.063,1420.5723876953125,0.0,0.0,0.0,0.0
1532416,88.0,0.0,0.0,4490.769230769231,4163.076923076924,4307.6923076923085,4808.717948717949,3801.538461538462,4229.74358974359,4274.871794871796,4375.384615384616,4390.769230769231,4102.564102564103,4277.435897435898,4318.461538461539,4377.948717948719,4328.205128205129,1682.0,1689.0,1534.071,1420.5723876953125,0.0,0.0,0.0,0.0
1532416,89.0,0.0,299.0,4488.205128205129,4162.564102564103,4312.307692307693,4814.358974358975,3803.589743589744,4229.2307692307695,4275.384615384616,4376.410256410257,4393.846153846154,4102.051282051282,4281.025641025642,4317.948717948719,4374.358974358975,4324.102564102564,1683.0,1688.0,1534.079,1420.5723876953125,0.0,0.0,0.0,0.0
1532416,90.0,0.0,496.0,4476.923076923077,4152.820512820514,4304.615384615385,4816.410256410257,3806.1538461538466,4244.102564102564,4278.974358974359,4372.820512820514,4410.256410256411,4103.076923076924,4277.435897435898,4313.846153846154,4366.666666666667,4313.333333333334,1682.0,1688.0,1534.087,1420.5723876953125,0.0,0.0,0.0,0.0
1532416,91.0,0.0,488.0,4481.025641025642,4157.948717948719,4306.153846153847,4811.794871794872,3805.6410256410263,4242.051282051282,4280.000000000001,4370.256410256411,4408.205128205129,4107.6923076923085,4273.333333333334,4313.333333333334,4372.820512820514,4321.025641025642,1681.0,1686.0,1534.095,1420.5723876953125,0.0,0.0,0.0,0.0
1532416,92.0,0.0,0.0,4489.743589743591,4166.153846153847,4314.871794871796,4810.256410256411,3807.692307692308,4238.461538461539,4276.410256410257,4366.666666666667,4396.410256410257,4106.153846153847,4273.846153846154,4312.307692307693,4375.384615384616,4326.666666666667,1681.0,1686.0,1534.102,1420.5723876953125,0.0,0.0,0.0,0.0
1532416,93.0,0.0,299.0,4491.794871794872,4168.717948717949,4316.410256410257,4810.769230769231,3809.7435897435903,4246.666666666667,4277.948717948719,4363.589743589744,4391.282051282052,4101.025641025642,4274.358974358975,4312.307692307693,4375.8974358974365,4319.48717948718,1681.0,1685.0,1534.111,1420.5723876953125,0.0,0.0,0.0,0.0
1532416,94.0,0.0,496.0,4487.6923076923085,4167.6923076923085,4312.820512820514,4816.923076923077,3807.1794871794878,4248.205128205129,4284.102564102564,4368.717948717949,4397.435897435898,4104.102564102564,4276.410256410257,4315.8974358974365,4382.564102564103,4319.48717948718,1680.0,1686.0,1534.117,1420.5723876953125,0.0,0.0,0.0,0.0
1532417,95.0,0.0,488.0,4480.000000000001,4162.051282051282,4308.205128205129,4813.333333333334,3806.1538461538466,4250.256410256411,4283.589743589744,4367.6923076923085,4410.769230769231,4109.74358974359,4276.923076923077,4312.820512820514,4382.051282051282,4323.589743589744,1680.0,1685.0,1534.126,1420.5723876953125,0.0,0.0,0.0,0.0
1532417,96.0,0.0,0.0,4472.307692307693,4158.461538461539,4303.076923076924,4808.717948717949,3807.692307692308,4256.923076923077,4276.410256410257,4352.820512820514,4414.358974358975,4103.076923076924,4275.384615384616,4306.666666666667,4370.769230769231,4319.48717948718,1680.0,1685.0,1534.133,1420.5723876953125,0.0,0.0,0.0,0.0
1532417,97.0,0.0,299.0,4474.358974358975,4161.025641025642,4302.051282051282,4816.923076923077,3810.2564102564106,4261.538461538462,4274.871794871796,4344.615384615385,4403.589743589744,4089.7435897435903,4276.923076923077,4310.769230769231,4368.717948717949,4317.948717948719,1680.0,1685.0,1534.141,1420.5723876953125,0.0,0.0,0.0,0.0
1532417,98.0,0.0,496.0,4482.051282051282,4163.076923076924,4307.179487179487,4814.871794871796,3809.7435897435903,4272.307692307693,4282.564102564103,4348.205128205129,4394.358974358975,4090.2564102564106,4276.923076923077,4315.384615384616,4375.384615384616,4321.538461538462,1680.0,1683.0,1534.149,1420.5723876953125,0.0,0.0,0.0,0.0
1532418,99.0,0.0,488.0,4483.076923076924,4160.512820512821,4307.6923076923085,4811.282051282052,3806.666666666667,4280.512820512821,4283.589743589744,4345.128205128206,4397.435897435898,4098.461538461539,4276.410256410257,4312.307692307693,4373.333333333334,4318.461538461539,1678.0,1686.0,1534.157,1420.5723876953125,0.0,0.0,0.0,0.0
1532418,100.0,0.0,0.0,4477.435897435898,4161.025641025642,4304.102564102564,4814.358974358975,3803.076923076924,4271.794871794872,4277.948717948719,4341.025641025642,4401.025641025642,4100.000000000001,4276.923076923077,4309.743589743591,4369.743589743591,4315.8974358974365,1680.0,1684.0,1534.164,1420.5723876953125,0.0,0.0,0.0,0.0
1532419,101.0,0.0,299.0,4473.846153846154,4163.076923076924,4305.128205128206,4813.846153846154,3800.0000000000005,4263.076923076924,4275.8974358974365,4345.641025641026,4400.000000000001,4097.435897435898,4276.410256410257,4309.2307692307695,4371.282051282052,4313.333333333334,1679.0,1685.0,1534.172,1420.5723876953125,0.0,0.0,0.0,0.0
1532440,102.0,0.0,496.0,4468.717948717949,4158.461538461539,4300.512820512821,4813.846153846154,3797.9487179487182,4266.153846153847,4276.410256410257,4348.205128205129,4404.615384615385,4094.8717948717954,4275.8974358974365,4308.717948717949,4365.128205128206,4304.102564102564,1679.0,1684.0,1534.18,1420.697509765625,0.0,0.0,0.0,0.0
1532440,103.0,0.0,488.0,4464.615384615385,4154.358974358975,4292.820512820514,4811.794871794872,3795.3846153846157,4269.74358974359,4274.358974358975,4334.358974358975,4394.871794871796,4089.7435897435903,4274.871794871796,4306.666666666667,4360.512820512821,4299.48717948718,1679.0,1684.0,1534.188,1420.697509765625,0.0,0.0,0.0,0.0
1532440,104.0,0.0,0.0,4464.615384615385,4151.282051282052,4291.794871794872,4813.846153846154,3791.7948717948725,4266.666666666667,4268.205128205129,4323.076923076924,4375.8974358974365,4079.48717948718,4277.948717948719,4308.205128205129,4360.000000000001,4297.435897435898,1679.0,1684.0,1534.196,1420.697509765625,0.0,0.0,0.0,0.0
1532440,105.0,0.0,299.0,4464.615384615385,4149.74358974359,4293.333333333334,4812.307692307693,3788.205128205129,4262.051282051282,4265.641025641026,4331.282051282052,4387.6923076923085,4077.9487179487187,4277.948717948719,4310.769230769231,4359.48717948718,4288.717948717949,1679.0,1684.0,1534.204,1420.697509765625,0.0,0.0,0.0,0.0
1532533,106.0,0.0,496.0,4468.717948717949,4155.8974358974365,4296.410256410257,4808.205128205129,3789.7435897435903,4262.051282051282,4275.384615384616,4338.974358974359,4406.666666666667,4091.2820512820517,4273.333333333334,4310.769230769231,4365.641025641026,4285.128205128206,1680.0,1683.0,1534.212,1420.728759765625,0.0,0.0,0.0,0.0
1532533,107.0,0.0,488.0,4476.923076923077,4164.102564102564,4306.666666666667,4813.333333333334,3794.358974358975,4264.615384615385,4284.615384615385,4335.8974358974365,4403.589743589744,4099.48717948718,4274.871794871796,4315.8974358974365,4374.358974358975,4301.538461538462,1680.0,1682.0,1534.219,1420.728759765625,0.0,0.0,0.0,0.0
1532534,108.0,0.0,0.0,4477.948717948719,4165.641025641026,4312.820512820514,4813.333333333334,3795.3846153846157,4266.666666666667,4281.025641025642,4336.410256410257,4406.666666666667,4101.025641025642,4274.358974358975,4318.461538461539,4375.8974358974365,4316.410256410257,1681.0,1683.0,1534.228,1420.728759765625,0.0,0.0,0.0,0.0
1532534,109.0,0.0,299.0,4468.717948717949,4155.8974358974365,4303.076923076924,4811.794871794872,3792.307692307693,4260.512820512821,4274.871794871796,4335.8974358974365,4407.6923076923085,4096.923076923077,4275.384615384616,4312.820512820514,4366.666666666667,4307.179487179487,1681.0,1683.0,1534.235,1420.728759765625,0.0,0.0,0.0,0.0
1532534,110.0,0.0,496.0,4465.641025641026,4148.717948717949,4296.410256410257,4813.333333333334,3791.2820512820517,4258.461538461539,4275.8974358974365,4326.153846153847,4396.410256410257,4088.717948717949,4278.461538461539,4306.666666666667,4355.8974358974365,4297.948717948719,1682.0,1683.0,1534.244,1420.728759765625,0.0,0.0,0.0,0.0
1532534,111.0,0.0,488.0,4469.743589743591,4152.307692307693,4304.102564102564,4812.307692307693,3794.8717948717954,4267.6923076923085,4276.923076923077,4321.025641025642,4397.948717948719,4090.2564102564106,4275.8974358974365,4308.717948717949,4358.461538461539,4308.717948717949,1681.0,1683.0,1534.25,1420.728759765625,0.0,0.0,0.0,0.0
1532535,112.0,0.0,0.0,4471.794871794872,4156.923076923077,4309.743589743591,4817.948717948719,3796.410256410257,4263.589743589744,4273.333333333334,4315.384615384616,4406.666666666667,4095.3846153846157,4273.846153846154,4314.871794871796,4367.179487179487,4320.000000000001,1682.0,1682.0,1534.258,1420.728759765625,0.0,0.0,0.0,0.0
1532535,113.0,0.0,299.0,4472.307692307693,4155.384615384616,4308.717948717949,4815.384615384616,3792.307692307693,4252.307692307693,4274.871794871796,4302.564102564103,4412.307692307693,4094.358974358975,4273.846153846154,4316.923076923077,4369.2307692307695,4319.48717948718,1681.0,1683.0,1534.266,1420.728759765625,0.0,0.0,0.0,0.0
1532536,114.0,0.0,496.0,4474.358974358975,4154.871794871796,4309.743589743591,4809.2307692307695,3788.717948717949,4259.48717948718,4280.000000000001,4307.6923076923085,4407.6923076923085,4094.358974358975,4275.384615384616,4318.461538461539,4368.205128205129,4316.410256410257,1682.0,1684.0,1534.274,1420.728759765625,0.0,0.0,0.0,0.0
1532536,115.0,0.0,488.0,4475.8974358974365,4155.384615384616,4309.2307692307695,4813.333333333334,3789.7435897435903,4266.666666666667,4277.948717948719,4331.282051282052,4402.051282051282,4096.923076923077,4275.384615384616,4317.435897435898,4367.6923076923085,4315.8974358974365,1681.0,1685.0,1534.282,1420.728759765625,0.0,0.0,0.0,0.0
1532536,116.0,0.0,0.0,4472.307692307693,4153.333333333334,4306.153846153847,4813.846153846154,3792.820512820513,4262.564102564103,4274.358974358975,4336.923076923077,4405.128205128206,4095.8974358974365,4273.333333333334,4313.846153846154,4364.615384615385,4314.871794871796,1681.0,1687.0,1534.289,1420.728759765625,0.0,0.0,0.0,0.0
1532536,117.0,0.0,299.0,4467.179487179487,4150.256410256411,4304.102564102564,4814.871794871796,3796.410256410257,4255.8974358974365,4277.948717948719,4329.743589743591,4400.512820512821,4091.2820512820517,4276.410256410257,4315.8974358974365,4361.025641025642,4313.846153846154,1681.0,1685.0,1534.297,1420.728759765625,0.0,0.0,0.0,0.0
1532665,118.0,0.0,496.0,4462.051282051282,4147.6923076923085,4301.025641025642,4813.333333333334,3795.8974358974365,4251.282051282052,4281.538461538462,4339.48717948718,4386.153846153847,4087.1794871794878,4277.948717948719,4314.871794871796,4358.461538461539,4305.128205128206,1681.0,1685.0,1534.305,1420.8226318359375,0.0,0.0,0.0,0.0
1532665,119.0,0.0,488.0,4455.8974358974365,4143.589743589744,4296.923076923077,4811.794871794872,3794.358974358975,4252.307692307693,4277.435897435898,4339.48717948718,4390.769230769231,4083.076923076924,4274.358974358975,4309.2307692307695,4353.333333333334,4290.769230769231,1682.0,1683.0,1534.313,1420.8226318359375,0.0,0.0,0.0,0.0
1532665,120.0,0.0,0.0,4456.923076923077,4142.051282051282,4295.8974358974365,4814.871794871796,3795.8974358974365,4257.948717948719,4273.333333333334,4304.102564102564,4407.6923076923085,4082.0512820512827,4275.8974358974365,4310.256410256411,4350.256410256411,4289.74358974359,1680.0,1683.0,1534.321,1420.8226318359375,0.0,0.0,0.0,0.0
1532666,121.0,0.0,299.0,4461.025641025642,4146.666666666667,4298.974358974359,4811.282051282052,3797.435897435898,4263.076923076924,4274.871794871796,4287.6923076923085,4404.615384615385,4086.1538461538466,4278.461538461539,4313.333333333334,4355.8974358974365,4295.8974358974365,1682.0,1683.0,1534.329,1420.8226318359375,0.0,0.0,0.0,0.0
1532666,122.0,0.0,496.0,4457.435897435898,4148.717948717949,4301.538461538462,4811.282051282052,3800.512820512821,4264.615384615385,4276.410256410257,4337.435897435898,4408.717948717949,4100.512820512821,4277.435897435898,4313.333333333334,4364.615384615385,4297.948717948719,1681.0,1682.0,1534.337,1420.8226318359375,0.0,0.0,0.0,0.0
1532667,123.0,0.0,488.0,4455.384615384616,4146.666666666667,4298.974358974359,4812.820512820514,3805.6410256410263,4257.948717948719,4275.8974358974365,4395.384615384616,4427.6923076923085,4117.435897435898,4274.358974358975,4314.358974358975,4369.2307692307695,4300.000000000001,1681.0,1684.0,1534.344,1420.8226318359375,0.0,0.0,0.0,0.0
1532667,124.0,0.0,0.0,4460.000000000001,4149.2307692307695,4295.8974358974365,4809.743589743591,3805.1282051282055,4248.717948717949,4275.384615384616,4401.538461538462,4423.076923076924,4113.333333333334,4273.846153846154,4313.846153846154,4371.282051282052,4301.025641025642,1681.0,1684.0,1534.352,1420.8226318359375,0.0,0.0,0.0,0.0
1532667,125.0,0.0,299.0,4458.461538461539,4155.384615384616,4297.435897435898,4813.333333333334,3800.0000000000005,4251.282051282052,4272.820512820514,4382.051282051282,4400.000000000001,4101.025641025642,4275.384615384616,4310.769230769231,4369.2307692307695,4301.025641025642,1681.0,1684.0,1534.361,1420.8226318359375,0.0,0.0,0.0,0.0
1532667,126.0,0.0,496.0,4453.333333333334,4153.846153846154,4298.461538461539,4813.846153846154,3796.9230769230776,4260.512820512821,4271.282051282052,4373.333333333334,4398.461538461539,4103.589743589744,4274.871794871796,4307.6923076923085,4366.153846153847,4302.564102564103,1681.0,1683.0,1534.368,1420.8226318359375,0.0,0.0,0.0,0.0
1532668,127.0,0.0,488.0,4452.820512820514,4146.153846153847,4295.384615384616,4813.333333333334,3795.3846153846157,4258.461538461539,4268.717948717949,4364.102564102564,4410.769230769231,4108.717948717949,4275.384615384616,4306.153846153847,4363.076923076924,4298.974358974359,1681.0,1685.0,1534.376,1420.8226318359375,0.0,0.0,0.0,0.0
1532668,128.0,0.0,0.0,4450.769230769231,4146.666666666667,4293.846153846154,4813.333333333334,3794.358974358975,4254.358974358975,4264.102564102564,4354.871794871796,4407.6923076923085,4097.948717948719,4273.846153846154,4306.153846153847,4357.435897435898,4290.769230769231,1682.0,1683.0,1534.383,1420.8226318359375,0.0,0.0,0.0,0.0
1532668,0.0,0.0,513.0,4443.589743589744,4148.717948717949,4287.6923076923085,4810.256410256411,3790.7692307692314,4257.948717948719,4262.564102564103,4354.871794871796,4400.000000000001,4086.1538461538466,4271.794871794872,4305.128205128206,4350.769230769231,4289.2307692307695,1680.0,1684.0,1534.391,1420.8226318359375,0.0,0.0,0.0,0.0
1532668,1.0,0.0,0.0,4439.48717948718,4142.051282051282,4280.512820512821,4813.846153846154,3784.1025641025644,4253.846153846154,4260.512820512821,4353.846153846154,4391.794871794872,4086.1538461538466,4275.384615384616,4304.615384615385,4349.743589743591,4285.641025641026,1682.0,1683.0,1534.399,1420.8226318359375,0.0,0.0,0.0,0.0
1532668,2.0,0.0,508.0,4441.538461538462,4140.000000000001,4286.153846153847,4814.871794871796,3785.1282051282055,4248.717948717949,4263.589743589744,4353.846153846154,4405.128205128206,4093.333333333334,4277.948717948719,4309.2307692307695,4355.384615384616,4283.076923076924,1681.0,1683.0,1534.407,1420.8226318359375,0.0,0.0,0.0,0.0
1532669,3.0,0.0,530.0,4441.025641025642,4141.025641025642,4292.820512820514,4813.846153846154,3789.7435897435903,4256.410256410257,4264.102564102564,4351.282051282052,4421.538461538462,4087.1794871794878,4274.871794871796,4308.717948717949,4352.307692307693,4286.153846153847,1682.0,1682.0,1534.415,1420.8226318359375,0.0,0.0,0.0,0.0
1532669,4.0,0.0,497.0,4442.051282051282,4141.538461538462,4294.871794871796,4813.333333333334,3784.1025641025644,4253.333333333334,4255.384615384616,4341.538461538462,4403.589743589744,4071.7948717948725,4274.871794871796,4304.615384615385,4347.6923076923085,4288.205128205129,1681.0,1682.0,1534.422,1420.8226318359375,0.0,0.0,0.0,0.0
1532790,5.0,0.0,551.0,4446.666666666667,4147.179487179487,4296.923076923077,4811.794871794872,3777.435897435898,4236.923076923077,4253.846153846154,4336.923076923077,4398.461538461539,4081.0256410256416,4276.410256410257,4305.641025641026,4360.000000000001,4288.717948717949,1681.0,1684.0,1534.43,1420.94775390625,0.0,0.0,0.0,0.0
1532790,6.0,0.0,546.0,4438.461538461539,4146.666666666667,4286.666666666667,4816.923076923077,3783.076923076924,4242.564102564103,4264.102564102564,4342.564102564103,4409.743589743591,4093.333333333334,4277.435897435898,4306.153846153847,4365.641025641026,4288.205128205129,1681.0,1684.0,1534.438,1420.94775390625,0.0,0.0,0.0,0.0
1532791,7.0,0.0,306.0,4435.8974358974365,4147.6923076923085,4285.641025641026,4814.358974358975,3792.307692307693,4259.48717948718,4270.256410256411,4347.6923076923085,4404.615384615385,4085.6410256410263,4275.384615384616,4305.128205128206,4366.666666666667,4294.358974358975,1681.0,1684.0,1534.446,1420.94775390625,0.0,0.0,0.0,0.0
1532791,8.0,0.0,456.0,4451.794871794872,4162.051282051282,4303.589743589744,4809.2307692307695,3793.8461538461543,4257.435897435898,4269.74358974359,4350.256410256411,4404.615384615385,4089.7435897435903,4275.384615384616,4312.307692307693,4379.48717948718,4303.589743589744,1681.0,1684.0,1534.454,1420.94775390625,0.0,0.0,0.0,0.0
1532791,9.0,0.0,475.0,4458.974358974359,4168.717948717949,4305.128205128206,4812.820512820514,3792.820512820513,4250.769230769231,4270.769230769231,4357.948717948719,4423.589743589744,4104.615384615385,4276.923076923077,4317.948717948719,4383.076923076924,4302.564102564103,1681.0,1685.0,1534.462,1420.94775390625,0.0,0.0,0.0,0.0
1532791,10.0,0.0,495.0,4452.307692307693,4160.512820512821,4296.410256410257,4811.794871794872,3792.820512820513,4256.923076923077,4274.358974358975,4359.48717948718,4427.179487179487,4100.000000000001,4274.871794871796,4311.282051282052,4371.794871794872,4291.282051282052,1681.0,1684.0,1534.469,1420.94775390625,0.0,0.0,0.0,0.0
1532791,11.0,0.0,488.0,4449.743589743591,4158.461538461539,4301.538461538462,4813.846153846154,3792.820512820513,4260.512820512821,4271.282051282052,4348.717948717949,4409.743589743591,4082.0512820512827,4275.384615384616,4308.717948717949,4366.666666666667,4282.051282051282,1680.0,1685.0,1534.477,1420.94775390625,0.0,0.0,0.0,0.0
1532791,12.0,0.0,0.0,4446.153846153847,4158.461538461539,4300.512820512821,4815.384615384616,3791.7948717948725,4265.641025641026,4268.205128205129,4347.179487179487,4408.205128205129,4080.5128205128212,4276.923076923077,4308.717948717949,4365.128205128206,4280.000000000001,1681.0,1684.0,1534.485,1420.94775390625,0.0,0.0,0.0,0.0
1532791,13.0,0.0,299.0,4441.538461538462,4154.358974358975,4289.74358974359,4813.846153846154,3789.7435897435903,4271.282051282052,4271.794871794872,4350.256410256411,4411.794871794872,4087.1794871794878,4275.8974358974365,4306.666666666667,4361.538461538462,4279.48717948718,1680.0,1684.0,1534.493,1420.94775390625,0.0,0.0,0.0,0.0
1532791,14.0,0.0,495.0,4452.307692307693,4163.076923076924,4300.000000000001,4815.384615384616,3791.2820512820517,4260.000000000001,4276.410256410257,4347.6923076923085,4406.666666666667,4088.205128205129,4276.410256410257,4313.846153846154,4369.2307692307695,4287.6923076923085,1681.0,1685.0,1534.501,1420.94775390625,0.0,0.0,0.0,0.0
1532792,15.0,0.0,488.0,4463.589743589744,4174.871794871796,4314.871794871796,4811.282051282052,3795.3846153846157,4252.307692307693,4279.48717948718,4355.8974358974365,4404.102564102564,4086.666666666667,4274.871794871796,4318.461538461539,4376.923076923077,4298.974358974359,1680.0,1684.0,1534.509,1420.94775390625,0.0,0.0,0.0,0.0
1532792,16.0,0.0,0.0,4451.794871794872,4163.589743589744,4300.512820512821,4814.358974358975,3793.8461538461543,4266.153846153847,4274.871794871796,4373.333333333334,4414.871794871796,4084.1025641025644,4274.871794871796,4310.256410256411,4366.666666666667,4292.820512820514,1680.0,1685.0,1534.517,1420.94775390625,0.0,0.0,0.0,0.0
1532792,17.0,0.0,0.0,4438.974358974359,4150.256410256411,4286.666666666667,4816.410256410257,3789.7435897435903,4274.358974358975,4267.179487179487,4366.666666666667,4416.923076923077,4081.0256410256416,4274.871794871796,4304.615384615385,4356.410256410257,4283.076923076924,1680.0,1683.0,1534.524,1420.94775390625,0.0,0.0,0.0,0.0
1532792,18.0,0.0,0.0,4448.205128205129,4159.48717948718,4301.538461538462,4812.307692307693,3788.717948717949,4261.025641025642,4266.666666666667,4350.256410256411,4396.410256410257,4078.461538461539,4272.820512820514,4310.256410256411,4364.102564102564,4291.794871794872,1680.0,1684.0,1534.533,1420.94775390625,0.0,0.0,0.0,0.0
1532792,19.0,0.0,0.0,4465.128205128206,4175.8974358974365,4317.948717948719,4814.358974358975,3787.692307692308,4248.205128205129,4272.820512820514,4360.000000000001,4391.282051282052,4082.564102564103,4273.846153846154,4317.948717948719,4380.000000000001,4310.256410256411,1680.0,1682.0,1534.54,1420.94775390625,0.0,0.0,0.0,0.0
1532793,20.0,0.0,0.0,4467.179487179487,4179.48717948718,4314.871794871796,4812.820512820514,3784.1025641025644,4250.256410256411,4277.435897435898,4372.307692307693,4421.538461538462,4096.410256410257,4275.384615384616,4317.948717948719,4387.6923076923085,4316.410256410257,1680.0,1682.0,1534.548,1420.94775390625,0.0,0.0,0.0,0.0
1532912,21.0,0.0,0.0,4446.153846153847,4162.051282051282,4295.8974358974365,4811.282051282052,3778.9743589743593,4266.153846153847,4273.846153846154,4363.076923076924,4437.948717948719,4094.8717948717954,4276.410256410257,4308.717948717949,4371.794871794872,4301.025641025642,1681.0,1682.0,1534.555,1421.07275390625,0.0,0.0,0.0,0.0
1532912,22.0,0.0,0.0,4429.743589743591,4146.153846153847,4280.512820512821,4812.820512820514,3775.3846153846157,4275.8974358974365,4266.153846153847,4352.820512820514,4415.384615384616,4077.9487179487187,4273.333333333334,4299.48717948718,4352.307692307693,4283.076923076924,1680.0,1683.0,1534.563,1421.07275390625,0.0,0.0,0.0,0.0
1532912,23.0,0.0,0.0,4444.615384615385,4159.48717948718,4292.307692307693,4810.769230769231,3778.461538461539,4253.333333333334,4265.641025641026,4357.948717948719,4400.512820512821,4081.0256410256416,4272.820512820514,4305.641025641026,4363.589743589744,4295.384615384616,1681.0,1682.0,1534.571,1421.07275390625,0.0,0.0,0.0,0.0
1532912,24.0,0.0,0.0,4460.512820512821,4173.333333333334,4309.2307692307695,4812.820512820514,3782.0512820512827,4232.307692307693,4267.6923076923085,4364.102564102564,4406.666666666667,4088.717948717949,4276.410256410257,4315.384615384616,4380.512820512821,4318.461538461539,1680.0,1682.0,1534.579,1421.07275390625,0.0,0.0,0.0,0.0
1532913,25.0,0.0,0.0,4453.333333333334,4162.564102564103,4303.076923076924,4811.794871794872,3775.8974358974365,4245.641025641026,4262.564102564103,4365.128205128206,4405.128205128206,4081.0256410256416,4276.923076923077,4309.743589743591,4372.820512820514,4315.8974358974365,1681.0,1683.0,1534.587,1421.07275390625,0.0,0.0,0.0,0.0
1532913,26.0,0.0,0.0,4446.666666666667,4155.384615384616,4294.871794871796,4811.794871794872,3772.307692307693,4257.948717948719,4259.48717948718,4370.769230769231,4398.461538461539,4078.9743589743593,4275.8974358974365,4304.615384615385,4363.076923076924,4303.076923076924,1681.0,1681.0,1534.594,1421.07275390625,0.0,0.0,0.0,0.0
1532913,27.0,0.0,0.0,4443.589743589744,4155.384615384616,4291.794871794872,4811.282051282052,3772.820512820513,4250.256410256411,4262.564102564103,4367.179487179487,4391.794871794872,4077.9487179487187,4275.384615384616,4306.153846153847,4360.512820512821,4301.538461538462,1681.0,1682.0,1534.602,1421.07275390625,0.0,0.0,0.0,0.0
1532913,28.0,0.0,0.0,4437.948717948719,4149.2307692307695,4283.076923076924,4808.205128205129,3767.1794871794878,4244.102564102564,4261.538461538462,4358.974358974359,4389.743589743591,4069.23076923077,4273.333333333334,4304.102564102564,4360.000000000001,4305.128205128206,1683.0,1682.0,1534.61,1421.07275390625,0.0,0.0,0.0,0.0
1532914,29.0,0.0,0.0,4437.435897435898,4148.205128205129,4280.000000000001,4814.358974358975,3763.076923076924,4238.461538461539,4258.974358974359,4365.128205128206,4396.410256410257,4072.307692307693,4275.384615384616,4305.641025641026,4364.102564102564,4306.153846153847,1683.0,1684.0,1534.631,1421.07275390625,0.0,0.0,0.0,0.0
1532914,30.0,0.0,0.0,4441.538461538462,4153.333333333334,4289.2307692307695,4814.358974358975,3764.1025641025644,4244.615384615385,4262.051282051282,4374.871794871796,4401.538461538462,4077.9487179487187,4278.461538461539,4309.743589743591,4366.666666666667,4305.128205128206,1683.0,1685.0,1534.634,1421.07275390625,0.0,0.0,0.0,0.0
1532914,31.0,0.0,0.0,4447.179487179487,4154.871794871796,4298.461538461539,4808.717948717949,3769.2307692307695,4259.48717948718,4265.641025641026,4373.333333333334,4405.128205128206,4077.435897435898,4277.948717948719,4310.769230769231,4363.076923076924,4307.6923076923085,1683.0,1686.0,1534.634,1421.07275390625,0.0,0.0,0.0,0.0
1532914,32.0,0.0,0.0,4449.743589743591,4153.333333333334,4295.384615384616,4811.794871794872,3770.2564102564106,4256.923076923077,4263.589743589744,4369.743589743591,4417.948717948719,4086.666666666667,4277.948717948719,4308.717948717949,4359.48717948718,4310.769230769231,1683.0,1687.0,1534.641,1421.07275390625,0.0,0.0,0.0,0.0
1532915,33.0,0.0,0.0,4441.538461538462,4151.282051282052,4286.153846153847,4811.794871794872,3766.1538461538466,4248.205128205129,4260.512820512821,4366.153846153847,4407.179487179487,4079.48717948718,4276.923076923077,4301.025641025642,4351.282051282052,4304.102564102564,1683.0,1687.0,1534.649,1421.07275390625,0.0,0.0,0.0,0.0
1532915,34.0,0.0,0.0,4434.871794871796,4150.769230769231,4286.153846153847,4813.846153846154,3766.1538461538466,4247.6923076923085,4256.923076923077,4366.666666666667,4385.641025641026,4059.48717948718,4277.948717948719,4301.025641025642,4346.666666666667,4301.538461538462,1682.0,1687.0,1534.657,1421.07275390625,0.0,0.0,0.0,0.0
1532915,35.0,0.0,0.0,4444.615384615385,4157.948717948719,4298.974358974359,4816.923076923077,3768.717948717949,4250.256410256411,4259.48717948718,4365.641025641026,4400.512820512821,4075.3846153846157,4277.948717948719,4311.282051282052,4358.974358974359,4314.358974358975,1680.0,1689.0,1534.665,1421.07275390625,0.0,0.0,0.0,0.0
1532915,36.0,0.0,0.0,4450.769230769231,4161.025641025642,4300.000000000001,4812.307692307693,3768.717948717949,4257.435897435898,4265.128205128206,4348.717948717949,4413.846153846154,4093.333333333334,4274.358974358975,4311.282051282052,4366.666666666667,4317.948717948719,1680.0,1688.0,1534.673,1421.07275390625,0.0,0.0,0.0,0.0
1532946,37.0,0.0,0.0,4436.923076923077,4146.666666666667,4284.615384615385,4811.794871794872,3764.615384615385,4260.000000000001,4260.000000000001,4329.743589743591,4398.461538461539,4071.2820512820517,4274.871794871796,4302.051282051282,4350.256410256411,4302.564102564103,1680.0,1689.0,1534.68,1421.1978759765625,0.0,0.0,0.0,0.0
1532946,38.0,0.0,0.0,4427.6923076923085,4141.025641025642,4281.025641025642,4812.820512820514,3762.564102564103,4248.717948717949,4255.384615384616,4321.025641025642,4406.666666666667,4066.1538461538466,4275.384615384616,4303.589743589744,4347.179487179487,4299.48717948718,1679.0,1688.0,1534.688,1421.1978759765625,0.0,0.0,0.0,0.0
1532946,39.0,0.0,0.0,4431.794871794872,4148.205128205129,4288.717948717949,4813.333333333334,3766.1538461538466,4240.000000000001,4257.948717948719,4310.769230769231,4424.615384615385,4091.2820512820517,4275.384615384616,4312.307692307693,4362.051282051282,4309.2307692307695,1678.0,1687.0,1534.696,1421.1978759765625,0.0,0.0,0.0,0.0
1532946,40.0,0.0,0.0,4428.717948717949,4146.666666666667,4285.641025641026,4811.282051282052,3769.7435897435903,4246.153846153847,4258.461538461539,4308.205128205129,4397.948717948719,4078.9743589743593,4277.435897435898,4307.6923076923085,4357.948717948719,4304.615384615385,1678.0,1685.0,1534.704,1421.1978759765625,0.0,0.0,0.0,0.0
1533041,41.0,0.0,0.0,4425.641025641026,4144.615384615385,4284.615384615385,4810.256410256411,3766.1538461538466,4247.6923076923085,4257.435897435898,4325.641025641026,4370.769230769231,4054.8717948717954,4277.435897435898,4300.000000000001,4346.666666666667,4300.512820512821,1677.0,1685.0,1534.712,1421.229248046875,0.0,0.0,0.0,0.0
1533041,42.0,0.0,0.0,4432.820512820514,4152.820512820514,4290.256410256411,4817.435897435898,3763.076923076924,4245.641025641026,4259.48717948718,4339.48717948718,4381.025641025642,4063.589743589744,4276.923076923077,4303.076923076924,4350.769230769231,4310.769230769231,1678.0,1685.0,1534.72,1421.229248046875,0.0,0.0,0.0,0.0
1533041,43.0,0.0,0.0,4433.333333333334,4152.307692307693,4287.179487179487,4814.358974358975,3766.1538461538466,4251.794871794872,4262.564102564103,4334.871794871796,4384.102564102564,4070.2564102564106,4275.8974358974365,4305.641025641026,4356.410256410257,4316.410256410257,1677.0,1684.0,1534.728,1421.229248046875,0.0,0.0,0.0,0.0
1533041,44.0,0.0,0.0,4428.717948717949,4144.102564102564,4284.615384615385,4809.2307692307695,3767.692307692308,4253.333333333334,4262.564102564103,4333.846153846154,4380.512820512821,4066.666666666667,4276.923076923077,4305.128205128206,4357.435897435898,4318.974358974359,1679.0,1685.0,1534.735,1421.229248046875,0.0,0.0,0.0,0.0
1533042,45.0,0.0,0.0,4435.8974358974365,4149.74358974359,4291.794871794872,4811.282051282052,3770.7692307692314,4249.2307692307695,4264.102564102564,4347.179487179487,4394.871794871796,4076.410256410257,4277.435897435898,4308.717948717949,4361.538461538462,4332.820512820514,1679.0,1684.0,1534.743,1421.229248046875,0.0,0.0,0.0,0.0
1533042,46.0,0.0,0.0,4438.461538461539,4154.358974358975,4291.282051282052,4808.717948717949,3771.2820512820517,4251.282051282052,4265.128205128206,4356.410256410257,4407.179487179487,4085.1282051282055,4276.923076923077,4308.717948717949,4362.564102564103,4336.410256410257,1680.0,1685.0,1534.751,1421.229248046875,0.0,0.0,0.0,0.0
1533042,47.0,0.0,0.0,4425.128205128206,4142.564102564103,4275.8974358974365,4812.307692307693,3766.666666666667,4253.333333333334,4257.435897435898,4348.717948717949,4398.974358974359,4077.9487179487187,4277.948717948719,4305.128205128206,4351.794871794872,4322.051282051282,1681.0,1684.0,1534.759,1421.229248046875,0.0,0.0,0.0,0.0
1533042,48.0,0.0,0.0,4427.179487179487,4144.615384615385,4275.8974358974365,4812.307692307693,3765.6410256410263,4253.333333333334,4257.435897435898,4345.128205128206,4395.384615384616,4074.8717948717954,4276.410256410257,4310.769230769231,4352.820512820514,4326.666666666667,1681.0,1685.0,1534.766,1421.229248046875,0.0,0.0,0.0,0.0
1533042,49.0,0.0,0.0,4447.179487179487,4158.461538461539,4294.358974358975,4810.769230769231,3769.7435897435903,4253.333333333334,4270.769230769231,4352.307692307693,4408.717948717949,4084.615384615385,4276.923076923077,4317.435897435898,4369.743589743591,4342.564102564103,1682.0,1683.0,1534.774,1421.229248046875,0.0,0.0,0.0,0.0
1533042,50.0,0.0,0.0,4452.307692307693,4156.410256410257,4298.974358974359,4813.846153846154,3774.8717948717954,4252.820512820514,4273.333333333334,4340.000000000001,4417.435897435898,4089.7435897435903,4277.435897435898,4313.333333333334,4373.333333333334,4339.48717948718,1682.0,1684.0,1534.782,1421.229248046875,0.0,0.0,0.0,0.0
1533042,51.0,0.0,0.0,4440.000000000001,4145.641025641026,4285.128205128206,4812.307692307693,3773.8461538461543,4260.000000000001,4266.153846153847,4304.615384615385,4416.410256410257,4085.6410256410263,4274.871794871796,4307.179487179487,4363.076923076924,4331.794871794872,1683.0,1684.0,1534.79,1421.229248046875,0.0,0.0,0.0,0.0
1533042,52.0,0.0,0.0,4431.282051282052,4142.051282051282,4278.461538461539,4815.384615384616,3768.717948717949,4268.205128205129,4267.179487179487,4288.717948717949,4407.6923076923085,4076.9230769230776,4277.435897435898,4307.6923076923085,4356.410256410257,4333.333333333334,1683.0,1685.0,1534.798,1421.229248046875,0.0,0.0,0.0,0.0
1533168,53.0,0.0,0.0,4437.948717948719,4145.641025641026,4288.717948717949,4814.871794871796,3769.2307692307695,4263.589743589744,4270.769230769231,4323.589743589744,4391.282051282052,4073.333333333334,4278.974358974359,4309.743589743591,4358.974358974359,4334.358974358975,1684.0,1684.0,1534.806,1421.322998046875,0.0,0.0,0.0,0.0
1533169,54.0,0.0,0.0,4455.384615384616,4157.435897435898,4303.589743589744,4811.282051282052,3775.3846153846157,4255.384615384616,4268.205128205129,4376.410256410257,4395.384615384616,4083.076923076924,4275.8974358974365,4314.358974358975,4371.282051282052,4343.076923076924,1682.0,1684.0,1534.813,1421.322998046875,0.0,0.0,0.0,0.0
1533169,55.0,0.0,0.0,4466.666666666667,4169.74358974359,4313.333333333334,4812.307692307693,3777.435897435898,4244.102564102564,4269.74358974359,4402.564102564103,4419.48717948718,4098.974358974359,4276.410256410257,4321.025641025642,4384.615384615385,4359.48717948718,1683.0,1684.0,1534.821,1421.322998046875,0.0,0.0,0.0,0.0
1533170,56.0,0.0,0.0,4454.358974358975,4160.512820512821,4306.666666666667,4809.743589743591,3774.358974358975,4247.179487179487,4274.358974358975,4395.8974358974365,4416.410256410257,4096.923076923077,4277.435897435898,4314.358974358975,4377.435897435898,4355.384615384616,1682.0,1683.0,1534.829,1421.322998046875,0.0,0.0,0.0,0.0
1533170,57.0,0.0,0.0,4437.948717948719,4140.000000000001,4289.2307692307695,4812.820512820514,3774.358974358975,4266.153846153847,4271.282051282052,4371.282051282052,4383.589743589744,4078.9743589743593,4277.948717948719,4307.179487179487,4362.564102564103,4338.974358974359,1681.0,1685.0,1534.838,1421.322998046875,0.0,0.0,0.0,0.0
1533170,58.0,0.0,0.0,4442.564102564103,4142.564102564103,4287.6923076923085,4814.871794871796,3775.8974358974365,4262.051282051282,4267.6923076923085,4349.743589743591,4392.820512820514,4084.615384615385,4277.435897435898,4313.846153846154,4370.256410256411,4338.974358974359,1683.0,1684.0,1534.846,1421.322998046875,0.0,0.0,0.0,0.0
1533170,59.0,0.0,0.0,4454.871794871796,4160.512820512821,4301.538461538462,4811.794871794872,3776.410256410257,4242.564102564103,4271.794871794872,4344.102564102564,4430.769230769231,4105.128205128206,4275.384615384616,4318.974358974359,4383.589743589744,4347.6923076923085,1681.0,1686.0,1534.854,1421.322998046875,0.0,0.0,0.0,0.0
1533170,60.0,0.0,0.0,4455.384615384616,4162.051282051282,4307.6923076923085,4813.846153846154,3778.461538461539,4248.717948717949,4276.410256410257,4338.974358974359,4427.179487179487,4101.538461538462,4275.384615384616,4314.871794871796,4383.076923076924,4352.307692307693,1683.0,1686.0,1534.861,1421.322998046875,0.0,0.0,0.0,0.0
1533170,61.0,0.0,0.0,4442.564102564103,4145.128205128206,4296.410256410257,4812.820512820514,3777.9487179487182,4275.384615384616,4272.820512820514,4325.128205128206,4409.743589743591,4085.6410256410263,4275.384615384616,4305.641025641026,4371.282051282052,4341.538461538462,1681.0,1685.0,1534.868,1421.322998046875,0.0,0.0,0.0,0.0
1533170,62.0,0.0,0.0,4431.794871794872,4143.589743589744,4286.666666666667,4814.358974358975,3773.8461538461543,4269.74358974359,4269.2307692307695,4313.846153846154,4416.410256410257,4082.564102564103,4276.923076923077,4304.102564102564,4363.076923076924,4327.179487179487,1681.0,1685.0,1534.877,1421.322998046875,0.0,0.0,0.0,0.0
1533170,63.0,0.0,0.0,4440.000000000001,4166.666666666667,4293.333333333334,4816.410256410257,3769.2307692307695,4238.461538461539,4268.717948717949,4308.205128205129,4425.128205128206,4091.2820512820517,4277.435897435898,4311.794871794872,4374.358974358975,4336.923076923077,1680.0,1685.0,1534.884,1421.322998046875,0.0,0.0,0.0,0.0
1533170,64.0,0.0,512.0,4444.102564102564,4173.846153846154,4294.871794871796,4811.282051282052,3768.717948717949,4236.923076923077,4269.2307692307695,4305.128205128206,4429.2307692307695,4102.051282051282,4275.384615384616,4314.358974358975,4384.615384615385,4346.666666666667,1680.0,1685.0,1534.893,1421.322998046875,0.0,0.0,0.0,0.0
1533171,65.0,0.0,0.0,4429.743589743591,4154.871794871796,4281.025641025642,4812.820512820514,3769.7435897435903,4264.615384615385,4270.256410256411,4302.564102564103,4418.974358974359,4098.461538461539,4276.410256410257,4307.6923076923085,4373.333333333334,4333.846153846154,1679.0,1684.0,1534.899,1421.322998046875,0.0,0.0,0.0,0.0
1533171,66.0,0.0,508.0,4423.076923076924,4147.179487179487,4274.358974358975,4811.794871794872,3767.1794871794878,4268.717948717949,4268.205128205129,4297.435897435898,4394.358974358975,4076.9230769230776,4276.923076923077,4301.025641025642,4362.051282051282,4327.6923076923085,1679.0,1685.0,1534.907,1421.322998046875,0.0,0.0,0.0,0.0
1533171,67.0,0.0,530.0,4434.358974358975,4161.025641025642,4283.589743589744,4809.743589743591,3766.1538461538466,4237.948717948719,4262.564102564103,4300.000000000001,4392.820512820514,4071.2820512820517,4277.948717948719,4304.615384615385,4368.205128205129,4336.410256410257,1680.0,1684.0,1534.915,1421.322998046875,0.0,0.0,0.0,0.0
1533171,68.0,0.0,497.0,4445.641025641026,4171.794871794872,4294.871794871796,4811.794871794872,3769.2307692307695,4224.615384615385,4264.102564102564,4308.205128205129,4408.717948717949,4086.666666666667,4278.461538461539,4312.307692307693,4378.974358974359,4342.564102564103,1678.0,1686.0,1534.924,1421.322998046875,0.0,0.0,0.0,0.0
1533289,69.0,0.0,550.0,4450.256410256411,4174.358974358975,4301.025641025642,4808.205128205129,3769.2307692307695,4238.974358974359,4267.6923076923085,4308.717948717949,4409.743589743591,4094.8717948717954,4277.435897435898,4313.846153846154,4385.128205128206,4348.717948717949,1679.0,1684.0,1534.931,1421.4481201171875,0.0,0.0,0.0,0.0
1533289,70.0,0.0,546.0,4449.743589743591,4170.769230769231,4301.025641025642,4809.743589743591,3766.1538461538466,4249.2307692307695,4264.102564102564,4303.076923076924,4412.307692307693,4093.8461538461543,4278.974358974359,4313.846153846154,4383.589743589744,4352.820512820514,1679.0,1685.0,1534.939,1421.4481201171875,0.0,0.0,0.0,0.0
1533289,71.0,0.0,305.0,4443.076923076924,4165.641025641026,4295.384615384616,4812.820512820514,3768.717948717949,4256.410256410257,4264.615384615385,4300.512820512821,4425.128205128206,4098.461538461539,4278.974358974359,4310.769230769231,4378.461538461539,4346.153846153847,1680.0,1684.0,1534.946,1421.4481201171875,0.0,0.0,0.0,0.0
1533289,72.0,0.0,456.0,4443.589743589744,4167.179487179487,4294.871794871796,4813.333333333334,3773.8461538461543,4257.435897435898,4271.794871794872,4305.641025641026,4421.538461538462,4102.564102564103,4277.948717948719,4308.205128205129,4379.48717948718,4342.564102564103,1678.0,1683.0,1534.954,1421.4481201171875,0.0,0.0,0.0,0.0
1533289,73.0,0.0,476.0,4452.307692307693,4173.846153846154,4303.076923076924,4812.820512820514,3772.820512820513,4241.538461538462,4272.307692307693,4310.256410256411,4404.102564102564,4095.3846153846157,4276.923076923077,4311.282051282052,4386.153846153847,4348.717948717949,1679.0,1684.0,1534.963,1421.4481201171875,0.0,0.0,0.0,0.0
1533289,74.0,0.0,495.0,4453.846153846154,4175.8974358974365,4309.2307692307695,4810.256410256411,3772.307692307693,4232.307692307693,4271.282051282052,4305.128205128206,4388.717948717949,4082.564102564103,4276.410256410257,4311.794871794872,4388.205128205129,4351.282051282052,1679.0,1683.0,1534.97,1421.4481201171875,0.0,0.0,0.0,0.0
1533289,75.0,0.0,488.0,4445.641025641026,4162.564102564103,4302.051282051282,4815.8974358974365,3772.820512820513,4246.153846153847,4270.769230769231,4303.076923076924,4386.666666666667,4073.8461538461543,4279.48717948718,4305.128205128206,4376.923076923077,4343.589743589744,1680.0,1683.0,1534.979,1421.4481201171875,0.0,0.0,0.0,0.0
1533290,76.0,0.0,0.0,4444.102564102564,4153.333333333334,4293.846153846154,4814.871794871796,3771.794871794872,4255.8974358974365,4271.282051282052,4311.282051282052,4406.153846153847,4082.0512820512827,4280.000000000001,4301.025641025642,4370.769230769231,4342.564102564103,1679.0,1683.0,1534.985,1421.4481201171875,0.0,0.0,0.0,0.0
1533290,77.0,0.0,299.0,4447.179487179487,4160.000000000001,4294.358974358975,4808.717948717949,3773.333333333334,4253.846153846154,4271.282051282052,4300.512820512821,4410.769230769231,4086.1538461538466,4276.410256410257,4301.538461538462,4375.8974358974365,4343.589743589744,1680.0,1684.0,1534.994,1421.4481201171875,0.0,0.0,0.0,0.0
1533290,78.0,0.0,495.0,4442.051282051282,4161.538461538462,4290.256410256411,4810.769230769231,3777.9487179487182,4260.000000000001,4267.6923076923085,4285.128205128206,4392.307692307693,4073.8461538461543,4275.8974358974365,4301.025641025642,4371.282051282052,4334.358974358975,1681.0,1684.0,1535.001,1421.4481201171875,0.0,0.0,0.0,0.0
1533290,79.0,0.0,488.0,4446.153846153847,4164.615384615385,4295.8974358974365,4811.282051282052,3778.461538461539,4262.051282051282,4267.6923076923085,4296.923076923077,4388.717948717949,4075.8974358974365,4276.410256410257,4306.153846153847,4374.871794871796,4340.000000000001,1680.0,1685.0,1535.01,1421.4481201171875,0.0,0.0,0.0,0.0
1533290,80.0,0.0,0.0,4463.076923076924,4177.948717948719,4314.871794871796,4814.358974358975,3775.3846153846157,4243.589743589744,4274.871794871796,4304.615384615385,4400.000000000001,4091.7948717948725,4277.435897435898,4315.384615384616,4393.846153846154,4361.538461538462,1681.0,1684.0,1535.017,1421.4481201171875,0.0,0.0,0.0,0.0
1533290,81.0,0.0,299.0,4468.205128205129,4181.538461538462,4319.48717948718,4813.333333333334,3774.8717948717954,4238.974358974359,4281.025641025642,4317.948717948719,4417.948717948719,4099.48717948718,4280.000000000001,4316.410256410257,4395.8974358974365,4361.538461538462,1680.0,1684.0,1535.026,1421.4481201171875,0.0,0.0,0.0,0.0
1533290,82.0,0.0,495.0,4455.384615384616,4167.179487179487,4304.102564102564,4809.743589743591,3776.410256410257,4257.948717948719,4278.974358974359,4354.871794871796,4421.538461538462,4095.8974358974365,4279.48717948718,4308.717948717949,4378.461538461539,4342.564102564103,1681.0,1685.0,1535.032,1421.4481201171875,0.0,0.0,0.0,0.0
1533291,83.0,0.0,488.0,4448.717948717949,4161.538461538462,4297.435897435898,4814.871794871796,3776.9230769230776,4257.435897435898,4274.871794871796,4356.410256410257,4399.48717948718,4092.820512820513,4276.410256410257,4307.179487179487,4377.435897435898,4346.153846153847,1680.0,1684.0,1535.04,1421.4481201171875,0.0,0.0,0.0,0.0
1533291,84.0,0.0,0.0,4464.102564102564,4175.384615384616,4312.307692307693,4813.846153846154,3777.9487179487182,4241.538461538462,4280.000000000001,4326.153846153847,4401.025641025642,4102.564102564103,4275.384615384616,4314.358974358975,4398.461538461539,4367.6923076923085,1681.0,1685.0,1535.048,1421.4481201171875,0.0,0.0,0.0,0.0
1533419,85.0,0.0,299.0,4471.794871794872,4182.564102564103,4320.512820512821,4810.769230769231,3778.9743589743593,4245.128205128206,4285.641025641026,4317.948717948719,4432.820512820514,4115.384615384616,4277.435897435898,4318.974358974359,4406.666666666667,4370.256410256411,1681.0,1684.0,1535.056,1421.5732421875,0.0,0.0,0.0,0.0
1533420,86.0,0.0,495.0,4461.538461538462,4175.384615384616,4312.307692307693,4810.256410256411,3778.461538461539,4255.8974358974365,4282.051282051282,4314.871794871796,4434.358974358975,4109.74358974359,4276.410256410257,4314.358974358975,4396.923076923077,4358.974358974359,1680.0,1685.0,1535.064,1421.5732421875,0.0,0.0,0.0,0.0
1533420,87.0,0.0,488.0,4452.307692307693,4167.6923076923085,4307.6923076923085,4810.769230769231,3782.0512820512827,4263.589743589744,4277.948717948719,4293.333333333334,4407.179487179487,4092.307692307693,4273.333333333334,4309.2307692307695,4385.641025641026,4353.333333333334,1681.0,1685.0,1535.071,1421.5732421875,0.0,0.0,0.0,0.0
1533420,88.0,0.0,0.0,4455.8974358974365,4168.717948717949,4310.769230769231,4815.8974358974365,3787.692307692308,4267.179487179487,4276.410256410257,4295.8974358974365,4406.153846153847,4087.1794871794878,4276.410256410257,4312.820512820514,4383.589743589744,4355.384615384616,1681.0,1687.0,1535.079,1421.5732421875,0.0,0.0,0.0,0.0
1533421,89.0,0.0,299.0,4465.641025641026,4179.48717948718,4318.974358974359,4812.820512820514,3786.666666666667,4260.000000000001,4278.461538461539,4322.564102564103,4420.512820512821,4100.000000000001,4277.435897435898,4317.948717948719,4394.358974358975,4364.102564102564,1681.0,1685.0,1535.087,1421.5732421875,0.0,0.0,0.0,0.0
1533421,90.0,0.0,495.0,4473.846153846154,4187.6923076923085,4326.666666666667,4811.282051282052,3782.0512820512827,4250.256410256411,4285.641025641026,4335.8974358974365,4421.025641025642,4110.256410256411,4277.948717948719,4320.512820512821,4406.153846153847,4371.794871794872,1681.0,1685.0,1535.096,1421.5732421875,0.0,0.0,0.0,0.0
1533421,91.0,0.0,488.0,4468.717948717949,4178.461538461539,4320.000000000001,4814.358974358975,3780.512820512821,4251.794871794872,4287.179487179487,4336.923076923077,4410.256410256411,4100.512820512821,4277.948717948719,4315.384615384616,4400.000000000001,4362.564102564103,1681.0,1685.0,1535.103,1421.5732421875,0.0,0.0,0.0,0.0
1533421,92.0,0.0,0.0,4450.769230769231,4160.000000000001,4302.564102564103,4811.794871794872,3775.8974358974365,4255.384615384616,4279.48717948718,4337.435897435898,4400.512820512821,4084.615384615385,4274.871794871796,4304.615384615385,4380.512820512821,4345.641025641026,1681.0,1685.0,1535.112,1421.5732421875,0.0,0.0,0.0,0.0
1533421,93.0,0.0,299.0,4444.102564102564,4151.794871794872,4295.384615384616,4815.8974358974365,3769.2307692307695,4246.666666666667,4272.820512820514,4343.589743589744,4407.179487179487,4086.666666666667,4275.8974358974365,4304.102564102564,4372.820512820514,4342.051282051282,1681.0,1684.0,1535.118,1421.5732421875,0.0,0.0,0.0,0.0
1533421,94.0,0.0,495.0,4447.6923076923085,4150.769230769231,4296.923076923077,4816.410256410257,3768.717948717949,4244.615384615385,4273.333333333334,4344.615384615385,4416.410256410257,4092.820512820513,4276.923076923077,4305.641025641026,4373.333333333334,4341.025641025642,1682.0,1684.0,1535.127,1421.5732421875,0.0,0.0,0.0,0.0
1533422,95.0,0.0,488.0,4448.717948717949,4149.74358974359,4296.410256410257,4812.820512820514,3770.2564102564106,4251.794871794872,4277.435897435898,4334.358974358975,4408.717948717949,4087.1794871794878,4276.410256410257,4304.615384615385,4372.820512820514,4338.974358974359,1680.0,1684.0,1535.134,1421.5732421875,0.0,0.0,0.0,0.0
1533422,96.0,0.0,0.0,4452.307692307693,4153.846153846154,4297.948717948719,4812.820512820514,3772.820512820513,4247.6923076923085,4281.025641025642,4324.615384615385,4399.48717948718,4083.076923076924,4275.8974358974365,4307.6923076923085,4374.871794871796,4345.641025641026,1681.0,1685.0,1535.143,1421.5732421875,0.0,0.0,0.0,0.0
1533422,97.0,0.0,299.0,4449.2307692307695,4152.820512820514,4297.435897435898,4808.717948717949,3773.8461538461543,4245.128205128206,4278.461538461539,4315.8974358974365,4402.051282051282,4084.1025641025644,4274.358974358975,4305.641025641026,4371.282051282052,4344.615384615385,1681.0,1685.0,1535.15,1421.5732421875,0.0,0.0,0.0,0.0
1533422,98.0,0.0,495.0,4438.974358974359,4144.615384615385,4292.820512820514,4812.820512820514,3772.820512820513,4251.794871794872,4271.794871794872,4307.179487179487,4400.512820512821,4080.5128205128212,4275.384615384616,4304.102564102564,4365.128205128206,4332.820512820514,1680.0,1686.0,1535.157,1421.5732421875,0.0,0.0,0.0,0.0
1533422,99.0,0.0,488.0,4449.743589743591,4154.871794871796,4301.538461538462,4815.8974358974365,3773.333333333334,4244.615384615385,4276.923076923077,4313.333333333334,4404.102564102564,4086.666666666667,4277.435897435898,4312.820512820514,4378.461538461539,4341.538461538462,1681.0,1685.0,1535.165,1421.5732421875,0.0,0.0,0.0,0.0
1533422,100.0,0.0,0.0,4464.615384615385,4169.2307692307695,4310.256410256411,4811.282051282052,3773.333333333334,4230.256410256411,4285.128205128206,4326.666666666667,4416.410256410257,4097.948717948719,4277.435897435898,4313.846153846154,4393.846153846154,4355.384615384616,1680.0,1686.0,1535.174,1421.5732421875,0.0,0.0,0.0,0.0
1533443,101.0,0.0,299.0,4448.205128205129,4155.384615384616,4292.307692307693,4810.769230769231,3768.717948717949,4238.974358974359,4274.358974358975,4326.153846153847,4407.179487179487,4083.589743589744,4276.410256410257,4298.974358974359,4376.923076923077,4338.461538461539,1681.0,1687.0,1535.181,1421.6983642578125,0.0,0.0,0.0,0.0
1533443,102.0,0.0,495.0,4431.282051282052,4143.589743589744,4280.000000000001,4809.2307692307695,3766.1538461538466,4251.282051282052,4264.102564102564,4322.564102564103,4388.717948717949,4062.564102564103,4276.410256410257,4294.358974358975,4358.461538461539,4317.435897435898,1682.0,1686.0,1535.189,1421.6983642578125,0.0,0.0,0.0,0.0
1533444,103.0,0.0,488.0,4441.025641025642,4152.820512820514,4294.358974358975,4813.333333333334,3769.2307692307695,4238.461538461539,4269.74358974359,4337.948717948719,4385.128205128206,4064.1025641025644,4280.000000000001,4308.205128205129,4369.2307692307695,4325.641025641026,1682.0,1686.0,1535.197,1421.6983642578125,0.0,0.0,0.0,0.0
1533444,104.0,0.0,0.0,4448.205128205129,4157.948717948719,4301.025641025642,4814.358974358975,3766.666666666667,4225.128205128206,4271.282051282052,4348.205128205129,4387.6923076923085,4078.9743589743593,4280.000000000001,4310.769230769231,4381.025641025642,4339.48717948718,1683.0,1685.0,1535.204,1421.6983642578125,0.0,0.0,0.0,0.0
1533540,105.0,0.0,299.0,4445.128205128206,4154.871794871796,4293.846153846154,4806.666666666667,3762.564102564103,4235.8974358974365,4271.282051282052,4331.794871794872,4405.128205128206,4090.7692307692314,4275.8974358974365,4305.128205128206,4379.48717948718,4336.923076923077,1685.0,1685.0,1535.212,1421.7296142578125,0.0,0.0,0.0,0.0
1533540,106.0,0.0,495.0,4440.512820512821,4148.205128205129,4286.666666666667,4807.6923076923085,3765.1282051282055,4252.820512820514,4272.307692307693,4326.666666666667,4409.743589743591,4086.1538461538466,4276.923076923077,4304.615384615385,4368.717948717949,4327.179487179487,1685.0,1684.0,1535.22,1421.7296142578125,0.0,0.0,0.0,0.0
1533540,107.0,0.0,488.0,4441.538461538462,4150.256410256411,4288.717948717949,4809.2307692307695,3769.2307692307695,4251.282051282052,4269.2307692307695,4362.051282051282,4383.589743589744,4070.7692307692314,4276.923076923077,4306.666666666667,4369.743589743591,4330.256410256411,1686.0,1686.0,1535.229,1421.7296142578125,0.0,0.0,0.0,0.0
1533540,108.0,0.0,0.0,4451.794871794872,4164.615384615385,4302.564102564103,4812.307692307693,3769.7435897435903,4237.435897435898,4270.769230769231,4405.641025641026,4390.769230769231,4077.435897435898,4275.8974358974365,4314.358974358975,4388.205128205129,4346.666666666667,1686.0,1686.0,1535.236,1421.7296142578125,0.0,0.0,0.0,0.0
1533541,109.0,0.0,299.0,4457.435897435898,4164.102564102564,4309.743589743591,4812.820512820514,3770.2564102564106,4237.948717948719,4274.358974358975,4414.358974358975,4429.743589743591,4100.512820512821,4274.871794871796,4321.538461538462,4394.358974358975,4352.820512820514,1685.0,1688.0,1535.245,1421.7296142578125,0.0,0.0,0.0,0.0
1533541,110.0,0.0,495.0,4455.384615384616,4155.384615384616,4305.128205128206,4810.256410256411,3776.410256410257,4246.153846153847,4270.256410256411,4394.871794871796,4408.717948717949,4093.333333333334,4273.333333333334,4317.948717948719,4385.641025641026,4345.641025641026,1686.0,1687.0,1535.251,1421.7296142578125,0.0,0.0,0.0,0.0
1533541,111.0,0.0,488.0,4464.615384615385,4165.641025641026,4311.794871794872,4814.871794871796,3784.1025641025644,4240.512820512821,4271.794871794872,4390.769230769231,4375.384615384616,4079.48717948718,4275.8974358974365,4319.48717948718,4391.794871794872,4348.717948717949,1684.0,1688.0,1535.26,1421.7296142578125,0.0,0.0,0.0,0.0
1533541,112.0,0.0,0.0,4475.384615384616,4173.333333333334,4323.589743589744,4813.846153846154,3786.666666666667,4239.48717948718,4285.128205128206,4398.461538461539,4424.615384615385,4104.615384615385,4276.923076923077,4323.076923076924,4408.717948717949,4357.948717948719,1685.0,1687.0,1535.267,1421.7296142578125,0.0,0.0,0.0,0.0
1533541,113.0,0.0,299.0,4462.051282051282,4157.435897435898,4310.256410256411,4810.769230769231,3783.076923076924,4246.666666666667,4281.025641025642,4384.102564102564,4442.051282051282,4112.307692307693,4276.410256410257,4312.307692307693,4397.948717948719,4348.205128205129,1684.0,1688.0,1535.276,1421.7296142578125,0.0,0.0,0.0,0.0
1533541,114.0,0.0,495.0,4450.769230769231,4151.282051282052,4298.461538461539,4814.871794871796,3780.0000000000005,4236.410256410257,4264.615384615385,4365.641025641026,4371.282051282052,4075.3846153846157,4276.923076923077,4304.102564102564,4381.025641025642,4338.974358974359,1683.0,1690.0,1535.283,1421.7296142578125,0.0,0.0,0.0,0.0
1533541,115.0,0.0,488.0,4465.128205128206,4168.205128205129,4316.410256410257,4812.307692307693,3781.538461538462,4222.051282051282,4269.2307692307695,4361.538461538462,4357.948717948719,4068.717948717949,4277.435897435898,4312.307692307693,4397.948717948719,4354.871794871796,1682.0,1689.0,1535.29,1421.7296142578125,0.0,0.0,0.0,0.0
1533541,116.0,0.0,0.0,4470.256410256411,4167.179487179487,4322.051282051282,4814.358974358975,3784.615384615385,4233.333333333334,4281.025641025642,4346.666666666667,4407.179487179487,4095.8974358974365,4276.923076923077,4314.358974358975,4409.743589743591,4360.000000000001,1680.0,1690.0,1535.298,1421.7296142578125,0.0,0.0,0.0,0.0
1533659,117.0,0.0,299.0,4450.256410256411,4147.6923076923085,4302.051282051282,4814.871794871796,3785.6410256410263,4256.923076923077,4282.051282051282,4331.794871794872,4413.333333333334,4093.333333333334,4276.410256410257,4305.641025641026,4391.282051282052,4341.538461538462,1680.0,1688.0,1535.306,1421.823486328125,0.0,0.0,0.0,0.0
1533659,118.0,0.0,495.0,4434.871794871796,4134.871794871796,4289.74358974359,4811.794871794872,3787.1794871794878,4261.025641025642,4285.641025641026,4364.102564102564,4408.717948717949,4077.9487179487187,4277.948717948719,4303.076923076924,4374.871794871796,4329.743589743591,1679.0,1686.0,1535.314,1421.823486328125,0.0,0.0,0.0,0.0
1533659,119.0,0.0,488.0,4437.435897435898,4133.846153846154,4293.333333333334,4811.794871794872,3786.666666666667,4248.205128205129,4287.6923076923085,4385.128205128206,4425.641025641026,4083.589743589744,4277.435897435898,4304.615384615385,4375.8974358974365,4331.282051282052,1680.0,1684.0,1535.322,1421.823486328125,0.0,0.0,0.0,0.0
1533659,120.0,0.0,0.0,4441.025641025642,4137.948717948719,4295.8974358974365,4808.205128205129,3782.0512820512827,4240.512820512821,4280.000000000001,4318.461538461539,4416.410256410257,4090.2564102564106,4274.358974358975,4304.102564102564,4380.000000000001,4333.846153846154,1679.0,1684.0,1535.329,1421.823486328125,0.0,0.0,0.0,0.0
1533659,121.0,0.0,299.0,4445.128205128206,4144.102564102564,4301.025641025642,4813.333333333334,3782.0512820512827,4241.025641025642,4277.948717948719,4238.974358974359,4396.923076923077,4085.6410256410263,4276.923076923077,4308.717948717949,4383.076923076924,4337.435897435898,1681.0,1683.0,1535.337,1421.823486328125,0.0,0.0,0.0,0.0
1533660,122.0,0.0,495.0,4455.8974358974365,4150.769230769231,4314.358974358975,4815.384615384616,3784.1025641025644,4241.025641025642,4286.153846153847,4220.512820512821,4407.6923076923085,4087.1794871794878,4278.974358974359,4313.333333333334,4390.769230769231,4346.153846153847,1679.0,1683.0,1535.345,1421.823486328125,0.0,0.0,0.0,0.0
1533660,123.0,0.0,488.0,4459.48717948718,4153.333333333334,4316.923076923077,4807.179487179488,3784.615384615385,4239.48717948718,4283.589743589744,4223.589743589744,4421.025641025642,4092.820512820513,4276.923076923077,4312.820512820514,4394.871794871796,4349.743589743591,1681.0,1684.0,1535.353,1421.823486328125,0.0,0.0,0.0,0.0
1533660,124.0,0.0,0.0,4451.282051282052,4147.179487179487,4304.615384615385,4807.6923076923085,3787.1794871794878,4241.538461538462,4276.410256410257,4217.435897435898,4416.410256410257,4092.307692307693,4277.435897435898,4312.820512820514,4387.6923076923085,4343.589743589744,1681.0,1683.0,1535.362,1421.823486328125,0.0,0.0,0.0,0.0
1533660,125.0,0.0,299.0,4442.051282051282,4137.948717948719,4294.871794871796,4812.307692307693,3786.666666666667,4246.153846153847,4278.461538461539,4216.923076923077,4411.794871794872,4089.23076923077,4278.461538461539,4309.2307692307695,4378.974358974359,4332.820512820514,1680.0,1684.0,1535.369,1421.823486328125,0.0,0.0,0.0,0.0
1533660,126.0,0.0,495.0,4440.000000000001,4136.410256410257,4295.384615384616,4815.384615384616,3781.538461538462,4243.589743589744,4278.461538461539,4217.435897435898,4402.051282051282,4082.0512820512827,4278.974358974359,4306.153846153847,4376.923076923077,4327.179487179487,1681.0,1683.0,1535.377,1421.823486328125,0.0,0.0,0.0,0.0
1533660,127.0,0.0,488.0,4443.076923076924,4138.974358974359,4297.435897435898,4812.820512820514,3779.48717948718,4232.307692307693,4275.384615384616,4215.8974358974365,4389.2307692307695,4071.2820512820517,4277.435897435898,4307.179487179487,4375.8974358974365,4326.153846153847,1680.0,1685.0,1535.384,1421.823486328125,0.0,0.0,0.0,0.0
1533660,128.0,0.0,0.0,4442.051282051282,4137.435897435898,4292.820512820514,4811.282051282052,3778.461538461539,4227.6923076923085,4270.769230769231,4223.076923076924,4392.820512820514,4069.7435897435903,4275.8974358974365,4302.564102564103,4370.256410256411,4323.076923076924,1680.0,1684.0,1535.393,1421.823486328125,0.0,0.0,0.0,0.0
1533660,0.0,0.0,512.0,4442.564102564103,4143.076923076924,4295.8974358974365,4815.8974358974365,3778.461538461539,4234.871794871796,4266.666666666667,4228.717948717949,4406.666666666667,4081.538461538462,4276.923076923077,4303.589743589744,4375.8974358974365,4327.6923076923085,1679.0,1685.0,1535.4,1421.823486328125,0.0,0.0,0.0,0.0
1533661,1.0,0.0,0.0,4453.333333333334,4155.384615384616,4311.282051282052,4813.846153846154,3779.48717948718,4248.205128205129,4270.256410256411,4228.717948717949,4408.717948717949,4090.7692307692314,4273.333333333334,4314.358974358975,4394.358974358975,4342.564102564103,1679.0,1685.0,1535.408,1421.823486328125,0.0,0.0,0.0,0.0
1533661,2.0,0.0,508.0,4457.948717948719,4153.333333333334,4313.846153846154,4813.333333333334,3777.9487179487182,4252.820512820514,4274.871794871796,4223.076923076924,4404.615384615385,4088.205128205129,4273.846153846154,4314.871794871796,4397.435897435898,4341.025641025642,1678.0,1685.0,1535.416,1421.823486328125,0.0,0.0,0.0,0.0
1533661,3.0,0.0,531.0,4451.282051282052,4141.538461538462,4302.564102564103,4812.307692307693,3777.9487179487182,4244.615384615385,4273.846153846154,4212.820512820514,4410.769230769231,4084.615384615385,4277.435897435898,4305.128205128206,4386.666666666667,4327.6923076923085,1679.0,1684.0,1535.423,1421.823486328125,0.0,0.0,0.0,0.0
1533791,4.0,0.0,497.0,4449.2307692307695,4139.48717948718,4302.564102564103,4808.717948717949,3782.564102564103,4246.666666666667,4273.846153846154,4202.564102564103,4405.641025641026,4081.0256410256416,4276.410256410257,4303.589743589744,4382.564102564103,4326.666666666667,1677.0,1684.0,1535.431,1421.9486083984375,0.0,0.0,0.0,0.0
1533791,5.0,0.0,550.0,4451.794871794872,4143.589743589744,4309.743589743591,4813.333333333334,3782.0512820512827,4253.333333333334,4270.256410256411,4188.205128205129,4385.128205128206,4073.8461538461543,4276.410256410257,4309.2307692307695,4388.205128205129,4340.000000000001,1678.0,1684.0,1535.439,1421.9486083984375,0.0,0.0,0.0,0.0
1533791,6.0,0.0,546.0,4462.564102564103,4150.769230769231,4317.435897435898,4813.846153846154,3777.435897435898,4240.000000000001,4268.205128205129,4190.769230769231,4392.820512820514,4082.0512820512827,4275.8974358974365,4315.384615384616,4404.102564102564,4360.000000000001,1678.0,1682.0,1535.447,1421.9486083984375,0.0,0.0,0.0,0.0
1533791,7.0,0.0,305.0,4473.846153846154,4156.923076923077,4323.589743589744,4811.794871794872,3781.0256410256416,4232.820512820514,4274.358974358975,4209.74358974359,4422.564102564103,4105.128205128206,4274.871794871796,4318.461538461539,4411.794871794872,4369.743589743591,1677.0,1684.0,1535.455,1421.9486083984375,0.0,0.0,0.0,0.0
1533792,8.0,0.0,456.0,4462.564102564103,4147.179487179487,4313.333333333334,4814.871794871796,3785.6410256410263,4250.256410256411,4277.948717948719,4203.076923076924,4420.512820512821,4106.153846153847,4276.923076923077,4309.2307692307695,4394.871794871796,4355.8974358974365,1678.0,1684.0,1535.462,1421.9486083984375,0.0,0.0,0.0,0.0
1533792,9.0,0.0,477.0,4444.102564102564,4137.435897435898,4298.461538461539,4811.794871794872,3782.564102564103,4254.871794871796,4272.307692307693,4184.615384615385,4398.974358974359,4084.615384615385,4276.923076923077,4296.923076923077,4380.000000000001,4340.000000000001,1677.0,1685.0,1535.47,1421.9486083984375,0.0,0.0,0.0,0.0
1533792,10.0,0.0,495.0,4443.076923076924,4138.461538461539,4294.871794871796,4812.820512820514,3782.0512820512827,4238.461538461539,4269.2307692307695,4191.794871794872,4402.564102564103,4076.410256410257,4275.8974358974365,4299.48717948718,4381.025641025642,4340.000000000001,1678.0,1684.0,1535.479,1421.9486083984375,0.0,0.0,0.0,0.0
1533792,11.0,0.0,488.0,4451.282051282052,4143.589743589744,4303.076923076924,4814.871794871796,3785.6410256410263,4237.435897435898,4278.461538461539,4208.717948717949,4408.717948717949,4086.1538461538466,4275.8974358974365,4308.205128205129,4387.6923076923085,4349.2307692307695,1678.0,1683.0,1535.486,1421.9486083984375,0.0,0.0,0.0,0.0
1533792,12.0,0.0,0.0,4453.333333333334,4145.128205128206,4306.153846153847,4813.846153846154,3784.1025641025644,4250.256410256411,4281.538461538462,4196.923076923077,4390.769230769231,4083.589743589744,4277.435897435898,4309.743589743591,4388.205128205129,4351.794871794872,1680.0,1683.0,1535.495,1421.9486083984375,0.0,0.0,0.0,0.0
1533792,13.0,0.0,299.0,4447.6923076923085,4136.410256410257,4292.307692307693,4812.820512820514,3778.461538461539,4246.666666666667,4272.307692307693,4184.102564102564,4379.48717948718,4066.666666666667,4277.435897435898,4305.641025641026,4377.435897435898,4346.666666666667,1680.0,1682.0,1535.501,1421.9486083984375,0.0,0.0,0.0,0.0
1533793,14.0,0.0,495.0,4443.076923076924,4127.6923076923085,4284.102564102564,4806.666666666667,3777.435897435898,4232.820512820514,4274.871794871796,4221.025641025642,4400.000000000001,4068.717948717949,4275.8974358974365,4303.589743589744,4373.846153846154,4345.128205128206,1681.0,1682.0,1535.511,1421.9486083984375,0.0,0.0,0.0,0.0
1533793,15.0,0.0,488.0,4445.641025641026,4127.6923076923085,4294.871794871796,4812.307692307693,3779.48717948718,4232.307692307693,4282.564102564103,4270.256410256411,4413.333333333334,4083.589743589744,4278.974358974359,4310.769230769231,4383.076923076924,4348.717948717949,1681.0,1682.0,1535.517,1421.9486083984375,0.0,0.0,0.0,0.0
1533793,16.0,0.0,0.0,4446.153846153847,4128.717948717949,4299.48717948718,4816.410256410257,3777.9487179487182,4241.025641025642,4276.923076923077,4281.025641025642,4396.410256410257,4078.9743589743593,4279.48717948718,4314.358974358975,4381.025641025642,4346.153846153847,1683.0,1684.0,1535.526,1421.9486083984375,0.0,0.0,0.0,0.0
1533793,17.0,0.0,0.0,4446.666666666667,4127.179487179487,4292.307692307693,4810.769230769231,3776.9230769230776,4239.48717948718,4271.282051282052,4285.128205128206,4394.358974358975,4072.820512820513,4274.358974358975,4308.205128205129,4374.358974358975,4340.512820512821,1682.0,1685.0,1535.533,1421.9486083984375,0.0,0.0,0.0,0.0
1533793,18.0,0.0,0.0,4449.2307692307695,4126.153846153847,4292.307692307693,4811.794871794872,3779.48717948718,4232.820512820514,4271.794871794872,4302.564102564103,4411.794871794872,4077.435897435898,4275.8974358974365,4304.615384615385,4377.435897435898,4340.512820512821,1684.0,1685.0,1535.541,1421.9486083984375,0.0,0.0,0.0,0.0
1533793,19.0,0.0,0.0,4443.589743589744,4122.564102564103,4291.282051282052,4810.769230769231,3778.9743589743593,4236.410256410257,4266.153846153847,4300.000000000001,4396.410256410257,4069.23076923077,4279.48717948718,4302.051282051282,4373.846153846154,4337.435897435898,1683.0,1686.0,1535.548,1421.9486083984375,0.0,0.0,0.0,0.0
1533912,20.0,0.0,0.0,4440.000000000001,4117.948717948719,4287.6923076923085,4814.358974358975,3774.8717948717954,4241.538461538462,4264.615384615385,4293.846153846154,4381.538461538462,4065.6410256410263,4278.974358974359,4304.102564102564,4369.2307692307695,4337.435897435898,1684.0,1687.0,1535.556,1422.0736083984375,0.0,0.0,0.0,0.0
1533912,21.0,0.0,0.0,4450.256410256411,4122.564102564103,4294.871794871796,4816.410256410257,3777.9487179487182,4242.051282051282,4276.923076923077,4306.666666666667,4408.717948717949,4083.076923076924,4276.410256410257,4308.205128205129,4377.435897435898,4345.641025641026,1683.0,1688.0,1535.564,1422.0736083984375,0.0,0.0,0.0,0.0
1533912,22.0,0.0,0.0,4450.256410256411,4123.589743589744,4292.820512820514,4809.743589743591,3781.538461538462,4244.102564102564,4282.564102564103,4299.48717948718,4412.307692307693,4082.0512820512827,4276.410256410257,4303.589743589744,4376.923076923077,4338.461538461539,1684.0,1687.0,1535.572,1422.0736083984375,0.0,0.0,0.0,0.0
1533912,23.0,0.0,0.0,4437.435897435898,4116.410256410257,4282.051282051282,4810.769230769231,3777.9487179487182,4237.948717948719,4277.948717948719,4277.435897435898,4376.923076923077,4058.461538461539,4277.435897435898,4296.410256410257,4362.564102564103,4321.538461538462,1683.0,1687.0,1535.58,1422.0736083984375,0.0,0.0,0.0,0.0
1533913,24.0,0.0,0.0,4438.974358974359,4120.000000000001,4287.6923076923085,4812.307692307693,3775.8974358974365,4229.74358974359,4274.871794871796,4278.461538461539,4378.461538461539,4062.0512820512827,4276.410256410257,4299.48717948718,4366.153846153847,4327.6923076923085,1684.0,1687.0,1535.588,1422.0736083984375,0.0,0.0,0.0,0.0
1533913,25.0,0.0,0.0,4450.769230769231,4129.74358974359,4298.974358974359,4812.307692307693,3778.461538461539,4233.846153846154,4272.307692307693,4289.2307692307695,4403.076923076924,4082.564102564103,4276.410256410257,4306.153846153847,4381.025641025642,4343.076923076924,1683.0,1686.0,1535.595,1422.0736083984375,0.0,0.0,0.0,0.0
1533913,26.0,0.0,0.0,4457.948717948719,4133.333333333334,4302.051282051282,4812.820512820514,3781.0256410256416,4241.025641025642,4272.820512820514,4289.74358974359,4396.923076923077,4082.564102564103,4274.871794871796,4306.666666666667,4381.025641025642,4342.564102564103,1682.0,1687.0,1535.604,1422.0736083984375,0.0,0.0,0.0,0.0
1533913,27.0,0.0,0.0,4454.871794871796,4128.205128205129,4303.076923076924,4810.769230769231,3780.512820512821,4237.948717948719,4272.820512820514,4288.205128205129,4383.589743589744,4073.8461538461543,4270.769230769231,4304.102564102564,4375.8974358974365,4336.923076923077,1682.0,1685.0,1535.611,1422.0736083984375,0.0,0.0,0.0,0.0
1533914,28.0,0.0,0.0,4442.564102564103,4114.871794871796,4298.461538461539,4815.384615384616,3773.333333333334,4230.769230769231,4263.589743589744,4289.74358974359,4385.641025641026,4071.7948717948725,4274.358974358975,4303.076923076924,4374.871794871796,4334.358974358975,1680.0,1687.0,1535.619,1422.0736083984375,0.0,0.0,0.0,0.0
1533914,29.0,0.0,0.0,4435.8974358974365,4106.153846153847,4289.74358974359,4812.820512820514,3766.666666666667,4226.666666666667,4257.948717948719,4293.333333333334,4389.2307692307695,4073.8461538461543,4277.435897435898,4300.512820512821,4372.820512820514,4330.256410256411,1681.0,1688.0,1535.627,1422.0736083984375,0.0,0.0,0.0,0.0
1533914,30.0,0.0,0.0,4440.000000000001,4109.2307692307695,4290.256410256411,4808.205128205129,3768.717948717949,4230.256410256411,4266.153846153847,4298.974358974359,4389.743589743591,4072.820512820513,4276.923076923077,4297.948717948719,4372.820512820514,4326.666666666667,1680.0,1688.0,1535.634,1422.0736083984375,0.0,0.0,0.0,0.0
1533915,31.0,0.0,0.0,4442.564102564103,4108.717948717949,4294.358974358975,4810.769230769231,3773.8461538461543,4235.384615384616,4269.2307692307695,4291.282051282052,4396.923076923077,4072.307692307693,4277.948717948719,4298.461538461539,4372.820512820514,4326.666666666667,1681.0,1687.0,1535.642,1422.0736083984375,0.0,0.0,0.0,0.0
1533915,32.0,0.0,0.0,4445.128205128206,4106.666666666667,4298.461538461539,4811.282051282052,3773.333333333334,4232.820512820514,4266.666666666667,4256.410256410257,4403.076923076924,4079.48717948718,4277.435897435898,4302.564102564103,4376.410256410257,4331.282051282052,1680.0,1686.0,1535.649,1422.0736083984375,0.0,0.0,0.0,0.0
1533915,33.0,0.0,0.0,4445.128205128206,4109.74358974359,4300.000000000001,4813.333333333334,3771.794871794872,4226.666666666667,4266.153846153847,4213.846153846154,4391.794871794872,4077.435897435898,4276.923076923077,4306.666666666667,4380.000000000001,4332.820512820514,1680.0,1686.0,1535.658,1422.0736083984375,0.0,0.0,0.0,0.0
1533915,34.0,0.0,0.0,4436.923076923077,4102.564102564103,4289.74358974359,4812.820512820514,3769.7435897435903,4229.74358974359,4263.589743589744,4191.794871794872,4382.564102564103,4066.666666666667,4274.871794871796,4303.589743589744,4374.358974358975,4325.641025641026,1680.0,1685.0,1535.667,1422.0736083984375,0.0,0.0,0.0,0.0
1533917,35.0,0.0,0.0,4436.923076923077,4093.8461538461543,4287.6923076923085,4811.282051282052,3766.666666666667,4226.666666666667,4260.512820512821,4194.358974358975,4387.6923076923085,4065.1282051282055,4274.871794871796,4301.538461538462,4370.769230769231,4326.666666666667,1680.0,1685.0,1535.674,1422.0736083984375,0.0,0.0,0.0,0.0
1533939,36.0,0.0,0.0,4446.666666666667,4097.435897435898,4300.000000000001,4811.282051282052,3768.205128205129,4222.051282051282,4263.076923076924,4203.589743589744,4386.666666666667,4071.2820512820517,4276.923076923077,4307.179487179487,4377.435897435898,4336.410256410257,1680.0,1685.0,1535.681,1422.19873046875,0.0,0.0,0.0,0.0
1533939,37.0,0.0,0.0,4445.641025641026,4097.435897435898,4303.589743589744,4806.666666666667,3773.8461538461543,4237.948717948719,4269.2307692307695,4207.179487179487,4383.076923076924,4073.333333333334,4273.846153846154,4308.717948717949,4376.923076923077,4335.8974358974365,1680.0,1686.0,1535.689,1422.19873046875,0.0,0.0,0.0,0.0
1533939,38.0,0.0,0.0,4444.615384615385,4093.8461538461543,4302.564102564103,4812.307692307693,3777.435897435898,4243.076923076924,4269.74358974359,4206.666666666667,4394.871794871796,4077.435897435898,4274.358974358975,4308.205128205129,4374.871794871796,4338.974358974359,1680.0,1685.0,1535.697,1422.19873046875,0.0,0.0,0.0,0.0
1533939,39.0,0.0,0.0,4453.333333333334,4096.410256410257,4308.205128205129,4814.358974358975,3773.8461538461543,4227.179487179487,4266.153846153847,4207.179487179487,4405.128205128206,4078.461538461539,4276.923076923077,4310.256410256411,4384.615384615385,4350.769230769231,1679.0,1685.0,1535.705,1422.19873046875,0.0,0.0,0.0,0.0
1534035,40.0,0.0,0.0,4454.358974358975,4094.358974358975,4307.6923076923085,4807.179487179488,3767.692307692308,4223.589743589744,4266.153846153847,4211.794871794872,4392.820512820514,4072.820512820513,4276.923076923077,4309.743589743591,4387.179487179487,4349.2307692307695,1680.0,1684.0,1535.713,1422.2301025390625,0.0,0.0,0.0,0.0
1534035,41.0,0.0,0.0,4451.282051282052,4091.7948717948725,4305.641025641026,4811.794871794872,3767.1794871794878,4228.205128205129,4267.179487179487,4215.384615384616,4387.179487179487,4077.9487179487187,4276.410256410257,4309.743589743591,4381.538461538462,4346.153846153847,1680.0,1684.0,1535.72,1422.2301025390625,0.0,0.0,0.0,0.0
1534035,42.0,0.0,0.0,4452.307692307693,4092.820512820513,4309.2307692307695,4813.333333333334,3770.7692307692314,4230.256410256411,4266.666666666667,4216.410256410257,4408.717948717949,4087.692307692308,4277.435897435898,4309.2307692307695,4380.000000000001,4346.153846153847,1680.0,1684.0,1535.728,1422.2301025390625,0.0,0.0,0.0,0.0
1534036,43.0,0.0,0.0,4447.179487179487,4087.692307692308,4304.615384615385,4811.282051282052,3772.820512820513,4233.333333333334,4263.589743589744,4213.333333333334,4420.000000000001,4085.1282051282055,4276.923076923077,4305.641025641026,4375.8974358974365,4339.48717948718,1680.0,1684.0,1535.736,1422.2301025390625,0.0,0.0,0.0,0.0
1534037,44.0,0.0,0.0,4447.6923076923085,4089.23076923077,4300.512820512821,4811.282051282052,3769.2307692307695,4229.74358974359,4263.076923076924,4208.205128205129,4402.051282051282,4080.0000000000005,4274.358974358975,4306.153846153847,4379.48717948718,4341.538461538462,1680.0,1685.0,1535.744,1422.2301025390625,0.0,0.0,0.0,0.0
1534037,45.0,0.0,0.0,4452.820512820514,4095.8974358974365,4304.615384615385,4812.307692307693,3762.0512820512827,4223.589743589744,4265.641025641026,4203.076923076924,4380.000000000001,4071.7948717948725,4274.871794871796,4305.128205128206,4382.564102564103,4348.717948717949,1680.0,1685.0,1535.752,1422.2301025390625,0.0,0.0,0.0,0.0
1534037,46.0,0.0,0.0,4453.333333333334,4092.820512820513,4308.717948717949,4814.871794871796,3761.0256410256416,4225.641025641026,4267.179487179487,4208.717948717949,4386.666666666667,4069.23076923077,4277.435897435898,4303.589743589744,4376.923076923077,4344.615384615385,1680.0,1686.0,1535.76,1422.2301025390625,0.0,0.0,0.0,0.0
1534037,47.0,0.0,0.0,4455.8974358974365,4092.307692307693,4315.384615384616,4810.769230769231,3764.1025641025644,4224.102564102564,4268.205128205129,4213.846153846154,4414.871794871796,4084.615384615385,4276.410256410257,4308.205128205129,4381.538461538462,4344.615384615385,1680.0,1685.0,1535.767,1422.2301025390625,0.0,0.0,0.0,0.0
1534037,48.0,0.0,0.0,4456.410256410257,4091.7948717948725,4314.358974358975,4811.794871794872,3759.48717948718,4217.435897435898,4266.666666666667,4201.025641025642,4411.794871794872,4085.6410256410263,4274.871794871796,4310.769230769231,4381.538461538462,4345.641025641026,1679.0,1686.0,1535.775,1422.2301025390625,0.0,0.0,0.0,0.0
1534038,49.0,0.0,0.0,4447.179487179487,4077.9487179487187,4303.589743589744,4815.384615384616,3754.8717948717954,4216.923076923077,4263.076923076924,4192.820512820514,4383.589743589744,4062.0512820512827,4273.846153846154,4306.153846153847,4363.589743589744,4336.410256410257,1681.0,1685.0,1535.783,1422.2301025390625,0.0,0.0,0.0,0.0
1534038,50.0,0.0,0.0,4443.589743589744,4068.205128205129,4302.564102564103,4810.769230769231,3757.435897435898,4218.974358974359,4263.076923076924,4202.564102564103,4381.538461538462,4058.9743589743593,4272.307692307693,4303.076923076924,4359.48717948718,4335.384615384616,1680.0,1685.0,1535.791,1422.2301025390625,0.0,0.0,0.0,0.0
1534038,51.0,0.0,0.0,4449.2307692307695,4071.7948717948725,4308.717948717949,4811.794871794872,3760.0000000000005,4217.948717948719,4267.6923076923085,4205.128205128206,4390.256410256411,4074.8717948717954,4274.871794871796,4305.128205128206,4368.205128205129,4337.948717948719,1680.0,1685.0,1535.799,1422.2301025390625,0.0,0.0,0.0,0.0
1534162,52.0,0.0,0.0,4452.307692307693,4075.8974358974365,4310.256410256411,4812.307692307693,3761.0256410256416,4223.076923076924,4272.820512820514,4210.769230769231,4396.410256410257,4082.564102564103,4276.410256410257,4306.666666666667,4371.282051282052,4336.410256410257,1680.0,1684.0,1535.806,1422.3238525390625,0.0,0.0,0.0,0.0
1534162,53.0,0.0,0.0,4450.769230769231,4069.7435897435903,4307.6923076923085,4812.820512820514,3761.538461538462,4228.717948717949,4267.6923076923085,4223.076923076924,4410.256410256411,4079.48717948718,4276.410256410257,4306.666666666667,4369.743589743591,4337.948717948719,1680.0,1685.0,1535.814,1422.3238525390625,0.0,0.0,0.0,0.0
1534163,54.0,0.0,0.0,4449.2307692307695,4062.0512820512827,4308.717948717949,4813.846153846154,3758.9743589743593,4225.128205128206,4255.8974358974365,4214.871794871796,4405.641025641026,4072.820512820513,4279.48717948718,4306.666666666667,4371.794871794872,4340.512820512821,1680.0,1684.0,1535.822,1422.3238525390625,0.0,0.0,0.0,0.0
1534163,55.0,0.0,0.0,4455.8974358974365,4071.2820512820517,4313.846153846154,4811.282051282052,3758.461538461539,4214.871794871796,4258.461538461539,4214.871794871796,4391.282051282052,4072.820512820513,4276.923076923077,4308.205128205129,4380.512820512821,4345.641025641026,1680.0,1685.0,1535.83,1422.3238525390625,0.0,0.0,0.0,0.0
1534163,56.0,0.0,0.0,4457.948717948719,4080.5128205128212,4315.8974358974365,4815.8974358974365,3762.0512820512827,4212.820512820514,4267.6923076923085,4218.461538461539,4392.820512820514,4071.2820512820517,4274.871794871796,4310.256410256411,4384.102564102564,4347.6923076923085,1680.0,1683.0,1535.838,1422.3238525390625,0.0,0.0,0.0,0.0
1534163,57.0,0.0,0.0,4446.666666666667,4067.1794871794878,4309.743589743591,4814.358974358975,3762.0512820512827,4228.205128205129,4268.717948717949,4177.948717948719,4396.923076923077,4060.5128205128212,4276.923076923077,4302.564102564103,4372.820512820514,4337.435897435898,1680.0,1683.0,1535.846,1422.3238525390625,0.0,0.0,0.0,0.0
1534163,58.0,0.0,0.0,4444.102564102564,4056.410256410257,4306.153846153847,4810.256410256411,3761.538461538462,4236.923076923077,4265.128205128206,4141.538461538462,4401.538461538462,4065.6410256410263,4277.435897435898,4298.461538461539,4368.717948717949,4332.307692307693,1681.0,1683.0,1535.853,1422.3238525390625,0.0,0.0,0.0,0.0
1534164,59.0,0.0,0.0,4458.461538461539,4068.205128205129,4314.871794871796,4814.358974358975,3763.589743589744,4225.128205128206,4263.076923076924,4168.205128205129,4409.2307692307695,4083.589743589744,4276.410256410257,4307.6923076923085,4383.076923076924,4342.564102564103,1681.0,1683.0,1535.862,1422.3238525390625,0.0,0.0,0.0,0.0
1534164,60.0,0.0,0.0,4465.641025641026,4077.9487179487187,4323.589743589744,4811.794871794872,3764.615384615385,4220.512820512821,4264.615384615385,4220.512820512821,4411.794871794872,4091.2820512820517,4275.384615384616,4310.769230769231,4394.871794871796,4349.743589743591,1683.0,1683.0,1535.869,1422.3238525390625,0.0,0.0,0.0,0.0
1534164,61.0,0.0,0.0,4455.8974358974365,4068.205128205129,4317.435897435898,4813.333333333334,3762.0512820512827,4229.2307692307695,4266.153846153847,4260.000000000001,4408.205128205129,4090.2564102564106,4275.384615384616,4306.153846153847,4386.153846153847,4341.025641025642,1681.0,1684.0,1535.878,1422.3238525390625,0.0,0.0,0.0,0.0
1534164,62.0,0.0,0.0,4447.179487179487,4058.461538461539,4307.6923076923085,4816.923076923077,3761.538461538462,4230.769230769231,4266.153846153847,4281.025641025642,4413.333333333334,4093.333333333334,4274.871794871796,4305.128205128206,4380.512820512821,4333.846153846154,1683.0,1685.0,1535.885,1422.3238525390625,0.0,0.0,0.0,0.0
1534164,63.0,0.0,0.0,4451.282051282052,4064.1025641025644,4311.794871794872,4810.769230769231,3764.615384615385,4224.102564102564,4266.666666666667,4269.2307692307695,4418.461538461539,4089.23076923077,4274.358974358975,4306.666666666667,4386.153846153847,4337.435897435898,1682.0,1683.0,1535.893,1422.3238525390625,0.0,0.0,0.0,0.0
1534165,64.0,0.0,512.0,4456.410256410257,4069.23076923077,4316.923076923077,4809.2307692307695,3765.6410256410263,4227.6923076923085,4264.615384615385,4243.076923076924,4396.410256410257,4071.2820512820517,4275.8974358974365,4304.615384615385,4381.538461538462,4338.974358974359,1682.0,1685.0,1535.9,1422.3238525390625,0.0,0.0,0.0,0.0
1534165,65.0,0.0,0.0,4456.410256410257,4063.589743589744,4310.256410256411,4809.743589743591,3762.564102564103,4238.974358974359,4264.102564102564,4241.538461538462,4378.461538461539,4065.1282051282055,4275.8974358974365,4300.512820512821,4371.282051282052,4335.384615384616,1683.0,1684.0,1535.909,1422.3238525390625,0.0,0.0,0.0,0.0
1534165,66.0,0.0,508.0,4452.820512820514,4059.48717948718,4307.6923076923085,4811.282051282052,3758.461538461539,4235.384615384616,4268.205128205129,4260.512820512821,4396.923076923077,4075.8974358974365,4276.923076923077,4304.102564102564,4371.282051282052,4336.923076923077,1683.0,1685.0,1535.916,1422.3238525390625,0.0,0.0,0.0,0.0
1534166,67.0,0.0,531.0,4452.307692307693,4063.589743589744,4313.333333333334,4812.820512820514,3760.512820512821,4224.102564102564,4272.307692307693,4267.6923076923085,4406.153846153847,4075.8974358974365,4276.923076923077,4307.179487179487,4374.871794871796,4340.512820512821,1683.0,1685.0,1535.924,1422.3238525390625,0.0,0.0,0.0,0.0
1534292,68.0,0.0,497.0,4450.769230769231,4062.0512820512827,4310.769230769231,4812.307692307693,3763.589743589744,4228.717948717949,4272.820512820514,4258.974358974359,4383.589743589744,4066.1538461538466,4274.358974358975,4300.512820512821,4374.358974358975,4334.871794871796,1683.0,1685.0,1535.932,1422.448974609375,0.0,0.0,0.0,0.0
1534292,69.0,0.0,550.0,4439.48717948718,4049.7435897435903,4301.538461538462,4814.358974358975,3763.589743589744,4234.871794871796,4269.74358974359,4260.512820512821,4375.8974358974365,4064.615384615385,4274.871794871796,4295.384615384616,4368.205128205129,4326.666666666667,1683.0,1684.0,1535.939,1422.448974609375,0.0,0.0,0.0,0.0
1534293,70.0,0.0,546.0,4434.358974358975,4047.1794871794878,4305.128205128206,4810.769230769231,3764.615384615385,4235.384615384616,4271.282051282052,4267.6923076923085,4395.8974358974365,4073.333333333334,4275.8974358974365,4298.974358974359,4366.666666666667,4330.256410256411,1682.0,1686.0,1535.947,1422.448974609375,0.0,0.0,0.0,0.0
1534293,71.0,0.0,305.0,4446.666666666667,4050.7692307692314,4314.871794871796,4810.769230769231,3767.692307692308,4234.871794871796,4271.794871794872,4261.025641025642,4411.282051282052,4083.076923076924,4277.435897435898,4301.538461538462,4373.333333333334,4334.871794871796,1682.0,1687.0,1535.955,1422.448974609375,0.0,0.0,0.0,0.0
1534293,72.0,0.0,455.0,4455.384615384616,4047.1794871794878,4314.871794871796,4812.307692307693,3764.1025641025644,4230.769230769231,4268.717948717949,4254.871794871796,4413.846153846154,4082.564102564103,4276.410256410257,4303.076923076924,4376.923076923077,4333.846153846154,1682.0,1689.0,1535.964,1422.448974609375,0.0,0.0,0.0,0.0
1534293,73.0,0.0,477.0,4454.358974358975,4051.2820512820517,4315.384615384616,4809.743589743591,3763.076923076924,4233.333333333334,4271.794871794872,4253.846153846154,4409.743589743591,4074.8717948717954,4272.820512820514,4309.2307692307695,4377.435897435898,4335.384615384616,1681.0,1689.0,1535.971,1422.448974609375,0.0,0.0,0.0,0.0
1534293,74.0,0.0,495.0,4457.948717948719,4058.9743589743593,4321.538461538462,4814.358974358975,3768.717948717949,4236.923076923077,4272.820512820514,4248.717948717949,4396.923076923077,4068.717948717949,4276.410256410257,4310.769230769231,4380.000000000001,4335.8974358974365,1680.0,1689.0,1535.979,1422.448974609375,0.0,0.0,0.0,0.0
1534294,75.0,0.0,488.0,4461.025641025642,4053.333333333334,4321.025641025642,4814.358974358975,3768.717948717949,4232.307692307693,4265.128205128206,4244.615384615385,4387.179487179487,4063.589743589744,4278.974358974359,4304.615384615385,4378.461538461539,4329.743589743591,1680.0,1688.0,1535.986,1422.448974609375,0.0,0.0,0.0,0.0
1534294,76.0,0.0,0.0,4454.358974358975,4043.076923076924,4316.923076923077,4811.794871794872,3762.0512820512827,4226.153846153847,4261.025641025642,4245.128205128206,4391.282051282052,4060.0000000000005,4276.410256410257,4302.564102564103,4374.871794871796,4327.179487179487,1680.0,1687.0,1535.995,1422.448974609375,0.0,0.0,0.0,0.0
1534295,77.0,0.0,299.0,4452.307692307693,4046.666666666667,4321.538461538462,4812.307692307693,3760.0000000000005,4224.615384615385,4264.615384615385,4240.512820512821,4403.076923076924,4065.1282051282055,4273.846153846154,4306.666666666667,4379.48717948718,4336.923076923077,1680.0,1686.0,1536.002,1422.448974609375,0.0,0.0,0.0,0.0
1534295,78.0,0.0,495.0,4465.128205128206,4061.538461538462,4331.794871794872,4809.2307692307695,3763.589743589744,4227.6923076923085,4269.2307692307695,4236.410256410257,4407.179487179487,4080.5128205128212,4274.871794871796,4312.307692307693,4394.871794871796,4350.256410256411,1679.0,1686.0,1536.01,1422.448974609375,0.0,0.0,0.0,0.0
1534295,79.0,0.0,488.0,4472.820512820514,4068.717948717949,4336.923076923077,4813.846153846154,3768.205128205129,4235.384615384616,4271.282051282052,4246.153846153847,4397.948717948719,4090.7692307692314,4276.923076923077,4315.8974358974365,4407.6923076923085,4354.358974358975,1680.0,1685.0,1536.018,1422.448974609375,0.0,0.0,0.0,0.0
1534296,80.0,0.0,0.0,4464.102564102564,4062.564102564103,4334.358974358975,4817.435897435898,3767.1794871794878,4240.000000000001,4270.769230769231,4258.461538461539,4382.051282051282,4082.0512820512827,4275.384615384616,4310.256410256411,4407.179487179487,4349.743589743591,1678.0,1687.0,1536.026,1422.448974609375,0.0,0.0,0.0,0.0
1534296,81.0,0.0,299.0,4458.461538461539,4055.8974358974365,4328.717948717949,4810.769230769231,3764.615384615385,4231.794871794872,4267.6923076923085,4262.051282051282,4377.435897435898,4071.7948717948725,4274.871794871796,4302.051282051282,4401.025641025642,4344.102564102564,1679.0,1687.0,1536.033,1422.448974609375,0.0,0.0,0.0,0.0
1534296,82.0,0.0,495.0,4463.589743589744,4060.5128205128212,4327.179487179487,4810.769230769231,3766.666666666667,4222.564102564103,4266.666666666667,4263.076923076924,4387.6923076923085,4080.0000000000005,4276.410256410257,4304.102564102564,4399.48717948718,4339.48717948718,1677.0,1685.0,1536.041,1422.448974609375,0.0,0.0,0.0,0.0
1534296,83.0,0.0,488.0,4466.153846153847,4064.615384615385,4332.820512820514,4811.794871794872,3765.1282051282055,4223.076923076924,4268.205128205129,4274.871794871796,4397.435897435898,4092.820512820513,4274.358974358975,4311.794871794872,4402.051282051282,4338.974358974359,1677.0,1686.0,1536.049,1422.448974609375,0.0,0.0,0.0,0.0
1534412,84.0,0.0,0.0,4461.025641025642,4055.3846153846157,4331.794871794872,4815.8974358974365,3761.0256410256416,4224.102564102564,4266.153846153847,4297.948717948719,4415.8974358974365,4097.948717948719,4275.384615384616,4312.820512820514,4404.615384615385,4342.051282051282,1678.0,1685.0,1536.057,1422.5740966796875,0.0,0.0,0.0,0.0
1534413,85.0,0.0,299.0,4456.410256410257,4049.23076923077,4322.564102564103,4816.410256410257,3762.564102564103,4223.589743589744,4261.538461538462,4305.128205128206,4424.102564102564,4093.333333333334,4277.948717948719,4307.179487179487,4401.025641025642,4339.48717948718,1678.0,1686.0,1536.065,1422.5740966796875,0.0,0.0,0.0,0.0
1534413,86.0,0.0,495.0,4461.025641025642,4060.0000000000005,4324.615384615385,4811.282051282052,3765.6410256410263,4218.974358974359,4260.512820512821,4289.74358974359,4398.461538461539,4083.076923076924,4277.435897435898,4306.666666666667,4396.410256410257,4334.871794871796,1679.0,1686.0,1536.072,1422.5740966796875,0.0,0.0,0.0,0.0
1534414,87.0,0.0,488.0,4469.2307692307695,4066.666666666667,4333.333333333334,4813.846153846154,3765.6410256410263,4213.333333333334,4266.666666666667,4280.000000000001,4379.48717948718,4080.0000000000005,4275.384615384616,4312.307692307693,4400.000000000001,4336.923076923077,1679.0,1688.0,1536.08,1422.5740966796875,0.0,0.0,0.0,0.0
1534414,88.0,0.0,0.0,4462.564102564103,4052.820512820513,4328.205128205129,4814.358974358975,3763.076923076924,4215.8974358974365,4271.282051282052,4282.051282051282,4390.769230769231,4077.435897435898,4274.871794871796,4305.641025641026,4394.358974358975,4333.846153846154,1680.0,1687.0,1536.088,1422.5740966796875,0.0,0.0,0.0,0.0
1534414,89.0,0.0,299.0,4452.820512820514,4045.6410256410263,4324.615384615385,4814.871794871796,3764.615384615385,4222.564102564103,4267.179487179487,4283.589743589744,4398.974358974359,4070.2564102564106,4275.8974358974365,4301.538461538462,4381.025641025642,4322.564102564103,1679.0,1688.0,1536.096,1422.5740966796875,0.0,0.0,0.0,0.0
1534414,90.0,0.0,495.0,4458.974358974359,4056.410256410257,4331.794871794872,4812.820512820514,3768.717948717949,4224.615384615385,4265.641025641026,4283.076923076924,4388.717948717949,4070.2564102564106,4274.358974358975,4310.256410256411,4379.48717948718,4320.000000000001,1680.0,1687.0,1536.104,1422.5740966796875,0.0,0.0,0.0,0.0
1534415,91.0,0.0,488.0,4453.333333333334,4046.666666666667,4321.538461538462,4808.717948717949,3765.6410256410263,4234.358974358975,4266.666666666667,4278.461538461539,4374.358974358975,4055.8974358974365,4272.820512820514,4305.641025641026,4370.769230769231,4309.743589743591,1680.0,1687.0,1536.112,1422.5740966796875,0.0,0.0,0.0,0.0
1534415,92.0,0.0,0.0,4442.051282051282,4026.1538461538466,4307.179487179487,4813.333333333334,3764.1025641025644,4241.538461538462,4267.179487179487,4275.8974358974365,4373.333333333334,4039.48717948718,4275.8974358974365,4298.974358974359,4356.923076923077,4298.461538461539,1681.0,1687.0,1536.119,1422.5740966796875,0.0,0.0,0.0,0.0
1534415,93.0,0.0,299.0,4453.846153846154,4036.410256410257,4321.538461538462,4813.846153846154,3771.2820512820517,4232.307692307693,4274.358974358975,4283.589743589744,4387.179487179487,4061.0256410256416,4277.435897435898,4308.205128205129,4371.282051282052,4309.2307692307695,1680.0,1686.0,1536.128,1422.5740966796875,0.0,0.0,0.0,0.0
1534415,94.0,0.0,495.0,4464.615384615385,4051.2820512820517,4332.307692307693,4811.794871794872,3772.820512820513,4226.153846153847,4278.461538461539,4290.769230769231,4391.794871794872,4080.0000000000005,4278.461538461539,4313.846153846154,4388.205128205129,4318.461538461539,1680.0,1688.0,1536.135,1422.5740966796875,0.0,0.0,0.0,0.0
1534415,95.0,0.0,488.0,4458.974358974359,4041.0256410256416,4325.128205128206,4812.307692307693,3768.717948717949,4228.205128205129,4275.8974358974365,4297.948717948719,4392.820512820514,4072.307692307693,4278.461538461539,4309.2307692307695,4386.153846153847,4313.846153846154,1681.0,1686.0,1536.144,1422.5740966796875,0.0,0.0,0.0,0.0
1534415,96.0,0.0,0.0,4457.948717948719,4035.8974358974365,4323.589743589744,4809.743589743591,3768.717948717949,4226.666666666667,4275.8974358974365,4302.564102564103,4404.615384615385,4077.435897435898,4276.923076923077,4309.2307692307695,4389.743589743591,4314.871794871796,1680.0,1686.0,1536.151,1422.5740966796875,0.0,0.0,0.0,0.0
1534416,97.0,0.0,299.0,4458.461538461539,4037.435897435898,4321.025641025642,4813.333333333334,3769.7435897435903,4225.128205128206,4271.794871794872,4296.923076923077,4415.8974358974365,4091.2820512820517,4280.512820512821,4312.307692307693,4394.871794871796,4317.435897435898,1680.0,1685.0,1536.159,1422.5740966796875,0.0,0.0,0.0,0.0
1534416,98.0,0.0,495.0,4451.794871794872,4028.205128205129,4313.846153846154,4814.871794871796,3768.205128205129,4229.74358974359,4268.205128205129,4293.333333333334,4420.512820512821,4091.2820512820517,4280.000000000001,4308.717948717949,4389.743589743591,4313.846153846154,1679.0,1684.0,1536.166,1422.5740966796875,0.0,0.0,0.0,0.0
1534416,99.0,0.0,488.0,4449.2307692307695,4024.615384615385,4312.820512820514,4812.307692307693,3766.666666666667,4226.666666666667,4266.666666666667,4294.871794871796,4410.769230769231,4083.589743589744,4274.871794871796,4305.128205128206,4388.717948717949,4314.358974358975,1679.0,1684.0,1536.174,1422.5740966796875,0.0,0.0,0.0,0.0
