timestamp,cnt,inerpolated,raw_cq,af3,f7,f3,fc5,t7,p7,o1,o2,p8,t8,fc6,f4,f8,af4,gyrox,gyroy,epoc_timestamp,epoc_es_timestamp,func_id,func_value,marker,sync_signal
1597113,106.0,0.0,494.0,4537.435897435898,4176.410256410257,4341.538461538462,4816.923076923077,3792.307692307693,4221.538461538462,4267.6923076923085,4146.153846153847,4400.512820512821,4084.1025641025644,4269.2307692307695,4321.025641025642,4403.589743589744,4374.871794871796,1675.0,1684.0,1598.771,1485.2999267578125,0.0,0.0,0.0,0.0
1597113,107.0,0.0,487.0,4535.384615384616,4173.333333333334,4342.564102564103,4815.384615384616,3790.2564102564106,4221.025641025642,4268.717948717949,4145.128205128206,4394.358974358975,4085.6410256410263,4269.2307692307695,4319.48717948718,4406.666666666667,4381.538461538462,1674.0,1685.0,1598.778,1485.2999267578125,0.0,0.0,0.0,0.0
1597114,108.0,0.0,0.0,4533.333333333334,4168.717948717949,4338.461538461539,4813.333333333334,3790.7692307692314,4232.307692307693,4275.8974358974365,4151.794871794872,4399.48717948718,4089.7435897435903,4268.717948717949,4318.974358974359,4405.641025641026,4379.48717948718,1676.0,1685.0,1598.786,1485.2999267578125,0.0,0.0,0.0,0.0
1597114,109.0,0.0,309.0,4538.974358974359,4172.307692307693,4340.000000000001,4814.871794871796,3800.512820512821,4237.435897435898,4279.48717948718,4151.794871794872,4411.282051282052,4098.461538461539,4266.666666666667,4323.589743589744,4411.794871794872,4382.051282051282,1675.0,1685.0,1598.793,1485.2999267578125,0.0,0.0,0.0,0.0
1597114,110.0,0.0,494.0,4543.076923076924,4177.435897435898,4347.6923076923085,4809.2307692307695,3807.1794871794878,4235.8974358974365,4283.076923076924,4152.307692307693,4423.076923076924,4108.717948717949,4265.128205128206,4325.128205128206,4417.435897435898,4387.6923076923085,1677.0,1686.0,1598.801,1485.2999267578125,0.0,0.0,0.0,0.0
1597114,111.0,0.0,487.0,4538.974358974359,4176.410256410257,4350.256410256411,4812.820512820514,3805.6410256410263,4233.846153846154,4284.615384615385,4158.974358974359,4429.743589743591,4112.820512820514,4268.205128205129,4323.589743589744,4413.846153846154,4389.2307692307695,1679.0,1685.0,1598.809,1485.2999267578125,0.0,0.0,0.0,0.0
1597114,112.0,0.0,0.0,4534.871794871796,4174.358974358975,4345.641025641026,4814.871794871796,3804.1025641025644,4233.846153846154,4278.461538461539,4156.410256410257,4418.974358974359,4104.102564102564,4270.256410256411,4317.435897435898,4405.128205128206,4384.102564102564,1679.0,1685.0,1598.817,1485.2999267578125,0.0,0.0,0.0,0.0
1597115,113.0,0.0,309.0,4530.769230769231,4168.205128205129,4339.48717948718,4813.846153846154,3804.615384615385,4233.846153846154,4274.871794871796,4153.333333333334,4405.128205128206,4092.820512820513,4268.717948717949,4312.307692307693,4394.871794871796,4374.358974358975,1680.0,1686.0,1598.825,1485.2999267578125,0.0,0.0,0.0,0.0
1597115,114.0,0.0,494.0,4531.282051282052,4165.128205128206,4340.000000000001,4814.871794871796,3804.1025641025644,4234.871794871796,4280.512820512821,4166.666666666667,4416.410256410257,4094.358974358975,4267.179487179487,4316.923076923077,4390.256410256411,4371.794871794872,1681.0,1685.0,1598.833,1485.2999267578125,0.0,0.0,0.0,0.0
1597115,115.0,0.0,487.0,4541.538461538462,4175.8974358974365,4351.794871794872,4810.256410256411,3806.666666666667,4232.820512820514,4284.615384615385,4167.179487179487,4422.051282051282,4105.128205128206,4268.717948717949,4326.666666666667,4402.051282051282,4383.076923076924,1682.0,1685.0,1598.841,1485.2999267578125,0.0,0.0,0.0,0.0
1597115,116.0,0.0,0.0,4548.717948717949,4185.641025641026,4361.538461538462,4815.8974358974365,3809.7435897435903,4222.051282051282,4277.435897435898,4145.641025641026,4403.589743589744,4106.666666666667,4272.307692307693,4330.769230769231,4415.8974358974365,4394.871794871796,1682.0,1685.0,1598.848,1485.2999267578125,0.0,0.0,0.0,0.0
1597115,117.0,0.0,309.0,4545.641025641026,4182.564102564103,4361.025641025642,4816.923076923077,3808.205128205129,4219.48717948718,4273.846153846154,4145.128205128206,4406.666666666667,4105.128205128206,4269.74358974359,4324.102564102564,4413.846153846154,4392.307692307693,1684.0,1684.0,1598.857,1485.2999267578125,0.0,0.0,0.0,0.0
1597243,118.0,0.0,494.0,4543.589743589744,4175.384615384616,4352.820512820514,4811.282051282052,3805.1282051282055,4224.615384615385,4273.333333333334,4154.358974358975,4412.820512820514,4102.564102564103,4268.205128205129,4315.384615384616,4398.974358974359,4379.48717948718,1684.0,1686.0,1598.864,1485.3936767578125,0.0,0.0,0.0,0.0
1597243,119.0,0.0,487.0,4540.512820512821,4171.282051282052,4341.025641025642,4811.282051282052,3803.076923076924,4221.538461538462,4265.641025641026,4146.153846153847,4391.794871794872,4089.7435897435903,4270.769230769231,4312.307692307693,4388.205128205129,4372.820512820514,1686.0,1687.0,1598.872,1485.3936767578125,0.0,0.0,0.0,0.0
1597244,120.0,0.0,0.0,4535.384615384616,4168.717948717949,4336.410256410257,4810.256410256411,3805.6410256410263,4223.076923076924,4264.102564102564,4156.923076923077,4390.256410256411,4083.589743589744,4268.205128205129,4313.333333333334,4390.769230769231,4374.358974358975,1685.0,1688.0,1598.88,1485.3936767578125,0.0,0.0,0.0,0.0
1597244,121.0,0.0,309.0,4533.846153846154,4167.6923076923085,4342.051282051282,4817.435897435898,3810.7692307692314,4230.256410256411,4269.74358974359,4185.641025641026,4412.307692307693,4092.307692307693,4269.2307692307695,4315.8974358974365,4395.384615384616,4375.384615384616,1686.0,1690.0,1598.888,1485.3936767578125,0.0,0.0,0.0,0.0
1597244,122.0,0.0,494.0,4534.871794871796,4171.794871794872,4347.6923076923085,4816.923076923077,3812.307692307693,4228.205128205129,4273.333333333334,4188.717948717949,4416.923076923077,4099.48717948718,4273.333333333334,4318.974358974359,4400.512820512821,4376.923076923077,1685.0,1689.0,1598.895,1485.3936767578125,0.0,0.0,0.0,0.0
1597244,123.0,0.0,487.0,4532.820512820514,4168.717948717949,4343.076923076924,4808.717948717949,3807.1794871794878,4224.615384615385,4274.358974358975,4177.948717948719,4412.820512820514,4097.435897435898,4269.2307692307695,4316.410256410257,4401.538461538462,4375.384615384616,1683.0,1690.0,1598.904,1485.3936767578125,0.0,0.0,0.0,0.0
1597245,124.0,0.0,0.0,4531.282051282052,4160.512820512821,4334.358974358975,4811.794871794872,3803.589743589744,4225.128205128206,4268.717948717949,4177.435897435898,4414.871794871796,4091.7948717948725,4266.666666666667,4313.846153846154,4396.410256410257,4373.846153846154,1683.0,1688.0,1598.911,1485.3936767578125,0.0,0.0,0.0,0.0
1597245,125.0,0.0,309.0,4533.333333333334,4165.641025641026,4338.974358974359,4809.743589743591,3802.564102564103,4225.128205128206,4266.666666666667,4181.538461538462,4414.358974358975,4092.307692307693,4269.2307692307695,4313.846153846154,4398.974358974359,4378.974358974359,1682.0,1687.0,1598.919,1485.3936767578125,0.0,0.0,0.0,0.0
1597245,126.0,0.0,494.0,4534.358974358975,4170.769230769231,4344.102564102564,4811.282051282052,3803.589743589744,4228.205128205129,4273.333333333334,4191.282051282052,4416.923076923077,4095.8974358974365,4271.794871794872,4316.923076923077,4400.512820512821,4381.025641025642,1681.0,1686.0,1598.927,1485.3936767578125,0.0,0.0,0.0,0.0
1597245,127.0,0.0,487.0,4535.8974358974365,4164.102564102564,4339.48717948718,4813.333333333334,3805.1282051282055,4232.820512820514,4277.435897435898,4205.641025641026,4426.153846153847,4096.410256410257,4269.74358974359,4317.948717948719,4395.384615384616,4377.435897435898,1680.0,1686.0,1598.934,1485.3936767578125,0.0,0.0,0.0,0.0
1597246,128.0,0.0,0.0,4538.974358974359,4165.641025641026,4342.051282051282,4808.205128205129,3804.615384615385,4232.307692307693,4277.435897435898,4206.153846153847,4425.128205128206,4097.435897435898,4265.641025641026,4316.410256410257,4397.948717948719,4383.589743589744,1681.0,1685.0,1598.942,1485.3936767578125,0.0,0.0,0.0,0.0
1597246,0.0,0.0,513.0,4544.102564102564,4171.282051282052,4352.307692307693,4813.333333333334,3806.1538461538466,4225.641025641026,4275.8974358974365,4192.307692307693,4410.769230769231,4098.461538461539,4267.179487179487,4320.512820512821,4404.615384615385,4390.256410256411,1679.0,1685.0,1598.95,1485.3936767578125,0.0,0.0,0.0,0.0
1597246,1.0,0.0,0.0,4545.128205128206,4167.179487179487,4353.333333333334,4815.8974358974365,3808.717948717949,4225.641025641026,4277.948717948719,4190.769230769231,4403.589743589744,4096.923076923077,4268.205128205129,4322.051282051282,4403.589743589744,4388.205128205129,1681.0,1686.0,1598.958,1485.3936767578125,0.0,0.0,0.0,0.0
1597246,2.0,0.0,508.0,4540.512820512821,4163.076923076924,4349.2307692307695,4815.8974358974365,3810.7692307692314,4229.74358974359,4280.000000000001,4194.358974358975,4411.282051282052,4093.8461538461543,4268.717948717949,4316.923076923077,4397.948717948719,4384.615384615385,1680.0,1685.0,1598.966,1485.3936767578125,0.0,0.0,0.0,0.0
1597246,3.0,0.0,532.0,4537.948717948719,4162.051282051282,4346.666666666667,4816.410256410257,3808.717948717949,4226.666666666667,4276.410256410257,4176.923076923077,4415.8974358974365,4089.7435897435903,4268.717948717949,4312.307692307693,4392.820512820514,4378.461538461539,1680.0,1686.0,1598.974,1485.3936767578125,0.0,0.0,0.0,0.0
1597247,4.0,0.0,500.0,4537.948717948719,4162.051282051282,4343.076923076924,4810.769230769231,3809.2307692307695,4226.666666666667,4274.871794871796,4165.641025641026,4413.333333333334,4088.205128205129,4267.6923076923085,4310.769230769231,4390.256410256411,4371.794871794872,1681.0,1684.0,1598.981,1485.3936767578125,0.0,0.0,0.0,0.0
1597490,5.0,0.0,550.0,4536.410256410257,4160.000000000001,4339.48717948718,4816.410256410257,3811.7948717948725,4235.8974358974365,4277.435897435898,4174.358974358975,4410.256410256411,4085.6410256410263,4270.769230769231,4311.794871794872,4390.256410256411,4373.333333333334,1681.0,1685.0,1598.99,1485.518798828125,0.0,0.0,0.0,0.0
1597490,6.0,0.0,546.0,4535.8974358974365,4161.025641025642,4338.974358974359,4816.923076923077,3807.1794871794878,4240.000000000001,4276.410256410257,4170.256410256411,4407.179487179487,4082.564102564103,4269.74358974359,4312.820512820514,4390.256410256411,4376.923076923077,1683.0,1684.0,1598.997,1485.518798828125,0.0,0.0,0.0,0.0
1597490,7.0,0.0,307.0,4536.923076923077,4162.051282051282,4338.461538461539,4811.794871794872,3802.0512820512827,4233.333333333334,4273.333333333334,4163.589743589744,4417.435897435898,4087.692307692308,4266.153846153847,4314.358974358975,4394.358974358975,4374.358974358975,1682.0,1683.0,1599.006,1485.518798828125,0.0,0.0,0.0,0.0
1597490,8.0,0.0,457.0,4533.333333333334,4159.48717948718,4334.358974358975,4812.820512820514,3801.538461538462,4231.794871794872,4268.205128205129,4168.717948717949,4429.2307692307695,4091.2820512820517,4266.153846153847,4314.871794871796,4397.435897435898,4369.743589743591,1683.0,1683.0,1599.012,1485.518798828125,0.0,0.0,0.0,0.0
1597491,9.0,0.0,476.0,4532.307692307693,4161.538461538462,4337.435897435898,4811.282051282052,3804.615384615385,4236.923076923077,4264.615384615385,4163.589743589744,4417.435897435898,4085.1282051282055,4266.153846153847,4314.871794871796,4396.410256410257,4369.2307692307695,1683.0,1683.0,1599.02,1485.518798828125,0.0,0.0,0.0,0.0
1597491,10.0,0.0,494.0,4541.538461538462,4170.769230769231,4350.256410256411,4815.8974358974365,3812.820512820513,4241.025641025642,4270.769230769231,4155.8974358974365,4404.615384615385,4089.23076923077,4269.2307692307695,4322.051282051282,4402.051282051282,4375.384615384616,1684.0,1682.0,1599.028,1485.518798828125,0.0,0.0,0.0,0.0
1597491,11.0,0.0,487.0,4550.256410256411,4178.974358974359,4360.512820512821,4815.384615384616,3816.9230769230776,4244.615384615385,4279.48717948718,4158.974358974359,4411.282051282052,4100.000000000001,4269.2307692307695,4327.6923076923085,4411.794871794872,4388.205128205129,1683.0,1685.0,1599.036,1485.518798828125,0.0,0.0,0.0,0.0
1597491,12.0,0.0,0.0,4552.307692307693,4177.435897435898,4356.923076923077,4812.307692307693,3811.2820512820517,4240.512820512821,4274.871794871796,4154.871794871796,4413.333333333334,4096.410256410257,4268.717948717949,4323.076923076924,4411.794871794872,4393.846153846154,1684.0,1685.0,1599.044,1485.518798828125,0.0,0.0,0.0,0.0
1597491,13.0,0.0,310.0,4549.743589743591,4174.871794871796,4350.256410256411,4816.410256410257,3807.692307692308,4230.769230769231,4267.179487179487,4152.820512820514,4410.769230769231,4090.7692307692314,4271.794871794872,4318.461538461539,4406.153846153847,4389.2307692307695,1683.0,1687.0,1599.052,1485.518798828125,0.0,0.0,0.0,0.0
1597491,14.0,0.0,494.0,4547.6923076923085,4176.923076923077,4352.307692307693,4812.307692307693,3809.2307692307695,4228.717948717949,4269.74358974359,4158.461538461539,4419.48717948718,4098.461538461539,4270.256410256411,4317.435897435898,4406.153846153847,4383.076923076924,1682.0,1686.0,1599.059,1485.518798828125,0.0,0.0,0.0,0.0
1597491,15.0,0.0,487.0,4543.076923076924,4173.333333333334,4349.743589743591,4815.8974358974365,3805.6410256410263,4230.256410256411,4269.74358974359,4151.794871794872,4415.8974358974365,4097.948717948719,4268.717948717949,4317.435897435898,4405.128205128206,4377.948717948719,1682.0,1687.0,1599.067,1485.518798828125,0.0,0.0,0.0,0.0
1597491,16.0,0.0,0.0,4535.384615384616,4166.666666666667,4345.128205128206,4816.923076923077,3801.0256410256416,4231.282051282052,4265.641025641026,4142.564102564103,4404.615384615385,4088.717948717949,4268.717948717949,4317.435897435898,4399.48717948718,4375.8974358974365,1681.0,1687.0,1599.075,1485.518798828125,0.0,0.0,0.0,0.0
1597491,17.0,0.0,0.0,4531.282051282052,4167.179487179487,4344.615384615385,4809.2307692307695,3802.0512820512827,4234.871794871796,4267.6923076923085,4142.051282051282,4409.743589743591,4089.23076923077,4267.179487179487,4315.8974358974365,4398.974358974359,4376.410256410257,1680.0,1688.0,1599.083,1485.518798828125,0.0,0.0,0.0,0.0
1597492,18.0,0.0,0.0,4534.358974358975,4170.256410256411,4344.615384615385,4814.871794871796,3802.0512820512827,4237.435897435898,4271.282051282052,4137.948717948719,4411.282051282052,4091.7948717948725,4268.205128205129,4316.410256410257,4400.512820512821,4376.410256410257,1681.0,1686.0,1599.091,1485.518798828125,0.0,0.0,0.0,0.0
1597492,19.0,0.0,0.0,4532.820512820514,4165.128205128206,4341.538461538462,4816.923076923077,3797.9487179487182,4240.512820512821,4272.820512820514,4129.74358974359,4403.589743589744,4086.666666666667,4270.256410256411,4315.384615384616,4395.384615384616,4372.307692307693,1680.0,1687.0,1599.098,1485.518798828125,0.0,0.0,0.0,0.0
1597492,20.0,0.0,0.0,4525.128205128206,4156.923076923077,4338.461538461539,4814.871794871796,3798.461538461539,4241.025641025642,4271.282051282052,4127.6923076923085,4406.153846153847,4082.564102564103,4269.74358974359,4312.307692307693,4388.717948717949,4368.205128205129,1681.0,1687.0,1599.106,1485.518798828125,0.0,0.0,0.0,0.0
1597493,21.0,0.0,0.0,4525.641025641026,4162.051282051282,4339.48717948718,4813.333333333334,3803.589743589744,4240.000000000001,4274.871794871796,4131.794871794872,4422.051282051282,4092.307692307693,4265.641025641026,4314.358974358975,4397.948717948719,4373.333333333334,1679.0,1685.0,1599.113,1485.518798828125,0.0,0.0,0.0,0.0
1597493,22.0,0.0,0.0,4532.307692307693,4173.333333333334,4345.641025641026,4809.2307692307695,3804.615384615385,4243.076923076924,4277.948717948719,4132.820512820514,4424.102564102564,4102.051282051282,4263.589743589744,4317.435897435898,4412.820512820514,4382.051282051282,1679.0,1687.0,1599.122,1485.518798828125,0.0,0.0,0.0,0.0
1597493,23.0,0.0,0.0,4528.717948717949,4169.74358974359,4344.615384615385,4814.871794871796,3802.0512820512827,4240.512820512821,4270.769230769231,4124.615384615385,4398.461538461539,4091.2820512820517,4267.179487179487,4315.8974358974365,4404.615384615385,4376.923076923077,1679.0,1685.0,1599.13,1485.518798828125,0.0,0.0,0.0,0.0
1597493,24.0,0.0,0.0,4520.512820512821,4159.48717948718,4336.923076923077,4814.871794871796,3798.9743589743593,4235.8974358974365,4267.6923076923085,4119.48717948718,4382.051282051282,4075.8974358974365,4269.2307692307695,4310.256410256411,4392.307692307693,4364.102564102564,1678.0,1687.0,1599.138,1485.518798828125,0.0,0.0,0.0,0.0
1597494,25.0,0.0,0.0,4520.000000000001,4158.974358974359,4335.8974358974365,4813.333333333334,3794.8717948717954,4233.333333333334,4269.74358974359,4122.051282051282,4393.333333333334,4073.8461538461543,4268.717948717949,4310.256410256411,4393.333333333334,4362.564102564103,1679.0,1686.0,1599.146,1485.518798828125,0.0,0.0,0.0,0.0
1597494,26.0,0.0,0.0,4525.641025641026,4163.076923076924,4340.512820512821,4813.333333333334,3794.8717948717954,4231.794871794872,4269.74358974359,4118.974358974359,4403.076923076924,4081.0256410256416,4267.179487179487,4315.8974358974365,4395.8974358974365,4367.6923076923085,1679.0,1685.0,1599.153,1485.518798828125,0.0,0.0,0.0,0.0
1597495,27.0,0.0,0.0,4531.794871794872,4166.666666666667,4343.589743589744,4809.2307692307695,3798.461538461539,4235.8974358974365,4272.820512820514,4111.794871794872,4402.564102564103,4088.205128205129,4265.128205128206,4318.974358974359,4398.974358974359,4372.820512820514,1680.0,1685.0,1599.161,1485.518798828125,0.0,0.0,0.0,0.0
1597495,28.0,0.0,0.0,4531.282051282052,4166.153846153847,4343.076923076924,4816.410256410257,3798.9743589743593,4236.410256410257,4273.333333333334,4111.794871794872,4397.948717948719,4085.1282051282055,4267.6923076923085,4315.8974358974365,4400.000000000001,4372.820512820514,1679.0,1685.0,1599.169,1485.518798828125,0.0,0.0,0.0,0.0
1597496,29.0,0.0,0.0,4528.205128205129,4162.564102564103,4343.589743589744,4818.461538461539,3795.3846153846157,4230.769230769231,4269.74358974359,4112.820512820514,4397.435897435898,4083.076923076924,4268.205128205129,4313.846153846154,4396.923076923077,4371.794871794872,1680.0,1685.0,1599.176,1485.518798828125,0.0,0.0,0.0,0.0
1597496,30.0,0.0,0.0,4529.743589743591,4161.025641025642,4343.589743589744,4813.846153846154,3793.8461538461543,4228.717948717949,4269.2307692307695,4106.666666666667,4400.512820512821,4085.6410256410263,4268.717948717949,4316.410256410257,4394.358974358975,4374.871794871796,1680.0,1685.0,1599.184,1485.518798828125,0.0,0.0,0.0,0.0
1597496,31.0,0.0,0.0,4533.333333333334,4162.051282051282,4344.102564102564,4811.794871794872,3795.3846153846157,4233.333333333334,4269.74358974359,4099.48717948718,4397.948717948719,4083.076923076924,4269.2307692307695,4317.948717948719,4393.333333333334,4379.48717948718,1681.0,1685.0,1599.192,1485.518798828125,0.0,0.0,0.0,0.0
1597496,32.0,0.0,0.0,4533.846153846154,4165.641025641026,4348.717948717949,4808.205128205129,3796.410256410257,4239.48717948718,4271.794871794872,4101.538461538462,4397.435897435898,4085.1282051282055,4265.641025641026,4317.948717948719,4396.923076923077,4387.179487179487,1681.0,1685.0,1599.2,1485.518798828125,0.0,0.0,0.0,0.0
1597496,33.0,0.0,0.0,4531.794871794872,4162.564102564103,4347.6923076923085,4815.8974358974365,3794.358974358975,4235.384615384616,4272.307692307693,4105.641025641026,4405.641025641026,4092.307692307693,4268.205128205129,4321.025641025642,4400.000000000001,4392.307692307693,1681.0,1685.0,1599.208,1485.518798828125,0.0,0.0,0.0,0.0
1597497,34.0,0.0,0.0,4529.743589743591,4156.923076923077,4341.538461538462,4819.48717948718,3789.7435897435903,4225.641025641026,4266.153846153847,4103.076923076924,4411.794871794872,4092.307692307693,4269.2307692307695,4317.948717948719,4396.410256410257,4386.666666666667,1682.0,1684.0,1599.216,1485.518798828125,0.0,0.0,0.0,0.0
1597497,35.0,0.0,0.0,4529.2307692307695,4155.384615384616,4338.461538461539,4814.871794871796,3787.1794871794878,4223.076923076924,4261.538461538462,4097.948717948719,4410.256410256411,4090.2564102564106,4264.102564102564,4311.794871794872,4393.333333333334,4381.025641025642,1681.0,1685.0,1599.224,1485.518798828125,0.0,0.0,0.0,0.0
1597497,36.0,0.0,0.0,4534.358974358975,4158.974358974359,4343.076923076924,4815.384615384616,3791.2820512820517,4229.2307692307695,4264.615384615385,4095.3846153846157,4410.256410256411,4093.333333333334,4265.128205128206,4316.923076923077,4399.48717948718,4387.6923076923085,1682.0,1684.0,1599.231,1485.518798828125,0.0,0.0,0.0,0.0
1597518,37.0,0.0,0.0,4536.923076923077,4164.615384615385,4349.2307692307695,4810.256410256411,3795.3846153846157,4235.8974358974365,4271.794871794872,4093.8461538461543,4411.282051282052,4098.974358974359,4268.205128205129,4324.102564102564,4407.6923076923085,4397.435897435898,1681.0,1683.0,1599.239,1485.76904296875,0.0,0.0,0.0,0.0
1597518,38.0,0.0,0.0,4534.358974358975,4165.641025641026,4350.256410256411,4813.333333333334,3790.7692307692314,4233.846153846154,4270.256410256411,4093.333333333334,4405.641025641026,4099.48717948718,4268.205128205129,4323.589743589744,4407.179487179487,4399.48717948718,1682.0,1683.0,1599.247,1485.76904296875,0.0,0.0,0.0,0.0
1597518,39.0,0.0,0.0,4537.948717948719,4165.641025641026,4350.256410256411,4816.923076923077,3785.6410256410263,4229.74358974359,4263.076923076924,4094.358974358975,4402.051282051282,4095.3846153846157,4267.179487179487,4322.564102564103,4407.179487179487,4402.051282051282,1681.0,1683.0,1599.255,1485.76904296875,0.0,0.0,0.0,0.0
1597518,40.0,0.0,0.0,4541.538461538462,4165.641025641026,4352.307692307693,4812.307692307693,3786.666666666667,4231.282051282052,4265.128205128206,4096.923076923077,4408.717948717949,4096.923076923077,4266.666666666667,4323.589743589744,4415.384615384616,4403.589743589744,1681.0,1683.0,1599.263,1485.76904296875,0.0,0.0,0.0,0.0
1597613,41.0,0.0,0.0,4536.410256410257,4160.512820512821,4348.205128205129,4814.358974358975,3788.717948717949,4231.282051282052,4264.102564102564,4102.051282051282,4409.2307692307695,4096.923076923077,4266.666666666667,4321.538461538462,4415.384615384616,4398.461538461539,1680.0,1684.0,1599.27,1485.80029296875,0.0,0.0,0.0,0.0
1597614,42.0,0.0,0.0,4530.769230769231,4152.307692307693,4338.974358974359,4811.794871794872,3786.666666666667,4230.256410256411,4257.948717948719,4099.48717948718,4396.923076923077,4085.1282051282055,4265.641025641026,4313.846153846154,4405.641025641026,4392.307692307693,1680.0,1685.0,1599.278,1485.80029296875,0.0,0.0,0.0,0.0
1597614,43.0,0.0,0.0,4533.846153846154,4151.282051282052,4340.512820512821,4814.871794871796,3786.1538461538466,4235.8974358974365,4261.025641025642,4086.666666666667,4393.333333333334,4082.564102564103,4268.717948717949,4313.333333333334,4406.153846153847,4394.358974358975,1680.0,1684.0,1599.286,1485.80029296875,0.0,0.0,0.0,0.0
1597614,44.0,0.0,0.0,4538.974358974359,4154.871794871796,4349.2307692307695,4816.410256410257,3787.692307692308,4238.461538461539,4267.179487179487,4080.5128205128212,4400.512820512821,4092.307692307693,4269.74358974359,4320.512820512821,4412.307692307693,4401.538461538462,1680.0,1686.0,1599.294,1485.80029296875,0.0,0.0,0.0,0.0
1597614,45.0,0.0,0.0,4534.871794871796,4152.820512820514,4347.179487179487,4809.2307692307695,3785.6410256410263,4230.256410256411,4263.076923076924,4085.6410256410263,4397.435897435898,4087.1794871794878,4265.128205128206,4319.48717948718,4409.743589743591,4397.948717948719,1680.0,1684.0,1599.302,1485.80029296875,0.0,0.0,0.0,0.0
1597614,46.0,0.0,0.0,4526.666666666667,4145.641025641026,4338.974358974359,4815.384615384616,3780.512820512821,4225.128205128206,4257.435897435898,4090.7692307692314,4397.435897435898,4080.5128205128212,4265.641025641026,4314.358974358975,4405.641025641026,4391.794871794872,1679.0,1685.0,1599.31,1485.80029296875,0.0,0.0,0.0,0.0
1597615,47.0,0.0,0.0,4530.769230769231,4145.128205128206,4344.615384615385,4818.461538461539,3778.9743589743593,4231.794871794872,4262.051282051282,4095.8974358974365,4407.6923076923085,4089.7435897435903,4268.717948717949,4314.358974358975,4408.717948717949,4396.923076923077,1681.0,1684.0,1599.317,1485.80029296875,0.0,0.0,0.0,0.0
1597615,48.0,0.0,0.0,4535.384615384616,4145.128205128206,4347.6923076923085,4814.358974358975,3781.538461538462,4236.923076923077,4264.615384615385,4097.948717948719,4396.923076923077,4084.1025641025644,4269.74358974359,4315.384615384616,4406.666666666667,4395.384615384616,1680.0,1684.0,1599.325,1485.80029296875,0.0,0.0,0.0,0.0
1597615,49.0,0.0,0.0,4534.871794871796,4146.153846153847,4345.128205128206,4812.820512820514,3785.1282051282055,4233.846153846154,4264.615384615385,4097.435897435898,4387.179487179487,4078.461538461539,4267.179487179487,4317.948717948719,4405.641025641026,4391.794871794872,1680.0,1684.0,1599.333,1485.80029296875,0.0,0.0,0.0,0.0
1597615,50.0,0.0,0.0,4544.615384615385,4158.974358974359,4358.461538461539,4811.794871794872,3788.205128205129,4232.820512820514,4269.2307692307695,4100.000000000001,4411.794871794872,4104.102564102564,4265.641025641026,4326.153846153847,4426.666666666667,4409.743589743591,1680.0,1683.0,1599.341,1485.80029296875,0.0,0.0,0.0,0.0
1597615,51.0,0.0,0.0,4547.179487179488,4163.076923076924,4365.128205128206,4817.948717948719,3788.717948717949,4234.871794871796,4272.820512820514,4092.820512820513,4423.589743589744,4117.435897435898,4268.717948717949,4328.717948717949,4436.923076923077,4421.025641025642,1681.0,1684.0,1599.349,1485.80029296875,0.0,0.0,0.0,0.0
1597615,52.0,0.0,0.0,4534.358974358975,4148.717948717949,4351.282051282052,4815.8974358974365,3785.6410256410263,4237.948717948719,4272.307692307693,4084.615384615385,4408.205128205129,4100.000000000001,4269.2307692307695,4319.48717948718,4418.974358974359,4402.051282051282,1681.0,1683.0,1599.357,1485.80029296875,0.0,0.0,0.0,0.0
1597740,53.0,0.0,0.0,4534.871794871796,4147.6923076923085,4348.205128205129,4811.794871794872,3786.666666666667,4236.923076923077,4268.717948717949,4090.2564102564106,4402.051282051282,4092.307692307693,4268.205128205129,4316.923076923077,4409.2307692307695,4392.307692307693,1681.0,1683.0,1599.364,1485.8941650390625,0.0,0.0,0.0,0.0
1597740,54.0,0.0,0.0,4547.179487179488,4160.000000000001,4361.538461538462,4813.846153846154,3787.692307692308,4234.358974358975,4266.666666666667,4087.1794871794878,4402.051282051282,4096.410256410257,4268.205128205129,4323.589743589744,4420.512820512821,4407.179487179487,1681.0,1683.0,1599.373,1485.8941650390625,0.0,0.0,0.0,0.0
1597740,55.0,0.0,0.0,4548.205128205129,4162.564102564103,4365.128205128206,4810.769230769231,3783.589743589744,4236.410256410257,4270.769230769231,4078.461538461539,4405.641025641026,4097.435897435898,4267.179487179487,4325.641025641026,4428.717948717949,4418.974358974359,1681.0,1684.0,1599.38,1485.8941650390625,0.0,0.0,0.0,0.0
1597740,56.0,0.0,0.0,4542.051282051282,4155.384615384616,4359.48717948718,4817.435897435898,3782.0512820512827,4235.384615384616,4269.2307692307695,4078.461538461539,4412.820512820514,4096.410256410257,4270.256410256411,4323.589743589744,4422.051282051282,4416.410256410257,1682.0,1683.0,1599.389,1485.8941650390625,0.0,0.0,0.0,0.0
1597741,57.0,0.0,0.0,4537.435897435898,4147.6923076923085,4352.307692307693,4816.923076923077,3781.538461538462,4232.820512820514,4260.512820512821,4069.7435897435903,4405.128205128206,4086.1538461538466,4272.307692307693,4316.923076923077,4410.769230769231,4404.615384615385,1680.0,1684.0,1599.396,1485.8941650390625,0.0,0.0,0.0,0.0
1597741,58.0,0.0,0.0,4535.8974358974365,4143.589743589744,4349.2307692307695,4808.205128205129,3779.48717948718,4235.8974358974365,4258.974358974359,4056.410256410257,4391.794871794872,4082.0512820512827,4269.2307692307695,4314.358974358975,4410.256410256411,4397.948717948719,1681.0,1684.0,1599.404,1485.8941650390625,0.0,0.0,0.0,0.0
1597741,59.0,0.0,0.0,4539.48717948718,4146.153846153847,4351.794871794872,4813.333333333334,3780.0000000000005,4236.410256410257,4263.076923076924,4061.538461538462,4402.564102564103,4096.923076923077,4269.74358974359,4321.538461538462,4418.974358974359,4404.102564102564,1680.0,1684.0,1599.411,1485.8941650390625,0.0,0.0,0.0,0.0
1597741,60.0,0.0,0.0,4537.948717948719,4146.153846153847,4351.282051282052,4813.333333333334,3779.48717948718,4233.846153846154,4267.6923076923085,4069.7435897435903,4423.589743589744,4107.6923076923085,4271.282051282052,4324.102564102564,4422.564102564103,4410.769230769231,1680.0,1684.0,1599.419,1485.8941650390625,0.0,0.0,0.0,0.0
1597741,61.0,0.0,0.0,4530.256410256411,4140.000000000001,4350.256410256411,4812.820512820514,3778.9743589743593,4232.820512820514,4270.769230769231,4067.1794871794878,4420.000000000001,4101.538461538462,4270.769230769231,4322.564102564103,4419.48717948718,4408.717948717949,1679.0,1684.0,1599.427,1485.8941650390625,0.0,0.0,0.0,0.0
1597741,62.0,0.0,0.0,4531.282051282052,4142.564102564103,4353.333333333334,4812.820512820514,3780.512820512821,4228.717948717949,4267.6923076923085,4058.9743589743593,4404.615384615385,4096.410256410257,4271.282051282052,4324.102564102564,4419.48717948718,4408.717948717949,1679.0,1685.0,1599.435,1485.8941650390625,0.0,0.0,0.0,0.0
1597741,63.0,0.0,0.0,4536.923076923077,4148.717948717949,4354.358974358975,4810.256410256411,3777.9487179487182,4220.512820512821,4263.076923076924,4051.2820512820517,4398.974358974359,4095.8974358974365,4269.74358974359,4324.102564102564,4418.974358974359,4410.256410256411,1678.0,1685.0,1599.443,1485.8941650390625,0.0,0.0,0.0,0.0
1597742,64.0,0.0,513.0,4536.923076923077,4146.153846153847,4350.769230769231,4813.846153846154,3777.435897435898,4222.564102564103,4263.589743589744,4053.8461538461543,4404.615384615385,4093.333333333334,4268.717948717949,4323.589743589744,4414.358974358975,4409.2307692307695,1678.0,1687.0,1599.451,1485.8941650390625,0.0,0.0,0.0,0.0
1597742,65.0,0.0,0.0,4533.333333333334,4143.076923076924,4349.743589743591,4810.769230769231,3786.1538461538466,4238.974358974359,4272.307692307693,4057.435897435898,4408.717948717949,4092.820512820513,4268.205128205129,4320.512820512821,4413.846153846154,4410.256410256411,1677.0,1686.0,1599.458,1485.8941650390625,0.0,0.0,0.0,0.0
1597742,66.0,0.0,508.0,4529.743589743591,4141.025641025642,4346.666666666667,4811.282051282052,3788.717948717949,4244.102564102564,4276.923076923077,4049.23076923077,4398.974358974359,4089.23076923077,4271.282051282052,4315.8974358974365,4412.820512820514,4407.6923076923085,1676.0,1687.0,1599.466,1485.8941650390625,0.0,0.0,0.0,0.0
1597743,67.0,0.0,532.0,4529.743589743591,4141.025641025642,4345.641025641026,4815.8974358974365,3782.564102564103,4233.846153846154,4272.307692307693,4044.1025641025644,4388.205128205129,4085.1282051282055,4271.282051282052,4317.948717948719,4411.794871794872,4407.179487179487,1676.0,1683.0,1599.474,1485.8941650390625,0.0,0.0,0.0,0.0
1597744,68.0,0.0,500.0,4530.769230769231,4142.051282051282,4349.2307692307695,4811.282051282052,3780.0000000000005,4235.8974358974365,4272.307692307693,4053.8461538461543,4398.461538461539,4087.1794871794878,4266.666666666667,4321.025641025642,4411.282051282052,4408.717948717949,1676.0,1683.0,1599.482,1485.8941650390625,0.0,0.0,0.0,0.0
1597861,69.0,0.0,550.0,4526.666666666667,4138.461538461539,4345.641025641026,4813.846153846154,3780.512820512821,4242.564102564103,4276.410256410257,4062.0512820512827,4413.846153846154,4093.333333333334,4268.205128205129,4318.461538461539,4412.820512820514,4404.102564102564,1676.0,1683.0,1599.489,1486.019287109375,0.0,0.0,0.0,0.0
1597862,70.0,0.0,546.0,4532.307692307693,4142.564102564103,4348.205128205129,4813.333333333334,3780.0000000000005,4237.948717948719,4277.435897435898,4060.5128205128212,4410.256410256411,4101.538461538462,4266.666666666667,4319.48717948718,4422.564102564103,4409.2307692307695,1676.0,1684.0,1599.497,1486.019287109375,0.0,0.0,0.0,0.0
1597862,71.0,0.0,307.0,4543.076923076924,4152.307692307693,4357.435897435898,4814.358974358975,3783.589743589744,4230.256410256411,4272.820512820514,4061.538461538462,4407.179487179487,4104.615384615385,4265.128205128206,4322.564102564103,4429.743589743591,4420.512820512821,1677.0,1684.0,1599.508,1486.019287109375,0.0,0.0,0.0,0.0
1597862,72.0,0.0,457.0,4535.384615384616,4148.205128205129,4350.769230769231,4815.8974358974365,3785.6410256410263,4228.717948717949,4268.205128205129,4060.0000000000005,4409.2307692307695,4097.435897435898,4266.666666666667,4318.461538461539,4420.512820512821,4414.358974358975,1678.0,1685.0,1599.514,1486.019287109375,0.0,0.0,0.0,0.0
1597863,73.0,0.0,476.0,4523.076923076924,4136.923076923077,4337.948717948719,4808.205128205129,3778.9743589743593,4231.282051282052,4265.128205128206,4049.7435897435903,4397.435897435898,4086.666666666667,4266.153846153847,4311.794871794872,4409.743589743591,4400.000000000001,1678.0,1684.0,1599.522,1486.019287109375,0.0,0.0,0.0,0.0
1597863,74.0,0.0,494.0,4522.564102564103,4138.461538461539,4337.435897435898,4814.358974358975,3777.9487179487182,4233.846153846154,4263.076923076924,4039.48717948718,4382.564102564103,4080.0000000000005,4267.179487179487,4312.820512820514,4405.641025641026,4395.384615384616,1678.0,1685.0,1599.529,1486.019287109375,0.0,0.0,0.0,0.0
1597863,75.0,0.0,487.0,4523.589743589744,4145.128205128206,4340.512820512821,4817.435897435898,3781.0256410256416,4234.358974358975,4263.076923076924,4037.9487179487182,4382.051282051282,4075.3846153846157,4267.6923076923085,4314.871794871796,4405.128205128206,4398.461538461539,1680.0,1683.0,1599.537,1486.019287109375,0.0,0.0,0.0,0.0
1597864,76.0,0.0,0.0,4523.589743589744,4141.538461538462,4336.923076923077,4812.307692307693,3776.410256410257,4231.794871794872,4262.051282051282,4041.538461538462,4389.743589743591,4075.3846153846157,4266.666666666667,4313.846153846154,4408.205128205129,4399.48717948718,1679.0,1685.0,1599.544,1486.019287109375,0.0,0.0,0.0,0.0
1597864,77.0,0.0,310.0,4527.6923076923085,4135.384615384616,4334.871794871796,4813.846153846154,3772.307692307693,4229.74358974359,4259.48717948718,4052.820512820513,4401.025641025642,4083.076923076924,4268.205128205129,4315.8974358974365,4412.307692307693,4404.102564102564,1680.0,1685.0,1599.553,1486.019287109375,0.0,0.0,0.0,0.0
1597864,78.0,0.0,494.0,4529.743589743591,4141.025641025642,4340.512820512821,4813.846153846154,3774.8717948717954,4231.794871794872,4260.000000000001,4063.076923076924,4415.384615384616,4096.410256410257,4268.205128205129,4320.000000000001,4417.948717948719,4408.717948717949,1679.0,1685.0,1599.56,1486.019287109375,0.0,0.0,0.0,0.0
1597865,79.0,0.0,487.0,4526.666666666667,4143.589743589744,4344.102564102564,4818.461538461539,3779.48717948718,4233.846153846154,4264.102564102564,4055.8974358974365,4412.820512820514,4098.974358974359,4266.666666666667,4321.025641025642,4420.000000000001,4407.6923076923085,1680.0,1687.0,1599.569,1486.019287109375,0.0,0.0,0.0,0.0
1597865,80.0,0.0,0.0,4526.666666666667,4139.48717948718,4344.102564102564,4814.871794871796,3780.512820512821,4236.410256410257,4267.179487179487,4043.589743589744,4398.974358974359,4092.820512820513,4264.615384615385,4318.461538461539,4421.025641025642,4408.717948717949,1680.0,1685.0,1599.576,1486.019287109375,0.0,0.0,0.0,0.0
1597865,81.0,0.0,310.0,4533.846153846154,4141.025641025642,4346.153846153847,4810.769230769231,3778.9743589743593,4233.333333333334,4266.666666666667,4045.6410256410263,4397.435897435898,4093.333333333334,4265.641025641026,4317.435897435898,4424.615384615385,4413.333333333334,1680.0,1685.0,1599.584,1486.019287109375,0.0,0.0,0.0,0.0
1597865,82.0,0.0,494.0,4534.358974358975,4140.512820512821,4346.153846153847,4816.410256410257,3776.410256410257,4227.6923076923085,4261.025641025642,4052.307692307693,4400.000000000001,4090.2564102564106,4268.717948717949,4318.974358974359,4418.461538461539,4409.2307692307695,1680.0,1684.0,1599.591,1486.019287109375,0.0,0.0,0.0,0.0
1597865,83.0,0.0,487.0,4524.102564102564,4133.846153846154,4340.512820512821,4813.846153846154,3774.358974358975,4228.717948717949,4256.410256410257,4042.0512820512827,4397.948717948719,4082.0512820512827,4267.6923076923085,4315.384615384616,4408.205128205129,4402.564102564103,1681.0,1684.0,1599.599,1486.019287109375,0.0,0.0,0.0,0.0
1597865,84.0,0.0,0.0,4518.974358974359,4129.74358974359,4333.846153846154,4813.846153846154,3771.794871794872,4229.2307692307695,4254.871794871796,4027.692307692308,4394.871794871796,4078.461538461539,4270.769230769231,4311.282051282052,4404.102564102564,4403.076923076924,1682.0,1682.0,1599.607,1486.019287109375,0.0,0.0,0.0,0.0
1597994,85.0,0.0,310.0,4523.076923076924,4130.769230769231,4333.333333333334,4815.8974358974365,3771.794871794872,4231.794871794872,4254.871794871796,4034.358974358975,4401.025641025642,4082.0512820512827,4271.282051282052,4310.769230769231,4404.615384615385,4402.564102564103,1682.0,1683.0,1599.615,1486.1444091796875,0.0,0.0,0.0,0.0
1597995,86.0,0.0,494.0,4528.205128205129,4137.435897435898,4337.948717948719,4811.794871794872,3773.8461538461543,4237.948717948719,4257.435897435898,4046.666666666667,4407.6923076923085,4086.1538461538466,4266.666666666667,4312.307692307693,4409.2307692307695,4400.512820512821,1683.0,1682.0,1599.622,1486.1444091796875,0.0,0.0,0.0,0.0
1597995,87.0,0.0,487.0,4531.282051282052,4140.000000000001,4340.512820512821,4813.846153846154,3773.8461538461543,4235.384615384616,4255.8974358974365,4048.205128205129,4404.102564102564,4085.6410256410263,4269.2307692307695,4315.384615384616,4414.358974358975,4405.128205128206,1683.0,1683.0,1599.63,1486.1444091796875,0.0,0.0,0.0,0.0
1597995,88.0,0.0,0.0,4528.717948717949,4135.384615384616,4337.948717948719,4813.333333333334,3770.2564102564106,4230.769230769231,4253.846153846154,4052.307692307693,4395.8974358974365,4084.615384615385,4270.769230769231,4313.333333333334,4414.871794871796,4406.153846153847,1685.0,1682.0,1599.639,1486.1444091796875,0.0,0.0,0.0,0.0
1597996,89.0,0.0,310.0,4522.051282051282,4132.820512820514,4334.358974358975,4812.820512820514,3768.717948717949,4235.384615384616,4257.435897435898,4052.307692307693,4391.282051282052,4082.564102564103,4268.717948717949,4309.2307692307695,4410.769230769231,4395.384615384616,1684.0,1683.0,1599.645,1486.1444091796875,0.0,0.0,0.0,0.0
1597996,90.0,0.0,494.0,4520.512820512821,4134.358974358975,4334.358974358975,4811.282051282052,3769.7435897435903,4237.948717948719,4262.564102564103,4043.076923076924,4399.48717948718,4082.0512820512827,4266.666666666667,4310.769230769231,4408.205128205129,4388.205128205129,1686.0,1684.0,1599.654,1486.1444091796875,0.0,0.0,0.0,0.0
1597996,91.0,0.0,487.0,4520.512820512821,4133.333333333334,4330.769230769231,4807.6923076923085,3767.692307692308,4232.820512820514,4260.000000000001,4044.1025641025644,4413.846153846154,4085.6410256410263,4267.179487179487,4310.256410256411,4407.179487179487,4390.769230769231,1686.0,1683.0,1599.661,1486.1444091796875,0.0,0.0,0.0,0.0
1597996,92.0,0.0,0.0,4514.358974358975,4132.307692307693,4326.666666666667,4814.871794871796,3766.666666666667,4233.333333333334,4258.461538461539,4045.1282051282055,4409.743589743591,4087.692307692308,4269.2307692307695,4308.717948717949,4405.128205128206,4390.769230769231,1686.0,1687.0,1599.669,1486.1444091796875,0.0,0.0,0.0,0.0
1597997,93.0,0.0,310.0,4512.820512820514,4133.846153846154,4331.794871794872,4813.333333333334,3768.205128205129,4234.358974358975,4264.102564102564,4032.307692307693,4394.871794871796,4086.666666666667,4270.256410256411,4311.282051282052,4407.6923076923085,4389.2307692307695,1686.0,1687.0,1599.677,1486.1444091796875,0.0,0.0,0.0,0.0
1597997,94.0,0.0,494.0,4515.8974358974365,4130.256410256411,4333.333333333334,4809.743589743591,3765.1282051282055,4224.615384615385,4259.48717948718,4025.1282051282055,4389.2307692307695,4082.0512820512827,4269.2307692307695,4313.846153846154,4408.205128205129,4391.282051282052,1687.0,1688.0,1599.685,1486.1444091796875,0.0,0.0,0.0,0.0
1597997,95.0,0.0,487.0,4512.307692307693,4124.615384615385,4325.641025641026,4813.333333333334,3761.538461538462,4215.384615384616,4249.74358974359,4031.2820512820517,4389.743589743591,4074.8717948717954,4267.6923076923085,4310.769230769231,4399.48717948718,4388.717948717949,1686.0,1687.0,1599.693,1486.1444091796875,0.0,0.0,0.0,0.0
1597997,96.0,0.0,0.0,4511.282051282052,4125.128205128206,4324.102564102564,4809.2307692307695,3762.0512820512827,4217.435897435898,4252.820512820514,4038.461538461539,4389.743589743591,4073.8461538461543,4266.666666666667,4309.743589743591,4393.846153846154,4381.025641025642,1686.0,1688.0,1599.701,1486.1444091796875,0.0,0.0,0.0,0.0
1597998,97.0,0.0,310.0,4511.282051282052,4123.589743589744,4327.6923076923085,4813.333333333334,3758.9743589743593,4217.435897435898,4255.8974358974365,4035.8974358974365,4385.641025641026,4075.8974358974365,4267.179487179487,4315.384615384616,4396.410256410257,4381.538461538462,1686.0,1687.0,1599.708,1486.1444091796875,0.0,0.0,0.0,0.0
1597998,98.0,0.0,494.0,4505.641025641026,4118.461538461539,4324.615384615385,4815.8974358974365,3753.333333333334,4217.435897435898,4251.794871794872,4017.9487179487182,4380.000000000001,4071.7948717948725,4265.128205128206,4311.794871794872,4396.923076923077,4383.589743589744,1684.0,1688.0,1599.716,1486.1444091796875,0.0,0.0,0.0,0.0
1597998,99.0,0.0,487.0,4504.615384615385,4117.435897435898,4323.589743589744,4809.743589743591,3754.358974358975,4227.179487179487,4251.794871794872,4004.615384615385,4383.076923076924,4067.1794871794878,4265.128205128206,4307.6923076923085,4392.820512820514,4382.564102564103,1685.0,1688.0,1599.724,1486.1444091796875,0.0,0.0,0.0,0.0
1597998,100.0,0.0,0.0,4509.743589743591,4120.512820512821,4327.179487179487,4812.307692307693,3759.48717948718,4230.769230769231,4255.8974358974365,4015.8974358974365,4391.794871794872,4070.2564102564106,4268.205128205129,4315.8974358974365,4394.358974358975,4383.076923076924,1684.0,1687.0,1599.732,1486.1444091796875,0.0,0.0,0.0,0.0
1598019,101.0,0.0,310.0,4505.128205128206,4117.948717948719,4324.615384615385,4812.307692307693,3759.48717948718,4225.641025641026,4256.410256410257,4033.333333333334,4392.820512820514,4071.2820512820517,4266.666666666667,4315.8974358974365,4400.000000000001,4381.538461538462,1683.0,1687.0,1599.74,1486.2694091796875,0.0,0.0,0.0,0.0
1598019,102.0,0.0,494.0,4494.358974358975,4109.74358974359,4314.871794871796,4814.358974358975,3756.410256410257,4225.641025641026,4251.282051282052,4036.410256410257,4384.615384615385,4060.5128205128212,4269.2307692307695,4307.6923076923085,4393.333333333334,4372.820512820514,1683.0,1685.0,1599.747,1486.2694091796875,0.0,0.0,0.0,0.0
1598019,103.0,0.0,487.0,4495.8974358974365,4107.179487179487,4314.871794871796,4813.333333333334,3756.9230769230776,4231.794871794872,4250.769230769231,4033.8461538461543,4382.051282051282,4055.8974358974365,4270.769230769231,4308.205128205129,4382.051282051282,4371.282051282052,1682.0,1686.0,1599.756,1486.2694091796875,0.0,0.0,0.0,0.0
1598019,104.0,0.0,0.0,4504.615384615385,4111.794871794872,4321.025641025642,4808.717948717949,3760.512820512821,4229.74358974359,4254.358974358975,4032.307692307693,4386.666666666667,4062.0512820512827,4265.128205128206,4312.307692307693,4385.128205128206,4380.000000000001,1682.0,1685.0,1599.763,1486.2694091796875,0.0,0.0,0.0,0.0
1598111,105.0,0.0,310.0,4510.769230769231,4117.435897435898,4322.051282051282,4811.794871794872,3760.0000000000005,4219.48717948718,4254.358974358975,4026.666666666667,4387.6923076923085,4067.1794871794878,4266.153846153847,4313.846153846154,4395.384615384616,4383.076923076924,1681.0,1686.0,1599.771,1486.30078125,0.0,0.0,0.0,0.0
1598112,106.0,0.0,494.0,4517.948717948719,4126.153846153847,4327.6923076923085,4811.794871794872,3757.9487179487182,4215.384615384616,4255.8974358974365,4026.1538461538466,4391.794871794872,4077.9487179487187,4270.769230769231,4316.410256410257,4407.6923076923085,4384.102564102564,1682.0,1685.0,1599.779,1486.30078125,0.0,0.0,0.0,0.0
1598112,107.0,0.0,487.0,4521.025641025642,4130.256410256411,4336.923076923077,4814.358974358975,3762.0512820512827,4217.435897435898,4259.48717948718,4038.9743589743593,4396.410256410257,4086.666666666667,4272.307692307693,4319.48717948718,4410.769230769231,4388.205128205129,1680.0,1685.0,1599.788,1486.30078125,0.0,0.0,0.0,0.0
1598112,108.0,0.0,0.0,4521.538461538462,4127.6923076923085,4338.461538461539,4814.358974358975,3765.6410256410263,4222.564102564103,4257.948717948719,4054.8717948717954,4388.205128205129,4078.9743589743593,4267.6923076923085,4316.923076923077,4402.564102564103,4390.256410256411,1681.0,1684.0,1599.794,1486.30078125,0.0,0.0,0.0,0.0
1598112,109.0,0.0,310.0,4524.102564102564,4128.717948717949,4337.435897435898,4810.256410256411,3764.615384615385,4227.179487179487,4256.410256410257,4063.076923076924,4387.6923076923085,4074.8717948717954,4265.128205128206,4313.846153846154,4405.128205128206,4391.794871794872,1679.0,1684.0,1599.802,1486.30078125,0.0,0.0,0.0,0.0
1598113,110.0,0.0,494.0,4524.615384615385,4132.307692307693,4338.974358974359,4817.435897435898,3765.1282051282055,4228.205128205129,4260.000000000001,4068.205128205129,4406.153846153847,4089.7435897435903,4267.179487179487,4317.435897435898,4416.410256410257,4395.8974358974365,1680.0,1684.0,1599.81,1486.30078125,0.0,0.0,0.0,0.0
1598113,111.0,0.0,487.0,4524.102564102564,4134.358974358975,4340.000000000001,4816.410256410257,3768.717948717949,4230.256410256411,4262.051282051282,4067.1794871794878,4416.410256410257,4101.025641025642,4266.666666666667,4317.948717948719,4417.435897435898,4397.435897435898,1680.0,1684.0,1599.818,1486.30078125,0.0,0.0,0.0,0.0
1598113,112.0,0.0,0.0,4525.128205128206,4132.820512820514,4338.461538461539,4812.820512820514,3770.7692307692314,4233.846153846154,4261.538461538462,4064.615384615385,4405.128205128206,4092.820512820513,4267.179487179487,4316.923076923077,4411.282051282052,4394.871794871796,1680.0,1685.0,1599.826,1486.30078125,0.0,0.0,0.0,0.0
1598113,113.0,0.0,310.0,4527.179487179488,4129.74358974359,4340.512820512821,4812.307692307693,3770.2564102564106,4233.333333333334,4261.538461538462,4069.23076923077,4400.512820512821,4084.615384615385,4267.6923076923085,4320.512820512821,4412.307692307693,4396.410256410257,1681.0,1683.0,1599.833,1486.30078125,0.0,0.0,0.0,0.0
1598114,114.0,0.0,494.0,4528.717948717949,4134.358974358975,4345.128205128206,4808.717948717949,3769.2307692307695,4231.794871794872,4264.102564102564,4074.358974358975,4403.076923076924,4088.205128205129,4267.6923076923085,4322.051282051282,4417.435897435898,4403.589743589744,1680.0,1685.0,1599.841,1486.30078125,0.0,0.0,0.0,0.0
1598114,115.0,0.0,487.0,4529.2307692307695,4138.974358974359,4344.615384615385,4813.846153846154,3770.7692307692314,4230.256410256411,4266.666666666667,4075.3846153846157,4398.974358974359,4094.358974358975,4271.794871794872,4321.538461538462,4420.000000000001,4406.153846153847,1681.0,1684.0,1599.849,1486.30078125,0.0,0.0,0.0,0.0
1598114,116.0,0.0,0.0,4531.794871794872,4136.923076923077,4345.641025641026,4812.820512820514,3774.358974358975,4231.794871794872,4270.769230769231,4072.820512820513,4402.051282051282,4095.8974358974365,4270.256410256411,4321.538461538462,4423.076923076924,4404.615384615385,1681.0,1683.0,1599.857,1486.30078125,0.0,0.0,0.0,0.0
1598240,117.0,0.0,310.0,4531.794871794872,4135.8974358974365,4347.6923076923085,4810.256410256411,3775.3846153846157,4235.8974358974365,4272.820512820514,4062.0512820512827,4412.307692307693,4095.3846153846157,4267.179487179487,4320.512820512821,4421.538461538462,4402.564102564103,1681.0,1684.0,1599.865,1486.39453125,0.0,0.0,0.0,0.0
1598240,118.0,0.0,494.0,4526.666666666667,4134.871794871796,4343.589743589744,4813.333333333334,3774.358974358975,4237.435897435898,4272.307692307693,4051.7948717948725,4417.435897435898,4097.948717948719,4267.179487179487,4320.000000000001,4413.846153846154,4402.564102564103,1681.0,1683.0,1599.873,1486.39453125,0.0,0.0,0.0,0.0
1598240,119.0,0.0,487.0,4521.538461538462,4132.820512820514,4340.000000000001,4811.794871794872,3771.794871794872,4233.846153846154,4271.794871794872,4043.076923076924,4416.410256410257,4100.512820512821,4266.666666666667,4317.435897435898,4412.307692307693,4403.589743589744,1681.0,1684.0,1599.88,1486.39453125,0.0,0.0,0.0,0.0
1598240,120.0,0.0,0.0,4519.48717948718,4131.282051282052,4340.000000000001,4817.948717948719,3768.717948717949,4226.153846153847,4267.6923076923085,4038.461538461539,4409.2307692307695,4095.3846153846157,4269.2307692307695,4314.358974358975,4413.333333333334,4401.025641025642,1681.0,1684.0,1599.889,1486.39453125,0.0,0.0,0.0,0.0
1598241,121.0,0.0,310.0,4522.051282051282,4133.333333333334,4341.538461538462,4816.923076923077,3769.7435897435903,4225.641025641026,4267.179487179487,4049.7435897435903,4408.205128205129,4095.8974358974365,4268.717948717949,4315.384615384616,4414.358974358975,4400.000000000001,1681.0,1685.0,1599.896,1486.39453125,0.0,0.0,0.0,0.0
1598241,122.0,0.0,494.0,4524.615384615385,4131.794871794872,4342.564102564103,4809.2307692307695,3771.794871794872,4231.794871794872,4271.282051282052,4054.358974358975,4408.205128205129,4101.538461538462,4264.615384615385,4318.461538461539,4412.307692307693,4400.000000000001,1680.0,1684.0,1599.904,1486.39453125,0.0,0.0,0.0,0.0
1598241,123.0,0.0,487.0,4520.000000000001,4126.153846153847,4337.948717948719,4813.333333333334,3772.307692307693,4232.820512820514,4268.717948717949,4035.8974358974365,4396.410256410257,4093.8461538461543,4267.179487179487,4313.846153846154,4405.128205128206,4396.923076923077,1681.0,1684.0,1599.912,1486.39453125,0.0,0.0,0.0,0.0
1598241,124.0,0.0,0.0,4514.871794871796,4128.717948717949,4333.846153846154,4812.820512820514,3773.8461538461543,4235.8974358974365,4268.205128205129,4034.8717948717954,4393.846153846154,4089.7435897435903,4270.256410256411,4309.743589743591,4405.641025641026,4394.358974358975,1680.0,1685.0,1599.92,1486.39453125,0.0,0.0,0.0,0.0
1598241,125.0,0.0,310.0,4514.358974358975,4131.282051282052,4336.923076923077,4816.410256410257,3779.48717948718,4243.076923076924,4273.333333333334,4049.7435897435903,4406.153846153847,4100.000000000001,4270.769230769231,4315.8974358974365,4415.384615384616,4394.871794871796,1681.0,1685.0,1599.928,1486.39453125,0.0,0.0,0.0,0.0
1598241,126.0,0.0,494.0,4517.435897435898,4130.256410256411,4341.025641025642,4816.410256410257,3781.0256410256416,4246.153846153847,4275.8974358974365,4046.1538461538466,4409.2307692307695,4101.025641025642,4271.282051282052,4318.461538461539,4417.435897435898,4395.8974358974365,1679.0,1686.0,1599.935,1486.39453125,0.0,0.0,0.0,0.0
1598241,127.0,0.0,487.0,4521.025641025642,4131.282051282052,4338.974358974359,4811.794871794872,3777.435897435898,4244.615384615385,4274.358974358975,4038.461538461539,4405.641025641026,4095.3846153846157,4269.2307692307695,4312.820512820514,4411.794871794872,4397.948717948719,1680.0,1686.0,1599.943,1486.39453125,0.0,0.0,0.0,0.0
1598241,128.0,0.0,0.0,4517.948717948719,4127.6923076923085,4334.358974358975,4815.8974358974365,3776.410256410257,4241.025641025642,4270.256410256411,4046.666666666667,4406.666666666667,4097.948717948719,4266.666666666667,4313.333333333334,4407.6923076923085,4397.948717948719,1679.0,1686.0,1599.951,1486.39453125,0.0,0.0,0.0,0.0
1598242,0.0,0.0,513.0,4514.358974358975,4121.025641025642,4334.871794871796,4811.794871794872,3776.410256410257,4241.025641025642,4269.74358974359,4053.8461538461543,4413.333333333334,4100.512820512821,4265.128205128206,4315.8974358974365,4408.205128205129,4395.8974358974365,1680.0,1685.0,1599.959,1486.39453125,0.0,0.0,0.0,0.0
1598242,1.0,0.0,0.0,4515.384615384616,4123.076923076924,4337.435897435898,4811.282051282052,3772.820512820513,4237.435897435898,4269.2307692307695,4052.307692307693,4415.384615384616,4096.410256410257,4266.666666666667,4314.871794871796,4405.641025641026,4393.846153846154,1679.0,1684.0,1599.966,1486.39453125,0.0,0.0,0.0,0.0
1598242,2.0,0.0,508.0,4515.384615384616,4124.615384615385,4336.923076923077,4814.358974358975,3766.666666666667,4229.74358974359,4263.076923076924,4048.717948717949,4403.589743589744,4089.7435897435903,4266.666666666667,4312.820512820514,4400.512820512821,4390.769230769231,1679.0,1685.0,1599.974,1486.39453125,0.0,0.0,0.0,0.0
1598242,3.0,0.0,532.0,4509.743589743591,4116.410256410257,4331.282051282052,4808.205128205129,3763.076923076924,4229.2307692307695,4258.974358974359,4043.076923076924,4389.743589743591,4081.538461538462,4267.6923076923085,4310.256410256411,4399.48717948718,4385.641025641026,1680.0,1683.0,1599.982,1486.39453125,0.0,0.0,0.0,0.0
1598495,4.0,0.0,500.0,4505.641025641026,4112.820512820514,4326.153846153847,4810.769230769231,3769.7435897435903,4238.974358974359,4260.512820512821,4029.23076923077,4389.2307692307695,4078.9743589743593,4270.769230769231,4310.256410256411,4399.48717948718,4387.179487179487,1679.0,1685.0,1599.99,1486.5196533203125,0.0,0.0,0.0,0.0
1598495,5.0,0.0,550.0,4509.2307692307695,4117.435897435898,4329.743589743591,4811.794871794872,3776.9230769230776,4245.128205128206,4262.051282051282,4014.358974358975,4395.384615384616,4085.1282051282055,4268.717948717949,4313.333333333334,4400.000000000001,4391.794871794872,1681.0,1684.0,1599.998,1486.5196533203125,0.0,0.0,0.0,0.0
1598496,6.0,0.0,546.0,4512.307692307693,4117.435897435898,4329.743589743591,4809.743589743591,3771.794871794872,4236.923076923077,4260.000000000001,4014.8717948717954,4392.307692307693,4085.6410256410263,4267.6923076923085,4315.384615384616,4401.538461538462,4391.794871794872,1680.0,1683.0,1600.006,1486.5196533203125,0.0,0.0,0.0,0.0
1598496,7.0,0.0,307.0,4511.282051282052,4113.333333333334,4323.076923076924,4810.256410256411,3763.589743589744,4230.769230769231,4256.410256410257,4032.820512820513,4384.102564102564,4083.589743589744,4270.256410256411,4313.333333333334,4401.025641025642,4391.794871794872,1681.0,1684.0,1600.013,1486.5196533203125,0.0,0.0,0.0,0.0
1598496,8.0,0.0,457.0,4507.179487179488,4114.871794871796,4322.564102564103,4810.769230769231,3765.6410256410263,4235.384615384616,4257.948717948719,4045.1282051282055,4390.769230769231,4090.2564102564106,4268.717948717949,4310.256410256411,4400.000000000001,4392.307692307693,1681.0,1684.0,1600.022,1486.5196533203125,0.0,0.0,0.0,0.0
1598496,9.0,0.0,476.0,4508.717948717949,4117.948717948719,4329.743589743591,4817.435897435898,3769.7435897435903,4232.307692307693,4262.051282051282,4033.333333333334,4409.2307692307695,4100.000000000001,4268.717948717949,4315.384615384616,4404.102564102564,4398.974358974359,1682.0,1683.0,1600.029,1486.5196533203125,0.0,0.0,0.0,0.0
1598497,10.0,0.0,495.0,4515.384615384616,4118.974358974359,4336.923076923077,4813.846153846154,3768.717948717949,4221.025641025642,4263.076923076924,4021.538461538462,4422.051282051282,4108.205128205129,4267.6923076923085,4321.025641025642,4414.358974358975,4411.794871794872,1682.0,1684.0,1600.038,1486.5196533203125,0.0,0.0,0.0,0.0
1598497,11.0,0.0,487.0,4517.435897435898,4117.948717948719,4338.974358974359,4810.769230769231,3767.1794871794878,4221.538461538462,4262.051282051282,4026.666666666667,4420.512820512821,4110.769230769231,4268.717948717949,4321.538461538462,4419.48717948718,4411.282051282052,1683.0,1685.0,1600.045,1486.5196533203125,0.0,0.0,0.0,0.0
1598497,12.0,0.0,0.0,4519.48717948718,4116.923076923077,4338.461538461539,4815.8974358974365,3770.7692307692314,4232.307692307693,4266.153846153847,4036.9230769230776,4415.8974358974365,4104.615384615385,4269.74358974359,4321.538461538462,4414.871794871796,4404.615384615385,1682.0,1686.0,1600.052,1486.5196533203125,0.0,0.0,0.0,0.0
1598497,13.0,0.0,310.0,4525.128205128206,4123.076923076924,4342.564102564103,4812.820512820514,3776.9230769230776,4235.384615384616,4271.282051282052,4042.564102564103,4418.974358974359,4106.153846153847,4266.153846153847,4324.102564102564,4418.974358974359,4412.307692307693,1681.0,1688.0,1600.06,1486.5196533203125,0.0,0.0,0.0,0.0
1598498,14.0,0.0,495.0,4522.051282051282,4128.717948717949,4345.641025641026,4815.8974358974365,3775.8974358974365,4228.717948717949,4266.153846153847,4040.5128205128212,4414.871794871796,4113.333333333334,4266.666666666667,4323.589743589744,4427.179487179487,4418.974358974359,1681.0,1686.0,1600.068,1486.5196533203125,0.0,0.0,0.0,0.0
1598498,15.0,0.0,487.0,4515.8974358974365,4125.128205128206,4340.000000000001,4817.435897435898,3769.7435897435903,4227.179487179487,4260.512820512821,4029.7435897435903,4401.538461538462,4107.179487179487,4267.6923076923085,4316.923076923077,4421.025641025642,4410.256410256411,1680.0,1686.0,1600.076,1486.5196533203125,0.0,0.0,0.0,0.0
1598498,16.0,0.0,0.0,4520.000000000001,4123.589743589744,4338.461538461539,4812.307692307693,3771.2820512820517,4228.205128205129,4258.974358974359,4024.1025641025644,4396.410256410257,4096.410256410257,4265.641025641026,4314.871794871796,4414.358974358975,4405.128205128206,1681.0,1682.0,1600.084,1486.5196533203125,0.0,0.0,0.0,0.0
1598498,17.0,0.0,0.0,4523.589743589744,4129.2307692307695,4342.564102564103,4814.871794871796,3777.435897435898,4228.717948717949,4256.923076923077,4031.7948717948725,4398.461538461539,4094.8717948717954,4267.6923076923085,4318.461538461539,4416.923076923077,4404.102564102564,1680.0,1680.0,1600.092,1486.5196533203125,0.0,0.0,0.0,0.0
1598498,18.0,0.0,0.0,4517.948717948719,4128.205128205129,4341.538461538462,4813.846153846154,3778.461538461539,4234.871794871796,4259.48717948718,4033.8461538461543,4396.923076923077,4094.358974358975,4267.6923076923085,4314.358974358975,4414.871794871796,4397.435897435898,1680.0,1679.0,1600.127,1486.5196533203125,0.0,0.0,0.0,0.0
1598498,19.0,0.0,0.0,4515.384615384616,4126.153846153847,4339.48717948718,4813.333333333334,3775.3846153846157,4231.794871794872,4261.025641025642,4021.538461538462,4389.2307692307695,4091.2820512820517,4267.6923076923085,4313.333333333334,4413.333333333334,4397.948717948719,1680.0,1678.0,1600.13,1486.5196533203125,0.0,0.0,0.0,0.0
1598499,20.0,0.0,0.0,4527.179487179488,4139.48717948718,4347.179487179487,4813.333333333334,3777.435897435898,4222.051282051282,4256.923076923077,4014.358974358975,4386.153846153847,4096.923076923077,4271.794871794872,4321.538461538462,4426.153846153847,4411.282051282052,1681.0,1678.0,1600.13,1486.5196533203125,0.0,0.0,0.0,0.0
1598499,21.0,0.0,0.0,4534.871794871796,4148.717948717949,4350.256410256411,4811.282051282052,3781.538461538462,4226.153846153847,4256.923076923077,4023.076923076924,4390.256410256411,4101.538461538462,4271.794871794872,4322.051282051282,4431.794871794872,4412.820512820514,1681.0,1679.0,1600.13,1486.5196533203125,0.0,0.0,0.0,0.0
1598499,22.0,0.0,0.0,4527.6923076923085,4139.48717948718,4345.128205128206,4814.871794871796,3781.0256410256416,4233.333333333334,4257.948717948719,4033.333333333334,4392.820512820514,4092.307692307693,4266.666666666667,4313.846153846154,4421.538461538462,4399.48717948718,1681.0,1680.0,1600.131,1486.5196533203125,0.0,0.0,0.0,0.0
1598499,23.0,0.0,0.0,4520.512820512821,4136.923076923077,4345.641025641026,4812.820512820514,3781.538461538462,4232.307692307693,4259.48717948718,4035.8974358974365,4396.410256410257,4089.23076923077,4264.615384615385,4314.871794871796,4420.000000000001,4398.974358974359,1681.0,1679.0,1600.139,1486.5196533203125,0.0,0.0,0.0,0.0
1598499,24.0,0.0,0.0,4524.615384615385,4142.051282051282,4347.179487179487,4815.384615384616,3785.6410256410263,4231.282051282052,4263.076923076924,4035.8974358974365,4405.128205128206,4097.435897435898,4268.205128205129,4324.102564102564,4424.102564102564,4409.743589743591,1681.0,1680.0,1600.146,1486.5196533203125,0.0,0.0,0.0,0.0
1598499,25.0,0.0,0.0,4530.769230769231,4142.564102564103,4347.6923076923085,4816.923076923077,3783.076923076924,4231.282051282052,4265.641025641026,4031.7948717948725,4407.6923076923085,4101.538461538462,4268.717948717949,4323.589743589744,4424.615384615385,4412.820512820514,1682.0,1679.0,1600.155,1486.5196533203125,0.0,0.0,0.0,0.0
1598499,26.0,0.0,0.0,4531.282051282052,4142.051282051282,4347.179487179487,4809.2307692307695,3777.9487179487182,4229.74358974359,4265.641025641026,4027.1794871794878,4393.333333333334,4094.8717948717954,4265.128205128206,4316.410256410257,4421.025641025642,4406.666666666667,1680.0,1681.0,1600.162,1486.5196533203125,0.0,0.0,0.0,0.0
1598499,27.0,0.0,0.0,4524.615384615385,4138.461538461539,4341.025641025642,4813.333333333334,3777.9487179487182,4229.2307692307695,4261.538461538462,4027.1794871794878,4376.410256410257,4081.0256410256416,4268.205128205129,4315.384615384616,4412.820512820514,4397.948717948719,1681.0,1682.0,1600.171,1486.5196533203125,0.0,0.0,0.0,0.0
1598499,28.0,0.0,0.0,4517.948717948719,4133.333333333334,4333.333333333334,4815.8974358974365,3778.461538461539,4235.384615384616,4262.051282051282,4031.2820512820517,4384.615384615385,4077.9487179487187,4269.74358974359,4313.846153846154,4408.205128205129,4391.282051282052,1680.0,1682.0,1600.178,1486.5196533203125,0.0,0.0,0.0,0.0
1598499,29.0,0.0,0.0,4516.410256410257,4128.205128205129,4329.2307692307695,4814.358974358975,3776.9230769230776,4240.512820512821,4266.153846153847,4036.410256410257,4404.615384615385,4086.1538461538466,4267.6923076923085,4310.256410256411,4408.717948717949,4388.205128205129,1680.0,1683.0,1600.185,1486.5196533203125,0.0,0.0,0.0,0.0
1598500,30.0,0.0,0.0,4520.000000000001,4129.2307692307695,4329.2307692307695,4812.307692307693,3775.8974358974365,4233.333333333334,4264.615384615385,4038.461538461539,4406.153846153847,4091.2820512820517,4265.641025641026,4313.333333333334,4413.846153846154,4391.282051282052,1680.0,1682.0,1600.193,1486.5196533203125,0.0,0.0,0.0,0.0
1598500,31.0,0.0,0.0,4520.512820512821,4133.333333333334,4335.8974358974365,4806.153846153847,3776.410256410257,4225.641025641026,4258.461538461539,4031.2820512820517,4393.846153846154,4090.7692307692314,4266.153846153847,4315.8974358974365,4421.025641025642,4398.461538461539,1680.0,1682.0,1600.201,1486.5196533203125,0.0,0.0,0.0,0.0
1598500,32.0,0.0,0.0,4514.871794871796,4132.307692307693,4339.48717948718,4814.871794871796,3773.8461538461543,4229.2307692307695,4253.846153846154,4022.0512820512827,4388.717948717949,4088.717948717949,4272.820512820514,4313.333333333334,4420.000000000001,4398.974358974359,1680.0,1681.0,1600.209,1486.5196533203125,0.0,0.0,0.0,0.0
1598500,33.0,0.0,0.0,4511.794871794872,4130.256410256411,4332.820512820514,4815.8974358974365,3768.205128205129,4229.2307692307695,4251.794871794872,4024.1025641025644,4387.179487179487,4084.1025641025644,4274.871794871796,4311.794871794872,4412.307692307693,4391.794871794872,1680.0,1681.0,1600.217,1486.5196533203125,0.0,0.0,0.0,0.0
1598500,34.0,0.0,0.0,4513.846153846154,4133.333333333334,4330.256410256411,4808.717948717949,3765.6410256410263,4220.512820512821,4250.769230769231,4030.7692307692314,4390.769230769231,4081.538461538462,4267.6923076923085,4313.333333333334,4410.769230769231,4388.717948717949,1681.0,1680.0,1600.225,1486.5196533203125,0.0,0.0,0.0,0.0
1598500,35.0,0.0,0.0,4511.282051282052,4132.307692307693,4333.333333333334,4810.769230769231,3769.2307692307695,4216.410256410257,4250.256410256411,4032.307692307693,4396.410256410257,4081.538461538462,4265.128205128206,4312.307692307693,4410.769230769231,4386.153846153847,1681.0,1681.0,1600.232,1486.5196533203125,0.0,0.0,0.0,0.0
1598521,36.0,0.0,0.0,4506.153846153847,4128.205128205129,4333.333333333334,4809.743589743591,3771.794871794872,4220.000000000001,4249.74358974359,4033.8461538461543,4389.743589743591,4079.48717948718,4268.205128205129,4312.820512820514,4409.2307692307695,4384.102564102564,1682.0,1681.0,1600.241,1486.7698974609375,0.0,0.0,0.0,0.0
1598521,37.0,0.0,0.0,4508.205128205129,4129.74358974359,4333.846153846154,4813.846153846154,3773.333333333334,4227.6923076923085,4253.333333333334,4035.3846153846157,4384.102564102564,4081.538461538462,4269.74358974359,4317.948717948719,4410.256410256411,4391.282051282052,1682.0,1683.0,1600.248,1486.7698974609375,0.0,0.0,0.0,0.0
1598521,38.0,0.0,0.0,4510.256410256411,4130.769230769231,4334.358974358975,4813.333333333334,3775.3846153846157,4235.384615384616,4258.974358974359,4032.820512820513,4390.769230769231,4084.1025641025644,4267.6923076923085,4316.410256410257,4406.153846153847,4392.820512820514,1684.0,1682.0,1600.257,1486.7698974609375,0.0,0.0,0.0,0.0
1598521,39.0,0.0,0.0,4508.717948717949,4129.74358974359,4330.769230769231,4810.256410256411,3776.410256410257,4234.871794871796,4257.435897435898,4029.7435897435903,4395.384615384616,4080.5128205128212,4268.717948717949,4313.333333333334,4403.076923076924,4386.666666666667,1683.0,1682.0,1600.264,1486.7698974609375,0.0,0.0,0.0,0.0
1598995,40.0,0.0,0.0,4512.307692307693,4131.794871794872,4330.256410256411,4813.846153846154,3778.461538461539,4228.205128205129,4256.923076923077,4027.1794871794878,4393.846153846154,4079.48717948718,4269.74358974359,4318.974358974359,4409.2307692307695,4389.2307692307695,1684.0,1684.0,1600.272,1486.8011474609375,0.0,0.0,0.0,0.0
1598995,41.0,0.0,0.0,4514.871794871796,4131.282051282052,4334.358974358975,4810.256410256411,3777.435897435898,4233.846153846154,4262.051282051282,4028.717948717949,4395.384615384616,4085.6410256410263,4265.128205128206,4318.974358974359,4414.358974358975,4396.410256410257,1684.0,1685.0,1600.279,1486.8011474609375,0.0,0.0,0.0,0.0
1598996,42.0,0.0,0.0,4509.743589743591,4127.6923076923085,4334.871794871796,4811.794871794872,3773.333333333334,4244.102564102564,4261.025641025642,4034.8717948717954,4403.076923076924,4086.666666666667,4267.6923076923085,4313.846153846154,4410.256410256411,4393.846153846154,1684.0,1687.0,1600.288,1486.8011474609375,0.0,0.0,0.0,0.0
1598996,43.0,0.0,0.0,4503.589743589744,4127.6923076923085,4330.256410256411,4814.358974358975,3769.7435897435903,4239.48717948718,4253.846153846154,4036.9230769230776,4405.641025641026,4081.538461538462,4271.794871794872,4313.846153846154,4407.179487179487,4385.641025641026,1684.0,1688.0,1600.296,1486.8011474609375,0.0,0.0,0.0,0.0
1598997,44.0,0.0,0.0,4502.564102564103,4129.74358974359,4325.641025641026,4810.256410256411,3766.666666666667,4228.717948717949,4250.769230769231,4037.9487179487182,4401.538461538462,4080.5128205128212,4269.74358974359,4314.871794871796,4409.743589743591,4381.025641025642,1683.0,1688.0,1600.303,1486.8011474609375,0.0,0.0,0.0,0.0
1598997,45.0,0.0,0.0,4508.717948717949,4133.333333333334,4325.128205128206,4812.820512820514,3769.7435897435903,4228.717948717949,4252.820512820514,4043.589743589744,4396.410256410257,4084.1025641025644,4268.717948717949,4315.384615384616,4412.820512820514,4385.128205128206,1683.0,1687.0,1600.31,1486.8011474609375,0.0,0.0,0.0,0.0
1598997,46.0,0.0,0.0,4513.846153846154,4141.538461538462,4332.307692307693,4812.307692307693,3777.435897435898,4236.923076923077,4258.974358974359,4047.692307692308,4397.435897435898,4089.23076923077,4267.6923076923085,4315.8974358974365,4418.461538461539,4392.820512820514,1681.0,1687.0,1600.318,1486.8011474609375,0.0,0.0,0.0,0.0
1598997,47.0,0.0,0.0,4512.307692307693,4140.000000000001,4337.435897435898,4815.384615384616,3779.48717948718,4238.461538461539,4262.051282051282,4044.1025641025644,4398.461538461539,4091.7948717948725,4268.205128205129,4317.435897435898,4419.48717948718,4392.307692307693,1682.0,1686.0,1600.326,1486.8011474609375,0.0,0.0,0.0,0.0
1598998,48.0,0.0,0.0,4514.871794871796,4138.461538461539,4337.435897435898,4816.923076923077,3777.9487179487182,4240.512820512821,4260.000000000001,4044.615384615385,4397.948717948719,4093.333333333334,4268.717948717949,4320.000000000001,4418.461538461539,4393.333333333334,1681.0,1686.0,1600.334,1486.8011474609375,0.0,0.0,0.0,0.0
1598998,49.0,0.0,0.0,4517.435897435898,4145.128205128206,4340.512820512821,4810.769230769231,3780.512820512821,4246.666666666667,4261.538461538462,4048.717948717949,4400.512820512821,4092.820512820513,4266.666666666667,4320.000000000001,4422.051282051282,4398.461538461539,1681.0,1685.0,1600.342,1486.8011474609375,0.0,0.0,0.0,0.0
1598998,50.0,0.0,0.0,4513.333333333334,4143.589743589744,4338.974358974359,4815.384615384616,3783.589743589744,4244.102564102564,4262.051282051282,4050.7692307692314,4404.102564102564,4094.8717948717954,4269.2307692307695,4318.461538461539,4423.589743589744,4396.410256410257,1680.0,1686.0,1600.35,1486.8011474609375,0.0,0.0,0.0,0.0
1598998,51.0,0.0,0.0,4509.743589743591,4138.974358974359,4334.871794871796,4815.384615384616,3781.0256410256416,4241.538461538462,4260.512820512821,4052.820512820513,4408.205128205129,4098.461538461539,4269.2307692307695,4318.974358974359,4423.076923076924,4395.384615384616,1680.0,1685.0,1600.357,1486.8011474609375,0.0,0.0,0.0,0.0
1598998,52.0,0.0,0.0,4510.256410256411,4137.948717948719,4333.846153846154,4811.282051282052,3777.9487179487182,4239.48717948718,4258.974358974359,4044.615384615385,4397.435897435898,4090.2564102564106,4267.179487179487,4319.48717948718,4421.025641025642,4394.871794871796,1680.0,1687.0,1600.365,1486.8011474609375,0.0,0.0,0.0,0.0
1598998,53.0,0.0,0.0,4511.282051282052,4137.435897435898,4334.871794871796,4812.307692307693,3776.410256410257,4229.2307692307695,4256.923076923077,4029.23076923077,4388.717948717949,4081.0256410256416,4268.205128205129,4318.974358974359,4417.948717948719,4392.820512820514,1679.0,1686.0,1600.373,1486.8011474609375,0.0,0.0,0.0,0.0
1598999,54.0,0.0,0.0,4515.8974358974365,4142.051282051282,4338.974358974359,4809.2307692307695,3777.9487179487182,4224.615384615385,4259.48717948718,4025.6410256410263,4405.641025641026,4092.307692307693,4269.74358974359,4317.435897435898,4423.076923076924,4394.871794871796,1679.0,1688.0,1600.381,1486.8011474609375,0.0,0.0,0.0,0.0
1598999,55.0,0.0,0.0,4512.820512820514,4144.615384615385,4340.512820512821,4814.871794871796,3779.48717948718,4232.307692307693,4264.615384615385,4033.333333333334,4421.025641025642,4103.076923076924,4271.282051282052,4314.871794871796,4422.564102564103,4394.358974358975,1680.0,1687.0,1600.39,1486.8011474609375,0.0,0.0,0.0,0.0
1598999,56.0,0.0,0.0,4510.769230769231,4146.666666666667,4340.000000000001,4817.435897435898,3781.0256410256416,4237.435897435898,4267.6923076923085,4040.0000000000005,4423.589743589744,4103.589743589744,4268.717948717949,4313.846153846154,4416.923076923077,4392.307692307693,1679.0,1687.0,1600.396,1486.8011474609375,0.0,0.0,0.0,0.0
1598999,57.0,0.0,0.0,4523.076923076924,4156.410256410257,4344.615384615385,4813.846153846154,3785.1282051282055,4237.435897435898,4268.205128205129,4038.9743589743593,4415.8974358974365,4106.153846153847,4267.6923076923085,4318.461538461539,4424.102564102564,4399.48717948718,1680.0,1686.0,1600.404,1486.8011474609375,0.0,0.0,0.0,0.0
1598999,58.0,0.0,0.0,4528.205128205129,4158.461538461539,4346.153846153847,4813.846153846154,3785.6410256410263,4238.974358974359,4268.717948717949,4033.333333333334,4404.615384615385,4105.128205128206,4270.769230769231,4321.025641025642,4428.717948717949,4404.615384615385,1679.0,1686.0,1600.412,1486.8011474609375,0.0,0.0,0.0,0.0
1598999,59.0,0.0,0.0,4521.025641025642,4152.307692307693,4343.589743589744,4811.282051282052,3780.0000000000005,4239.48717948718,4271.794871794872,4033.8461538461543,4409.2307692307695,4102.564102564103,4267.6923076923085,4316.923076923077,4425.641025641026,4405.641025641026,1680.0,1686.0,1600.421,1486.8011474609375,0.0,0.0,0.0,0.0
1598999,60.0,0.0,0.0,4515.384615384616,4153.333333333334,4343.076923076924,4816.410256410257,3780.0000000000005,4234.358974358975,4269.2307692307695,4033.333333333334,4412.307692307693,4103.076923076924,4265.641025641026,4317.435897435898,4424.615384615385,4405.641025641026,1680.0,1686.0,1600.428,1486.8011474609375,0.0,0.0,0.0,0.0
1599000,61.0,0.0,0.0,4512.307692307693,4157.435897435898,4342.051282051282,4817.948717948719,3785.1282051282055,4234.871794871796,4266.666666666667,4024.1025641025644,4399.48717948718,4100.000000000001,4267.179487179487,4319.48717948718,4422.051282051282,4398.461538461539,1680.0,1687.0,1600.436,1486.8011474609375,0.0,0.0,0.0,0.0
1599000,62.0,0.0,0.0,4508.717948717949,4156.410256410257,4340.000000000001,4811.282051282052,3786.1538461538466,4244.102564102564,4272.307692307693,4022.0512820512827,4403.076923076924,4100.512820512821,4268.205128205129,4316.923076923077,4419.48717948718,4395.384615384616,1681.0,1687.0,1600.444,1486.8011474609375,0.0,0.0,0.0,0.0
1599000,63.0,0.0,0.0,4512.820512820514,4153.846153846154,4337.948717948719,4812.820512820514,3785.6410256410263,4245.641025641026,4273.846153846154,4032.307692307693,4412.307692307693,4103.076923076924,4267.179487179487,4316.410256410257,4420.512820512821,4402.564102564103,1682.0,1686.0,1600.451,1486.8011474609375,0.0,0.0,0.0,0.0
1599000,64.0,0.0,513.0,4518.461538461539,4156.410256410257,4337.948717948719,4812.307692307693,3787.1794871794878,4242.051282051282,4270.256410256411,4030.7692307692314,4402.051282051282,4100.512820512821,4267.179487179487,4317.948717948719,4423.076923076924,4404.615384615385,1682.0,1685.0,1600.459,1486.8011474609375,0.0,0.0,0.0,0.0
1599000,65.0,0.0,0.0,4511.282051282052,4154.871794871796,4336.410256410257,4814.358974358975,3783.076923076924,4236.923076923077,4265.641025641026,4020.0000000000005,4396.923076923077,4094.8717948717954,4268.717948717949,4317.435897435898,4421.538461538462,4396.410256410257,1682.0,1686.0,1600.468,1486.8011474609375,0.0,0.0,0.0,0.0
1599000,66.0,0.0,508.0,4504.615384615385,4149.2307692307695,4333.846153846154,4814.871794871796,3777.435897435898,4236.923076923077,4261.538461538462,4021.0256410256416,4407.179487179487,4093.333333333334,4268.717948717949,4314.871794871796,4421.538461538462,4393.333333333334,1683.0,1684.0,1600.475,1486.8011474609375,0.0,0.0,0.0,0.0
1599000,67.0,0.0,532.0,4510.256410256411,4154.358974358975,4331.794871794872,4810.256410256411,3777.9487179487182,4239.48717948718,4262.564102564103,4028.717948717949,4411.282051282052,4098.461538461539,4266.666666666667,4312.820512820514,4423.589743589744,4393.333333333334,1682.0,1685.0,1600.482,1486.8011474609375,0.0,0.0,0.0,0.0
1599001,68.0,0.0,500.0,4513.333333333334,4161.538461538462,4333.333333333334,4814.358974358975,3780.512820512821,4235.8974358974365,4265.128205128206,4027.1794871794878,4402.564102564103,4098.974358974359,4268.717948717949,4314.871794871796,4427.179487179487,4390.256410256411,1684.0,1685.0,1600.49,1486.8011474609375,0.0,0.0,0.0,0.0
1599001,69.0,0.0,550.0,4507.6923076923085,4154.871794871796,4334.358974358975,4812.307692307693,3781.0256410256416,4236.410256410257,4265.128205128206,4019.48717948718,4396.923076923077,4093.8461538461543,4270.256410256411,4313.846153846154,4426.666666666667,4387.6923076923085,1682.0,1685.0,1600.498,1486.8011474609375,0.0,0.0,0.0,0.0
1599001,70.0,0.0,546.0,4504.615384615385,4147.179487179487,4328.205128205129,4811.794871794872,3778.9743589743593,4237.948717948719,4263.589743589744,4019.48717948718,4401.538461538462,4090.7692307692314,4269.74358974359,4308.717948717949,4415.384615384616,4382.564102564103,1683.0,1686.0,1600.506,1486.8011474609375,0.0,0.0,0.0,0.0
1599002,71.0,0.0,307.0,4509.2307692307695,4150.769230769231,4326.153846153847,4811.794871794872,3779.48717948718,4233.846153846154,4265.641025641026,4026.1538461538466,4403.076923076924,4087.692307692308,4269.74358974359,4307.6923076923085,4411.794871794872,4378.461538461539,1683.0,1684.0,1600.514,1486.8011474609375,0.0,0.0,0.0,0.0
1599002,72.0,0.0,457.0,4509.743589743591,4152.307692307693,4328.717948717949,4808.205128205129,3780.512820512821,4232.307692307693,4267.6923076923085,4029.7435897435903,4400.000000000001,4084.1025641025644,4268.717948717949,4311.794871794872,4416.923076923077,4380.512820512821,1681.0,1686.0,1600.523,1486.8011474609375,0.0,0.0,0.0,0.0
1599002,73.0,0.0,476.0,4502.564102564103,4145.128205128206,4329.2307692307695,4814.871794871796,3777.435897435898,4233.333333333334,4262.051282051282,4027.1794871794878,4398.461538461539,4085.1282051282055,4270.256410256411,4316.923076923077,4415.8974358974365,4385.641025641026,1682.0,1685.0,1600.529,1486.8011474609375,0.0,0.0,0.0,0.0
1599002,74.0,0.0,495.0,4498.974358974359,4141.538461538462,4329.743589743591,4813.846153846154,3775.8974358974365,4232.820512820514,4255.384615384616,4023.589743589744,4397.435897435898,4085.6410256410263,4269.74358974359,4317.435897435898,4415.8974358974365,4389.743589743591,1681.0,1685.0,1600.537,1486.8011474609375,0.0,0.0,0.0,0.0
1599002,75.0,0.0,487.0,4504.615384615385,4146.153846153847,4331.282051282052,4810.256410256411,3774.8717948717954,4232.820512820514,4255.384615384616,4028.717948717949,4401.538461538462,4087.692307692308,4268.717948717949,4317.948717948719,4424.615384615385,4393.333333333334,1682.0,1685.0,1600.545,1486.8011474609375,0.0,0.0,0.0,0.0
1599002,76.0,0.0,0.0,4511.282051282052,4151.282051282052,4333.333333333334,4813.846153846154,3774.358974358975,4231.282051282052,4260.000000000001,4040.0000000000005,4421.025641025642,4096.923076923077,4269.74358974359,4318.974358974359,4429.2307692307695,4395.384615384616,1681.0,1685.0,1600.554,1486.8011474609375,0.0,0.0,0.0,0.0
1599002,77.0,0.0,310.0,4512.307692307693,4157.435897435898,4335.8974358974365,4810.256410256411,3775.3846153846157,4226.153846153847,4263.589743589744,4041.0256410256416,4427.6923076923085,4103.076923076924,4270.256410256411,4318.974358974359,4427.179487179487,4398.974358974359,1681.0,1685.0,1600.561,1486.8011474609375,0.0,0.0,0.0,0.0
1599003,78.0,0.0,495.0,4508.717948717949,4161.538461538462,4337.435897435898,4812.307692307693,3775.8974358974365,4222.051282051282,4260.000000000001,4034.358974358975,4404.102564102564,4096.410256410257,4271.794871794872,4318.461538461539,4427.179487179487,4398.974358974359,1680.0,1686.0,1600.569,1486.8011474609375,0.0,0.0,0.0,0.0
1599003,79.0,0.0,487.0,4507.6923076923085,4160.000000000001,4335.8974358974365,4814.358974358975,3773.333333333334,4223.589743589744,4254.871794871796,4040.0000000000005,4395.384615384616,4093.8461538461543,4269.2307692307695,4315.8974358974365,4427.6923076923085,4395.384615384616,1681.0,1687.0,1600.576,1486.8011474609375,0.0,0.0,0.0,0.0
1599003,80.0,0.0,0.0,4510.769230769231,4159.48717948718,4337.435897435898,4812.307692307693,3775.3846153846157,4229.2307692307695,4257.948717948719,4049.23076923077,4415.384615384616,4103.589743589744,4266.666666666667,4317.435897435898,4431.282051282052,4396.923076923077,1679.0,1686.0,1600.584,1486.8011474609375,0.0,0.0,0.0,0.0
1599003,81.0,0.0,310.0,4511.282051282052,4157.948717948719,4336.923076923077,4813.333333333334,3780.0000000000005,4231.282051282052,4262.564102564103,4041.538461538462,4418.461538461539,4104.615384615385,4268.717948717949,4318.974358974359,4431.794871794872,4395.384615384616,1680.0,1687.0,1600.592,1486.8011474609375,0.0,0.0,0.0,0.0
1599003,82.0,0.0,495.0,4502.051282051282,4153.333333333334,4329.743589743591,4809.743589743591,3778.9743589743593,4231.282051282052,4261.538461538462,4031.7948717948725,4404.102564102564,4094.8717948717954,4269.74358974359,4311.282051282052,4426.666666666667,4382.564102564103,1680.0,1686.0,1600.6,1486.8011474609375,0.0,0.0,0.0,0.0
1599003,83.0,0.0,487.0,4493.333333333334,4149.74358974359,4324.615384615385,4814.871794871796,3780.0000000000005,4232.820512820514,4260.512820512821,4040.0000000000005,4405.128205128206,4090.7692307692314,4271.282051282052,4306.153846153847,4422.051282051282,4374.358974358975,1679.0,1686.0,1600.608,1486.8011474609375,0.0,0.0,0.0,0.0
1599003,84.0,0.0,0.0,4499.48717948718,4153.846153846154,4328.717948717949,4815.384615384616,3781.0256410256416,4228.717948717949,4258.974358974359,4046.1538461538466,4411.794871794872,4093.333333333334,4268.717948717949,4311.282051282052,4423.076923076924,4381.025641025642,1680.0,1685.0,1600.616,1486.8011474609375,0.0,0.0,0.0,0.0
1599004,85.0,0.0,310.0,4507.6923076923085,4158.974358974359,4335.384615384616,4809.2307692307695,3777.435897435898,4222.564102564103,4254.871794871796,4039.48717948718,4404.615384615385,4091.7948717948725,4265.128205128206,4315.384615384616,4425.128205128206,4391.282051282052,1679.0,1684.0,1600.624,1486.8011474609375,0.0,0.0,0.0,0.0
1599004,86.0,0.0,495.0,4511.794871794872,4157.948717948719,4338.461538461539,4813.333333333334,3778.461538461539,4219.48717948718,4255.384615384616,4041.538461538462,4410.256410256411,4095.8974358974365,4268.717948717949,4319.48717948718,4427.6923076923085,4398.974358974359,1680.0,1683.0,1600.632,1486.8011474609375,0.0,0.0,0.0,0.0
1599004,87.0,0.0,487.0,4514.358974358975,4159.48717948718,4340.512820512821,4810.769230769231,3778.9743589743593,4218.974358974359,4262.564102564103,4055.3846153846157,4431.282051282052,4109.2307692307695,4268.205128205129,4321.025641025642,4432.820512820514,4403.076923076924,1680.0,1683.0,1600.64,1486.8011474609375,0.0,0.0,0.0,0.0
1599004,88.0,0.0,0.0,4507.179487179488,4156.923076923077,4334.358974358975,4810.769230769231,3775.8974358974365,4218.974358974359,4262.564102564103,4055.3846153846157,4422.564102564103,4102.564102564103,4266.153846153847,4315.8974358974365,4428.205128205129,4396.410256410257,1680.0,1683.0,1600.648,1486.8011474609375,0.0,0.0,0.0,0.0
1599004,89.0,0.0,310.0,4499.48717948718,4150.769230769231,4324.102564102564,4814.358974358975,3776.9230769230776,4220.000000000001,4258.974358974359,4043.589743589744,4392.307692307693,4082.564102564103,4268.205128205129,4311.282051282052,4421.025641025642,4390.256410256411,1680.0,1684.0,1600.656,1486.8011474609375,0.0,0.0,0.0,0.0
1599005,90.0,0.0,495.0,4501.025641025642,4150.769230769231,4322.564102564103,4810.256410256411,3777.435897435898,4219.48717948718,4258.461538461539,4046.666666666667,4385.128205128206,4081.0256410256416,4267.6923076923085,4311.282051282052,4424.102564102564,4390.769230769231,1681.0,1685.0,1600.663,1486.8011474609375,0.0,0.0,0.0,0.0
1599005,91.0,0.0,487.0,4503.076923076924,4153.333333333334,4328.205128205129,4813.333333333334,3771.794871794872,4212.820512820514,4255.8974358974365,4064.1025641025644,4398.461538461539,4092.820512820513,4266.666666666667,4315.8974358974365,4429.743589743591,4394.358974358975,1681.0,1686.0,1600.671,1486.8011474609375,0.0,0.0,0.0,0.0
1599005,92.0,0.0,0.0,4505.641025641026,4156.410256410257,4334.358974358975,4813.333333333334,3773.333333333334,4212.307692307693,4256.410256410257,4073.333333333334,4407.6923076923085,4101.025641025642,4266.666666666667,4317.948717948719,4435.384615384616,4401.538461538462,1681.0,1687.0,1600.679,1486.8011474609375,0.0,0.0,0.0,0.0
1599005,93.0,0.0,310.0,4505.641025641026,4154.871794871796,4331.794871794872,4813.846153846154,3778.9743589743593,4222.564102564103,4259.48717948718,4064.1025641025644,4408.205128205129,4100.000000000001,4267.6923076923085,4313.846153846154,4434.358974358975,4403.589743589744,1681.0,1685.0,1600.687,1486.8011474609375,0.0,0.0,0.0,0.0
1599005,94.0,0.0,495.0,4498.461538461539,4147.179487179487,4320.512820512821,4813.846153846154,3777.435897435898,4226.153846153847,4258.461538461539,4069.23076923077,4407.6923076923085,4090.7692307692314,4268.205128205129,4308.717948717949,4422.051282051282,4392.820512820514,1681.0,1685.0,1600.694,1486.8011474609375,0.0,0.0,0.0,0.0
1599006,95.0,0.0,487.0,4489.743589743591,4141.538461538462,4314.871794871796,4808.717948717949,3772.307692307693,4216.923076923077,4257.435897435898,4084.1025641025644,4409.743589743591,4085.6410256410263,4267.179487179487,4306.666666666667,4412.307692307693,4385.641025641026,1682.0,1683.0,1600.702,1486.8011474609375,0.0,0.0,0.0,0.0
1599006,96.0,0.0,0.0,4487.179487179488,4143.589743589744,4316.410256410257,4813.846153846154,3773.333333333334,4212.820512820514,4254.358974358975,4030.7692307692314,4398.974358974359,4089.23076923077,4268.717948717949,4307.6923076923085,4413.333333333334,4386.153846153847,1681.0,1683.0,1600.709,1486.8011474609375,0.0,0.0,0.0,0.0
1599006,97.0,0.0,310.0,4494.871794871796,4151.282051282052,4325.641025641026,4813.846153846154,3776.410256410257,4221.025641025642,4255.8974358974365,3931.7948717948725,4390.256410256411,4093.333333333334,4269.74358974359,4311.282051282052,4420.512820512821,4386.666666666667,1682.0,1683.0,1600.718,1486.8011474609375,0.0,0.0,0.0,0.0
1599006,98.0,0.0,495.0,4506.666666666667,4155.8974358974365,4332.820512820514,4811.282051282052,3779.48717948718,4227.6923076923085,4262.564102564103,3890.2564102564106,4399.48717948718,4094.358974358975,4269.2307692307695,4316.410256410257,4427.179487179487,4392.307692307693,1681.0,1683.0,1600.725,1486.8011474609375,0.0,0.0,0.0,0.0
1599006,99.0,0.0,487.0,4507.6923076923085,4152.307692307693,4328.717948717949,4813.333333333334,3781.0256410256416,4232.307692307693,4265.128205128206,3897.435897435898,4407.179487179487,4094.8717948717954,4269.74358974359,4318.461538461539,4426.153846153847,4401.025641025642,1681.0,1685.0,1600.733,1486.8011474609375,0.0,0.0,0.0,0.0
1599183,100.0,0.0,0.0,4502.564102564103,4151.794871794872,4329.2307692307695,4809.2307692307695,3781.538461538462,4229.2307692307695,4263.589743589744,3894.358974358975,4406.666666666667,4101.538461538462,4268.205128205129,4318.461538461539,4427.6923076923085,4406.153846153847,1682.0,1685.0,1600.741,1487.270263671875,0.0,0.0,0.0,0.0
1599183,101.0,0.0,310.0,4504.615384615385,4156.410256410257,4336.410256410257,4812.820512820514,3783.076923076924,4217.435897435898,4261.025641025642,3890.7692307692314,4406.153846153847,4104.102564102564,4268.205128205129,4322.051282051282,4433.846153846154,4407.6923076923085,1681.0,1685.0,1600.749,1487.270263671875,0.0,0.0,0.0,0.0
1599183,102.0,0.0,495.0,4503.076923076924,4154.358974358975,4333.333333333334,4813.846153846154,3781.538461538462,4220.512820512821,4262.564102564103,3893.333333333334,4402.564102564103,4096.410256410257,4269.2307692307695,4321.538461538462,4432.820512820514,4403.076923076924,1680.0,1685.0,1600.757,1487.270263671875,0.0,0.0,0.0,0.0
1599184,103.0,0.0,487.0,4498.974358974359,4149.2307692307695,4325.641025641026,4812.820512820514,3777.435897435898,4229.74358974359,4264.615384615385,3892.820512820513,4399.48717948718,4091.2820512820517,4269.74358974359,4315.384615384616,4426.153846153847,4398.974358974359,1680.0,1686.0,1600.765,1487.270263671875,0.0,0.0,0.0,0.0
1599184,104.0,0.0,0.0,4504.615384615385,4150.769230769231,4328.717948717949,4816.410256410257,3777.9487179487182,4220.512820512821,4260.512820512821,3896.410256410257,4405.128205128206,4096.410256410257,4269.2307692307695,4314.358974358975,4426.153846153847,4403.589743589744,1679.0,1687.0,1600.773,1487.270263671875,0.0,0.0,0.0,0.0
1599184,105.0,0.0,310.0,4501.538461538462,4147.179487179487,4328.717948717949,4809.743589743591,3777.435897435898,4213.846153846154,4253.333333333334,3897.435897435898,4403.589743589744,4097.948717948719,4266.666666666667,4310.769230769231,4423.589743589744,4400.512820512821,1679.0,1688.0,1600.95,1487.270263671875,0.0,0.0,0.0,0.0
1599184,106.0,0.0,495.0,4484.615384615385,4132.820512820514,4314.871794871796,4811.794871794872,3772.820512820513,4220.000000000001,4251.794871794872,3898.461538461539,4394.358974358975,4086.1538461538466,4270.256410256411,4303.076923076924,4410.256410256411,4385.128205128206,1678.0,1687.0,1600.951,1487.270263671875,0.0,0.0,0.0,0.0
1599185,107.0,0.0,487.0,4480.000000000001,4128.205128205129,4304.615384615385,4814.358974358975,3770.7692307692314,4218.974358974359,4253.846153846154,3901.538461538462,4394.871794871796,4080.5128205128212,4273.846153846154,4304.615384615385,4407.179487179487,4380.000000000001,1678.0,1687.0,1600.951,1487.270263671875,0.0,0.0,0.0,0.0
1599185,108.0,0.0,0.0,4493.333333333334,4138.461538461539,4312.307692307693,4809.743589743591,3774.358974358975,4210.769230769231,4252.820512820514,3898.9743589743593,4397.948717948719,4088.717948717949,4271.794871794872,4312.820512820514,4420.000000000001,4387.6923076923085,1678.0,1685.0,1600.951,1487.270263671875,0.0,0.0,0.0,0.0
1599185,109.0,0.0,310.0,4498.974358974359,4141.538461538462,4322.051282051282,4813.846153846154,3777.9487179487182,4210.769230769231,4251.282051282052,3904.1025641025644,4403.076923076924,4095.8974358974365,4269.2307692307695,4315.384615384616,4423.076923076924,4389.2307692307695,1678.0,1684.0,1600.951,1487.270263671875,0.0,0.0,0.0,0.0
1599185,110.0,0.0,495.0,4494.358974358975,4138.461538461539,4324.102564102564,4812.307692307693,3776.9230769230776,4221.538461538462,4254.871794871796,3918.9743589743593,4405.641025641026,4091.2820512820517,4268.205128205129,4313.333333333334,4414.358974358975,4385.128205128206,1678.0,1683.0,1600.951,1487.270263671875,0.0,0.0,0.0,0.0
1599186,111.0,0.0,487.0,4498.974358974359,4147.6923076923085,4329.743589743591,4812.820512820514,3776.410256410257,4228.205128205129,4253.846153846154,3928.205128205129,4393.846153846154,4086.1538461538466,4271.282051282052,4314.871794871796,4416.410256410257,4388.205128205129,1679.0,1684.0,1600.951,1487.270263671875,0.0,0.0,0.0,0.0
1599187,112.0,0.0,0.0,4511.794871794872,4160.512820512821,4340.512820512821,4815.8974358974365,3780.0000000000005,4226.666666666667,4251.794871794872,3926.666666666667,4384.615384615385,4092.307692307693,4270.769230769231,4317.435897435898,4428.205128205129,4398.461538461539,1680.0,1682.0,1600.951,1487.270263671875,0.0,0.0,0.0,0.0
1599187,113.0,0.0,310.0,4510.256410256411,4160.512820512821,4338.974358974359,4810.769230769231,3781.538461538462,4223.076923076924,4256.923076923077,3921.0256410256416,4394.871794871796,4095.8974358974365,4268.205128205129,4316.410256410257,4430.769230769231,4398.461538461539,1680.0,1683.0,1600.951,1487.270263671875,0.0,0.0,0.0,0.0
1599187,114.0,0.0,495.0,4506.153846153847,4156.410256410257,4332.307692307693,4811.282051282052,3782.0512820512827,4218.974358974359,4260.512820512821,3909.7435897435903,4402.051282051282,4092.820512820513,4269.2307692307695,4316.923076923077,4426.666666666667,4393.846153846154,1682.0,1682.0,1600.951,1487.270263671875,0.0,0.0,0.0,0.0
1599187,115.0,0.0,487.0,4513.333333333334,4158.974358974359,4335.8974358974365,4812.820512820514,3787.1794871794878,4224.102564102564,4264.615384615385,3898.9743589743593,4400.512820512821,4093.333333333334,4271.282051282052,4318.461538461539,4429.743589743591,4398.461538461539,1682.0,1684.0,1600.951,1487.270263671875,0.0,0.0,0.0,0.0
1599187,116.0,0.0,0.0,4516.923076923077,4161.025641025642,4338.461538461539,4813.333333333334,3790.2564102564106,4234.358974358975,4269.2307692307695,3893.8461538461543,4403.589743589744,4096.923076923077,4270.769230769231,4317.948717948719,4431.282051282052,4398.974358974359,1683.0,1684.0,1600.951,1487.270263671875,0.0,0.0,0.0,0.0
1599187,117.0,0.0,310.0,4517.435897435898,4163.589743589744,4338.974358974359,4811.794871794872,3785.1282051282055,4230.256410256411,4266.153846153847,3895.8974358974365,4410.256410256411,4100.512820512821,4267.6923076923085,4316.923076923077,4430.256410256411,4394.358974358975,1683.0,1684.0,1600.951,1487.270263671875,0.0,0.0,0.0,0.0
1599188,118.0,0.0,495.0,4516.923076923077,4164.102564102564,4342.051282051282,4809.743589743591,3779.48717948718,4223.076923076924,4256.923076923077,3899.48717948718,4419.48717948718,4105.128205128206,4266.153846153847,4316.410256410257,4431.794871794872,4395.8974358974365,1683.0,1686.0,1600.951,1487.270263671875,0.0,0.0,0.0,0.0
1599188,119.0,0.0,487.0,4502.564102564103,4151.282051282052,4330.256410256411,4815.384615384616,3777.9487179487182,4226.153846153847,4252.820512820514,3892.307692307693,4415.384615384616,4095.8974358974365,4270.769230769231,4312.820512820514,4420.000000000001,4385.641025641026,1684.0,1686.0,1600.951,1487.270263671875,0.0,0.0,0.0,0.0
1599188,120.0,0.0,0.0,4492.307692307693,4142.051282051282,4317.948717948719,4811.794871794872,3775.8974358974365,4225.128205128206,4253.333333333334,3876.410256410257,4396.923076923077,4082.564102564103,4270.256410256411,4307.6923076923085,4409.743589743591,4370.256410256411,1684.0,1687.0,1600.951,1487.270263671875,0.0,0.0,0.0,0.0
1599188,121.0,0.0,310.0,4502.564102564103,4149.2307692307695,4323.589743589744,4808.205128205129,3772.820512820513,4216.410256410257,4251.282051282052,3869.2307692307695,4392.820512820514,4086.1538461538466,4266.153846153847,4307.179487179487,4415.384615384616,4375.8974358974365,1683.0,1687.0,1600.951,1487.270263671875,0.0,0.0,0.0,0.0
1599188,122.0,0.0,495.0,4507.6923076923085,4152.820512820514,4327.6923076923085,4811.282051282052,3771.2820512820517,4214.358974358975,4247.6923076923085,3876.410256410257,4398.974358974359,4089.7435897435903,4267.179487179487,4310.256410256411,4420.512820512821,4384.102564102564,1682.0,1687.0,1600.951,1487.270263671875,0.0,0.0,0.0,0.0
1599188,123.0,0.0,487.0,4503.589743589744,4150.256410256411,4324.615384615385,4809.2307692307695,3773.8461538461543,4217.948717948719,4250.256410256411,3888.717948717949,4395.8974358974365,4087.1794871794878,4265.641025641026,4311.794871794872,4422.051282051282,4383.589743589744,1683.0,1685.0,1600.951,1487.270263671875,0.0,0.0,0.0,0.0
1599495,124.0,0.0,0.0,4508.205128205129,4154.358974358975,4332.307692307693,4814.358974358975,3779.48717948718,4222.564102564103,4257.948717948719,3898.461538461539,4390.769230769231,4092.820512820513,4267.6923076923085,4316.410256410257,4428.717948717949,4390.256410256411,1681.0,1686.0,1600.951,1487.4580078125,0.0,0.0,0.0,0.0
1599495,125.0,0.0,310.0,4516.410256410257,4160.000000000001,4342.051282051282,4814.871794871796,3781.0256410256416,4230.256410256411,4261.025641025642,3905.1282051282055,4404.102564102564,4101.025641025642,4270.256410256411,4320.512820512821,4436.410256410257,4399.48717948718,1682.0,1686.0,1600.951,1487.4580078125,0.0,0.0,0.0,0.0
1599495,126.0,0.0,495.0,4517.435897435898,4161.025641025642,4340.000000000001,4810.256410256411,3776.9230769230776,4231.282051282052,4256.410256410257,3927.692307692308,4421.538461538462,4104.102564102564,4266.666666666667,4320.512820512821,4437.948717948719,4397.948717948719,1681.0,1685.0,1600.951,1487.4580078125,0.0,0.0,0.0,0.0
1599496,127.0,0.0,487.0,4514.871794871796,4161.025641025642,4335.8974358974365,4814.358974358975,3774.358974358975,4223.589743589744,4251.794871794872,3970.7692307692314,4418.974358974359,4103.076923076924,4266.153846153847,4319.48717948718,4435.384615384616,4394.358974358975,1682.0,1687.0,1600.955,1487.4580078125,0.0,0.0,0.0,0.0
1599496,128.0,0.0,0.0,4510.769230769231,4156.923076923077,4332.820512820514,4812.820512820514,3777.435897435898,4227.6923076923085,4255.384615384616,3999.48717948718,4406.153846153847,4101.538461538462,4268.205128205129,4314.871794871796,4432.820512820514,4390.769230769231,1681.0,1685.0,1600.959,1487.4580078125,0.0,0.0,0.0,0.0
1599496,0.0,0.0,513.0,4500.000000000001,4145.128205128206,4324.102564102564,4814.358974358975,3777.435897435898,4236.923076923077,4263.589743589744,3997.435897435898,4401.025641025642,4097.435897435898,4269.2307692307695,4315.384615384616,4428.205128205129,4390.256410256411,1680.0,1687.0,1600.967,1487.4580078125,0.0,0.0,0.0,0.0
1599496,1.0,0.0,0.0,4495.8974358974365,4143.589743589744,4322.051282051282,4814.358974358975,3773.333333333334,4233.846153846154,4264.615384615385,3993.8461538461543,4401.538461538462,4094.8717948717954,4267.179487179487,4316.923076923077,4425.128205128206,4393.846153846154,1680.0,1686.0,1600.975,1487.4580078125,0.0,0.0,0.0,0.0
1599497,2.0,0.0,508.0,4504.102564102564,4152.307692307693,4329.2307692307695,4810.256410256411,3773.333333333334,4225.641025641026,4262.564102564103,4004.615384615385,4405.641025641026,4097.435897435898,4266.666666666667,4316.410256410257,4427.6923076923085,4391.282051282052,1680.0,1687.0,1600.983,1487.4580078125,0.0,0.0,0.0,0.0
1599497,3.0,0.0,532.0,4507.6923076923085,4149.74358974359,4332.307692307693,4813.846153846154,3775.3846153846157,4225.128205128206,4262.564102564103,4013.333333333334,4410.256410256411,4097.435897435898,4267.6923076923085,4317.435897435898,4429.2307692307695,4388.717948717949,1680.0,1686.0,1600.991,1487.4580078125,0.0,0.0,0.0,0.0
1599497,4.0,0.0,500.0,4508.205128205129,4145.128205128206,4332.307692307693,4813.333333333334,3773.8461538461543,4231.794871794872,4261.025641025642,4022.0512820512827,4406.153846153847,4094.358974358975,4266.153846153847,4318.461538461539,4427.6923076923085,4396.923076923077,1679.0,1686.0,1600.999,1487.4580078125,0.0,0.0,0.0,0.0
1599497,5.0,0.0,550.0,4511.794871794872,4150.769230769231,4335.8974358974365,4814.871794871796,3771.794871794872,4230.769230769231,4255.8974358974365,4041.0256410256416,4411.282051282052,4100.000000000001,4267.179487179487,4321.025641025642,4429.743589743591,4401.538461538462,1680.0,1685.0,1601.006,1487.4580078125,0.0,0.0,0.0,0.0
1599497,6.0,0.0,546.0,4513.846153846154,4155.8974358974365,4338.461538461539,4815.384615384616,3771.2820512820517,4220.512820512821,4256.923076923077,4055.3846153846157,4424.615384615385,4110.769230769231,4268.205128205129,4325.641025641026,4433.333333333334,4400.512820512821,1679.0,1685.0,1601.014,1487.4580078125,0.0,0.0,0.0,0.0
1599498,7.0,0.0,308.0,4509.2307692307695,4151.794871794872,4334.871794871796,4809.743589743591,3769.2307692307695,4214.871794871796,4257.435897435898,4047.1794871794878,4402.564102564103,4100.512820512821,4266.666666666667,4317.435897435898,4427.6923076923085,4395.8974358974365,1681.0,1685.0,1601.022,1487.4580078125,0.0,0.0,0.0,0.0
1599498,8.0,0.0,457.0,4499.48717948718,4144.102564102564,4324.102564102564,4814.358974358975,3768.717948717949,4220.000000000001,4249.2307692307695,4034.358974358975,4368.205128205129,4074.358974358975,4267.6923076923085,4306.153846153847,4413.333333333334,4383.076923076924,1680.0,1685.0,1601.03,1487.4580078125,0.0,0.0,0.0,0.0
1599498,9.0,0.0,476.0,4495.8974358974365,4143.589743589744,4318.974358974359,4814.358974358975,3770.7692307692314,4226.666666666667,4248.717948717949,4043.076923076924,4377.435897435898,4070.2564102564106,4268.717948717949,4308.205128205129,4408.205128205129,4375.8974358974365,1681.0,1685.0,1601.039,1487.4580078125,0.0,0.0,0.0,0.0
1599498,10.0,0.0,495.0,4506.666666666667,4151.282051282052,4327.179487179487,4809.743589743591,3772.820512820513,4226.666666666667,4257.435897435898,4054.8717948717954,4399.48717948718,4085.1282051282055,4269.2307692307695,4315.8974358974365,4415.8974358974365,4386.666666666667,1682.0,1684.0,1601.046,1487.4580078125,0.0,0.0,0.0,0.0
1599498,11.0,0.0,487.0,4513.846153846154,4155.8974358974365,4331.282051282052,4811.282051282052,3775.3846153846157,4222.564102564103,4255.8974358974365,4053.333333333334,4390.769230769231,4087.692307692308,4268.717948717949,4317.435897435898,4419.48717948718,4391.794871794872,1681.0,1686.0,1601.053,1487.4580078125,0.0,0.0,0.0,0.0
1599498,12.0,0.0,0.0,4500.512820512821,4146.666666666667,4321.025641025642,4811.794871794872,3774.8717948717954,4222.564102564103,4248.205128205129,4052.307692307693,4385.128205128206,4078.461538461539,4266.666666666667,4313.846153846154,4409.743589743591,4377.435897435898,1682.0,1684.0,1601.061,1487.4580078125,0.0,0.0,0.0,0.0
1599498,13.0,0.0,310.0,4490.256410256411,4138.461538461539,4315.8974358974365,4815.8974358974365,3772.307692307693,4227.6923076923085,4247.179487179487,4054.8717948717954,4400.512820512821,4081.0256410256416,4268.205128205129,4310.256410256411,4402.564102564103,4368.717948717949,1682.0,1684.0,1601.069,1487.4580078125,0.0,0.0,0.0,0.0
1599499,14.0,0.0,495.0,4497.435897435898,4147.179487179487,4325.128205128206,4811.794871794872,3775.3846153846157,4232.820512820514,4253.846153846154,4054.358974358975,4406.153846153847,4093.8461538461543,4268.717948717949,4309.743589743591,4412.307692307693,4379.48717948718,1682.0,1684.0,1601.077,1487.4580078125,0.0,0.0,0.0,0.0
1599499,15.0,0.0,487.0,4502.564102564103,4153.333333333334,4328.205128205129,4808.717948717949,3779.48717948718,4232.820512820514,4256.410256410257,4055.8974358974365,4394.358974358975,4091.7948717948725,4266.666666666667,4312.820512820514,4420.000000000001,4385.128205128206,1681.0,1684.0,1601.085,1487.4580078125,0.0,0.0,0.0,0.0
1599499,16.0,0.0,0.0,4497.948717948719,4147.179487179487,4320.512820512821,4812.820512820514,3776.410256410257,4225.641025641026,4252.307692307693,4065.6410256410263,4395.384615384616,4084.615384615385,4269.2307692307695,4314.358974358975,4418.974358974359,4381.025641025642,1682.0,1683.0,1601.092,1487.4580078125,0.0,0.0,0.0,0.0
1599499,17.0,0.0,0.0,4499.48717948718,4145.641025641026,4321.538461538462,4809.2307692307695,3774.358974358975,4220.000000000001,4252.820512820514,4067.692307692308,4408.205128205129,4091.2820512820517,4272.307692307693,4312.820512820514,4423.076923076924,4383.589743589744,1682.0,1684.0,1601.1,1487.4580078125,0.0,0.0,0.0,0.0
1599499,18.0,0.0,0.0,4504.615384615385,4149.74358974359,4327.179487179487,4811.282051282052,3778.9743589743593,4223.589743589744,4256.923076923077,4060.0000000000005,4403.076923076924,4097.948717948719,4271.282051282052,4315.384615384616,4426.666666666667,4386.666666666667,1682.0,1683.0,1601.108,1487.4580078125,0.0,0.0,0.0,0.0
1599499,19.0,0.0,0.0,4505.128205128206,4150.256410256411,4331.282051282052,4814.358974358975,3780.512820512821,4229.2307692307695,4259.48717948718,4061.538461538462,4399.48717948718,4097.435897435898,4267.6923076923085,4318.461538461539,4426.153846153847,4384.102564102564,1681.0,1683.0,1601.117,1487.4580078125,0.0,0.0,0.0,0.0
1599499,20.0,0.0,0.0,4508.717948717949,4148.717948717949,4332.820512820514,4810.256410256411,3778.461538461539,4223.589743589744,4257.435897435898,4063.589743589744,4405.128205128206,4094.8717948717954,4268.717948717949,4317.435897435898,4423.589743589744,4384.102564102564,1681.0,1685.0,1601.124,1487.4580078125,0.0,0.0,0.0,0.0
1599499,21.0,0.0,0.0,4508.717948717949,4142.564102564103,4325.128205128206,4810.769230769231,3776.410256410257,4216.923076923077,4250.256410256411,4054.358974358975,4392.307692307693,4084.615384615385,4271.794871794872,4314.871794871796,4414.358974358975,4382.051282051282,1681.0,1684.0,1601.132,1487.4580078125,0.0,0.0,0.0,0.0
1599499,22.0,0.0,0.0,4500.000000000001,4134.871794871796,4317.948717948719,4809.743589743591,3774.358974358975,4221.025641025642,4248.205128205129,4052.820512820513,4383.076923076924,4075.8974358974365,4268.717948717949,4312.307692307693,4405.128205128206,4374.358974358975,1680.0,1686.0,1601.139,1487.4580078125,0.0,0.0,0.0,0.0
1599500,23.0,0.0,0.0,4495.384615384616,4138.461538461539,4321.538461538462,4812.307692307693,3775.3846153846157,4222.051282051282,4254.358974358975,4058.9743589743593,4396.410256410257,4083.589743589744,4268.717948717949,4313.846153846154,4409.743589743591,4375.384615384616,1681.0,1685.0,1601.147,1487.4580078125,0.0,0.0,0.0,0.0
1599500,24.0,0.0,0.0,4499.48717948718,4142.564102564103,4325.128205128206,4812.820512820514,3776.410256410257,4223.589743589744,4258.461538461539,4055.3846153846157,4404.615384615385,4089.7435897435903,4270.256410256411,4310.769230769231,4417.435897435898,4381.538461538462,1680.0,1686.0,1601.156,1487.4580078125,0.0,0.0,0.0,0.0
1599500,25.0,0.0,0.0,4497.948717948719,4136.923076923077,4319.48717948718,4810.256410256411,3777.435897435898,4232.307692307693,4256.410256410257,4050.2564102564106,4395.8974358974365,4084.615384615385,4267.6923076923085,4305.128205128206,4416.410256410257,4377.435897435898,1680.0,1685.0,1601.163,1487.4580078125,0.0,0.0,0.0,0.0
1599500,26.0,0.0,0.0,4494.358974358975,4133.333333333334,4315.384615384616,4814.358974358975,3778.9743589743593,4228.205128205129,4254.871794871796,4055.3846153846157,4393.333333333334,4082.0512820512827,4267.179487179487,4309.2307692307695,4411.794871794872,4376.410256410257,1680.0,1685.0,1601.171,1487.4580078125,0.0,0.0,0.0,0.0
1599500,27.0,0.0,0.0,4497.435897435898,4142.051282051282,4318.461538461539,4812.307692307693,3778.461538461539,4218.461538461539,4258.974358974359,4063.076923076924,4403.589743589744,4092.820512820513,4269.2307692307695,4315.384615384616,4415.8974358974365,4386.153846153847,1680.0,1685.0,1601.179,1487.4580078125,0.0,0.0,0.0,0.0
1599500,28.0,0.0,0.0,4500.512820512821,4146.666666666667,4324.615384615385,4813.333333333334,3781.538461538462,4227.6923076923085,4262.564102564103,4067.692307692308,4412.820512820514,4104.102564102564,4271.794871794872,4316.923076923077,4425.641025641026,4392.307692307693,1679.0,1684.0,1601.186,1487.4580078125,0.0,0.0,0.0,0.0
1599500,29.0,0.0,0.0,4498.461538461539,4139.48717948718,4323.076923076924,4812.820512820514,3785.6410256410263,4237.435897435898,4263.589743589744,4064.615384615385,4407.179487179487,4101.538461538462,4268.717948717949,4314.871794871796,4422.564102564103,4384.615384615385,1680.0,1684.0,1601.194,1487.4580078125,0.0,0.0,0.0,0.0
1599501,30.0,0.0,0.0,4493.846153846154,4133.333333333334,4314.358974358975,4805.128205128206,3783.589743589744,4226.153846153847,4257.948717948719,4053.8461538461543,4392.820512820514,4091.2820512820517,4263.076923076924,4309.2307692307695,4412.307692307693,4376.410256410257,1679.0,1684.0,1601.202,1487.4580078125,0.0,0.0,0.0,0.0
1599501,31.0,0.0,0.0,4490.769230769231,4131.794871794872,4310.256410256411,4810.769230769231,3781.0256410256416,4215.384615384616,4251.794871794872,4049.7435897435903,4386.153846153847,4085.6410256410263,4267.179487179487,4308.717948717949,4411.794871794872,4378.461538461539,1681.0,1683.0,1601.21,1487.4580078125,0.0,0.0,0.0,0.0
1599501,32.0,0.0,0.0,4493.333333333334,4134.358974358975,4315.8974358974365,4812.307692307693,3783.076923076924,4220.000000000001,4256.410256410257,4057.9487179487182,4393.333333333334,4088.205128205129,4270.769230769231,4314.358974358975,4415.8974358974365,4382.051282051282,1680.0,1684.0,1601.218,1487.4580078125,0.0,0.0,0.0,0.0
1599501,33.0,0.0,0.0,4497.948717948719,4136.923076923077,4320.000000000001,4811.282051282052,3782.564102564103,4225.128205128206,4258.974358974359,4058.9743589743593,4399.48717948718,4091.7948717948725,4270.769230769231,4314.358974358975,4413.846153846154,4378.461538461539,1680.0,1684.0,1601.225,1487.4580078125,0.0,0.0,0.0,0.0
1599501,34.0,0.0,0.0,4500.512820512821,4135.8974358974365,4315.8974358974365,4813.333333333334,3779.48717948718,4227.179487179487,4251.794871794872,4045.6410256410263,4391.794871794872,4087.1794871794878,4267.6923076923085,4308.205128205129,4409.2307692307695,4373.846153846154,1681.0,1684.0,1601.233,1487.4580078125,0.0,0.0,0.0,0.0
1599522,35.0,0.0,0.0,4498.974358974359,4134.358974358975,4314.871794871796,4808.205128205129,3776.9230769230776,4225.128205128206,4251.794871794872,4035.8974358974365,4379.48717948718,4077.435897435898,4265.641025641026,4308.717948717949,4407.179487179487,4376.410256410257,1682.0,1684.0,1601.241,1487.770751953125,0.0,0.0,0.0,0.0
1599522,36.0,0.0,0.0,4495.8974358974365,4134.871794871796,4320.512820512821,4814.871794871796,3777.435897435898,4217.948717948719,4257.435897435898,4032.820512820513,4379.48717948718,4077.9487179487187,4270.256410256411,4315.384615384616,4408.205128205129,4381.538461538462,1681.0,1685.0,1601.249,1487.770751953125,0.0,0.0,0.0,0.0
1599522,37.0,0.0,0.0,4500.000000000001,4139.48717948718,4326.666666666667,4818.461538461539,3781.0256410256416,4223.589743589744,4259.48717948718,4035.3846153846157,4395.8974358974365,4088.717948717949,4268.205128205129,4317.435897435898,4414.358974358975,4386.153846153847,1683.0,1685.0,1601.257,1487.770751953125,0.0,0.0,0.0,0.0
1599522,38.0,0.0,0.0,4510.256410256411,4145.128205128206,4329.2307692307695,4812.307692307693,3782.564102564103,4236.923076923077,4263.076923076924,4047.1794871794878,4409.2307692307695,4095.3846153846157,4263.589743589744,4317.435897435898,4419.48717948718,4387.179487179487,1682.0,1685.0,1601.264,1487.770751953125,0.0,0.0,0.0,0.0
1599617,39.0,0.0,0.0,4519.48717948718,4155.384615384616,4333.846153846154,4812.820512820514,3784.1025641025644,4233.846153846154,4265.128205128206,4058.461538461539,4406.666666666667,4099.48717948718,4267.6923076923085,4321.538461538462,4427.179487179487,4393.846153846154,1682.0,1686.0,1601.272,1487.802001953125,0.0,0.0,0.0,0.0
1599617,40.0,0.0,0.0,4525.641025641026,4167.6923076923085,4345.641025641026,4810.769230769231,3788.717948717949,4229.2307692307695,4263.589743589744,4061.538461538462,4404.615384615385,4109.74358974359,4268.717948717949,4324.615384615385,4442.051282051282,4407.6923076923085,1682.0,1685.0,1601.28,1487.802001953125,0.0,0.0,0.0,0.0
1599617,41.0,0.0,0.0,4523.589743589744,4163.589743589744,4347.6923076923085,4814.358974358975,3788.205128205129,4228.717948717949,4257.948717948719,4057.435897435898,4406.153846153847,4111.794871794872,4269.2307692307695,4323.589743589744,4442.564102564103,4411.794871794872,1681.0,1686.0,1601.289,1487.802001953125,0.0,0.0,0.0,0.0
1599617,42.0,0.0,0.0,4519.48717948718,4158.461538461539,4340.512820512821,4815.8974358974365,3784.1025641025644,4224.615384615385,4255.384615384616,4040.5128205128212,4403.076923076924,4105.641025641026,4272.820512820514,4321.538461538462,4435.8974358974365,4410.256410256411,1682.0,1684.0,1601.296,1487.802001953125,0.0,0.0,0.0,0.0
1599617,43.0,0.0,0.0,4520.000000000001,4161.025641025642,4336.410256410257,4810.256410256411,3782.564102564103,4224.615384615385,4261.538461538462,4016.410256410257,4398.461538461539,4102.564102564103,4271.282051282052,4317.435897435898,4436.923076923077,4411.794871794872,1682.0,1684.0,1601.305,1487.802001953125,0.0,0.0,0.0,0.0
1599618,44.0,0.0,0.0,4511.282051282052,4151.282051282052,4327.179487179487,4812.307692307693,3781.0256410256416,4230.256410256411,4264.615384615385,4004.615384615385,4388.205128205129,4091.2820512820517,4268.717948717949,4312.820512820514,4423.589743589744,4398.974358974359,1682.0,1684.0,1601.312,1487.802001953125,0.0,0.0,0.0,0.0
1599618,45.0,0.0,0.0,4501.538461538462,4142.051282051282,4320.512820512821,4809.743589743591,3776.9230769230776,4234.358974358975,4257.435897435898,4005.1282051282055,4382.564102564103,4077.435897435898,4270.256410256411,4312.820512820514,4411.282051282052,4387.179487179487,1681.0,1685.0,1601.319,1487.802001953125,0.0,0.0,0.0,0.0
1599618,46.0,0.0,0.0,4507.6923076923085,4148.717948717949,4331.282051282052,4811.794871794872,3778.9743589743593,4231.282051282052,4251.282051282052,4007.692307692308,4389.2307692307695,4081.538461538462,4269.2307692307695,4318.461538461539,4420.512820512821,4396.923076923077,1682.0,1686.0,1601.327,1487.802001953125,0.0,0.0,0.0,0.0
1599618,47.0,0.0,0.0,4515.8974358974365,4153.846153846154,4340.512820512821,4813.333333333334,3786.1538461538466,4230.769230769231,4256.410256410257,4006.666666666667,4390.769230769231,4091.2820512820517,4266.153846153847,4319.48717948718,4426.666666666667,4406.153846153847,1681.0,1686.0,1601.335,1487.802001953125,0.0,0.0,0.0,0.0
1599618,48.0,0.0,0.0,4513.333333333334,4153.846153846154,4339.48717948718,4809.2307692307695,3788.205128205129,4229.2307692307695,4265.128205128206,4011.7948717948725,4392.820512820514,4096.410256410257,4267.6923076923085,4317.435897435898,4425.128205128206,4404.102564102564,1682.0,1686.0,1601.343,1487.802001953125,0.0,0.0,0.0,0.0
1599618,49.0,0.0,0.0,4510.769230769231,4155.384615384616,4337.435897435898,4813.846153846154,3783.076923076924,4217.948717948719,4264.102564102564,4026.1538461538466,4402.564102564103,4099.48717948718,4270.769230769231,4318.461538461539,4430.256410256411,4402.564102564103,1680.0,1686.0,1601.35,1487.802001953125,0.0,0.0,0.0,0.0
1599618,50.0,0.0,0.0,4511.282051282052,4153.846153846154,4334.358974358975,4811.794871794872,3777.435897435898,4214.358974358975,4261.538461538462,4040.5128205128212,4402.051282051282,4098.461538461539,4268.717948717949,4315.8974358974365,4433.333333333334,4400.512820512821,1680.0,1687.0,1601.358,1487.802001953125,0.0,0.0,0.0,0.0
1599734,51.0,0.0,0.0,4511.282051282052,4153.333333333334,4330.256410256411,4810.769230769231,3782.564102564103,4229.2307692307695,4264.102564102564,4054.358974358975,4396.410256410257,4097.948717948719,4269.2307692307695,4312.820512820514,4432.307692307693,4401.025641025642,1680.0,1687.0,1601.366,1487.8958740234375,0.0,0.0,0.0,0.0
1599734,52.0,0.0,0.0,4515.8974358974365,4159.48717948718,4333.333333333334,4812.307692307693,3787.1794871794878,4237.948717948719,4268.717948717949,4065.1282051282055,4401.538461538462,4103.589743589744,4270.769230769231,4314.871794871796,4437.948717948719,4408.205128205129,1679.0,1688.0,1601.374,1487.8958740234375,0.0,0.0,0.0,0.0
1599734,53.0,0.0,0.0,4517.435897435898,4161.538461538462,4337.435897435898,4809.2307692307695,3780.512820512821,4231.282051282052,4266.666666666667,4064.615384615385,4407.6923076923085,4107.179487179487,4269.2307692307695,4315.8974358974365,4438.974358974359,4408.717948717949,1680.0,1688.0,1601.382,1487.8958740234375,0.0,0.0,0.0,0.0
1599734,54.0,0.0,0.0,4510.256410256411,4157.435897435898,4336.410256410257,4814.358974358975,3774.8717948717954,4226.153846153847,4258.974358974359,4054.358974358975,4406.666666666667,4104.102564102564,4269.74358974359,4317.948717948719,4433.846153846154,4406.153846153847,1678.0,1688.0,1601.39,1487.8958740234375,0.0,0.0,0.0,0.0
1599734,55.0,0.0,0.0,4508.205128205129,4158.974358974359,4335.384615384616,4811.794871794872,3778.9743589743593,4234.358974358975,4258.461538461539,4051.7948717948725,4407.6923076923085,4104.615384615385,4268.717948717949,4318.974358974359,4436.410256410257,4407.6923076923085,1679.0,1688.0,1601.397,1487.8958740234375,0.0,0.0,0.0,0.0
1599735,56.0,0.0,0.0,4507.179487179488,4156.923076923077,4330.256410256411,4807.6923076923085,3780.0000000000005,4241.025641025642,4262.564102564103,4056.410256410257,4400.000000000001,4099.48717948718,4268.205128205129,4311.794871794872,4435.384615384616,4398.974358974359,1678.0,1686.0,1601.405,1487.8958740234375,0.0,0.0,0.0,0.0
1599735,57.0,0.0,0.0,4501.538461538462,4150.769230769231,4322.051282051282,4811.794871794872,3774.8717948717954,4234.871794871796,4261.025641025642,4066.1538461538466,4393.333333333334,4094.8717948717954,4267.6923076923085,4308.717948717949,4427.6923076923085,4389.2307692307695,1679.0,1686.0,1601.413,1487.8958740234375,0.0,0.0,0.0,0.0
1599735,58.0,0.0,0.0,4499.48717948718,4148.205128205129,4322.051282051282,4810.256410256411,3775.3846153846157,4230.769230769231,4262.564102564103,4079.48717948718,4408.717948717949,4105.128205128206,4265.641025641026,4315.8974358974365,4425.128205128206,4391.794871794872,1679.0,1684.0,1601.421,1487.8958740234375,0.0,0.0,0.0,0.0
1599735,59.0,0.0,0.0,4498.461538461539,4144.102564102564,4322.051282051282,4813.846153846154,3779.48717948718,4237.435897435898,4266.153846153847,4081.538461538462,4415.8974358974365,4103.589743589744,4268.717948717949,4319.48717948718,4421.538461538462,4390.256410256411,1680.0,1684.0,1601.429,1487.8958740234375,0.0,0.0,0.0,0.0
1599735,60.0,0.0,0.0,4498.461538461539,4144.102564102564,4322.051282051282,4813.333333333334,3779.48717948718,4240.512820512821,4264.615384615385,4071.2820512820517,4398.461538461539,4088.205128205129,4268.205128205129,4315.384615384616,4418.461538461539,4387.179487179487,1680.0,1683.0,1601.437,1487.8958740234375,0.0,0.0,0.0,0.0
1599735,61.0,0.0,0.0,4507.6923076923085,4152.307692307693,4329.2307692307695,4809.2307692307695,3778.9743589743593,4232.307692307693,4262.564102564103,4068.205128205129,4386.666666666667,4086.1538461538466,4265.128205128206,4316.410256410257,4425.128205128206,4395.8974358974365,1680.0,1684.0,1601.444,1487.8958740234375,0.0,0.0,0.0,0.0
1599735,62.0,0.0,0.0,4517.948717948719,4157.948717948719,4336.410256410257,4813.333333333334,3778.461538461539,4224.102564102564,4262.564102564103,4080.0000000000005,4393.333333333334,4092.820512820513,4268.717948717949,4324.102564102564,4431.794871794872,4403.589743589744,1682.0,1683.0,1601.452,1487.8958740234375,0.0,0.0,0.0,0.0
1599736,63.0,0.0,0.0,4512.820512820514,4153.846153846154,4335.384615384616,4811.282051282052,3777.9487179487182,4228.205128205129,4265.641025641026,4088.717948717949,4403.076923076924,4088.205128205129,4269.2307692307695,4321.538461538462,4423.076923076924,4397.948717948719,1681.0,1685.0,1601.461,1487.8958740234375,0.0,0.0,0.0,0.0
1599736,64.0,0.0,513.0,4502.051282051282,4145.128205128206,4326.666666666667,4812.820512820514,3778.461538461539,4235.384615384616,4267.179487179487,4083.076923076924,4396.923076923077,4080.5128205128212,4267.179487179487,4314.871794871796,4409.2307692307695,4389.743589743591,1683.0,1685.0,1601.468,1487.8958740234375,0.0,0.0,0.0,0.0
1599736,65.0,0.0,0.0,4504.615384615385,4146.666666666667,4323.589743589744,4815.384615384616,3780.512820512821,4238.974358974359,4264.615384615385,4089.23076923077,4387.179487179487,4084.615384615385,4267.6923076923085,4314.871794871796,4412.307692307693,4391.794871794872,1682.0,1686.0,1601.476,1487.8958740234375,0.0,0.0,0.0,0.0
1599736,66.0,0.0,508.0,4512.820512820514,4157.435897435898,4327.6923076923085,4812.307692307693,3779.48717948718,4236.923076923077,4264.102564102564,4109.74358974359,4392.307692307693,4093.333333333334,4269.2307692307695,4319.48717948718,4424.615384615385,4395.384615384616,1683.0,1686.0,1601.483,1487.8958740234375,0.0,0.0,0.0,0.0
1599863,67.0,0.0,532.0,4513.846153846154,4159.48717948718,4330.769230769231,4812.820512820514,3780.0000000000005,4234.358974358975,4263.076923076924,4112.307692307693,4402.564102564103,4099.48717948718,4267.179487179487,4322.051282051282,4425.128205128206,4393.846153846154,1682.0,1686.0,1601.491,1488.02099609375,0.0,0.0,0.0,0.0
1599863,68.0,0.0,500.0,4512.307692307693,4154.871794871796,4332.307692307693,4810.769230769231,3784.615384615385,4237.435897435898,4264.615384615385,4102.051282051282,4406.666666666667,4103.076923076924,4264.615384615385,4314.871794871796,4423.589743589744,4392.820512820514,1682.0,1688.0,1601.499,1488.02099609375,0.0,0.0,0.0,0.0
1599863,69.0,0.0,550.0,4512.820512820514,4156.410256410257,4332.820512820514,4815.384615384616,3786.1538461538466,4238.974358974359,4265.641025641026,4107.179487179487,4407.179487179487,4104.102564102564,4267.6923076923085,4306.666666666667,4430.256410256411,4392.307692307693,1682.0,1688.0,1601.507,1488.02099609375,0.0,0.0,0.0,0.0
1599864,70.0,0.0,546.0,4513.333333333334,4161.025641025642,4332.307692307693,4814.871794871796,3782.564102564103,4238.974358974359,4261.538461538462,4123.589743589744,4406.666666666667,4107.179487179487,4268.205128205129,4309.2307692307695,4433.333333333334,4392.820512820514,1682.0,1688.0,1601.515,1488.02099609375,0.0,0.0,0.0,0.0
1599864,71.0,0.0,308.0,4513.333333333334,4162.564102564103,4331.282051282052,4808.205128205129,3780.0000000000005,4241.538461538462,4258.461538461539,4133.333333333334,4410.769230769231,4111.282051282052,4267.6923076923085,4312.307692307693,4431.794871794872,4390.769230769231,1680.0,1687.0,1601.523,1488.02099609375,0.0,0.0,0.0,0.0
1599864,72.0,0.0,457.0,4510.256410256411,4160.000000000001,4328.717948717949,4813.846153846154,3783.076923076924,4247.179487179487,4260.000000000001,4133.846153846154,4413.333333333334,4106.666666666667,4269.2307692307695,4309.743589743591,4428.717948717949,4382.564102564103,1681.0,1687.0,1601.53,1488.02099609375,0.0,0.0,0.0,0.0
1599864,73.0,0.0,477.0,4509.2307692307695,4157.435897435898,4329.743589743591,4813.333333333334,3785.6410256410263,4250.256410256411,4263.589743589744,4121.538461538462,4405.128205128206,4097.948717948719,4268.717948717949,4309.2307692307695,4426.666666666667,4378.974358974359,1682.0,1685.0,1601.538,1488.02099609375,0.0,0.0,0.0,0.0
1599864,74.0,0.0,494.0,4517.435897435898,4163.076923076924,4338.461538461539,4811.794871794872,3785.6410256410263,4242.564102564103,4264.102564102564,4111.282051282052,4401.025641025642,4102.564102564103,4268.717948717949,4314.358974358975,4430.256410256411,4388.205128205129,1680.0,1686.0,1601.546,1488.02099609375,0.0,0.0,0.0,0.0
1599865,75.0,0.0,487.0,4525.128205128206,4167.179487179487,4346.153846153847,4816.410256410257,3788.205128205129,4231.282051282052,4266.666666666667,4114.871794871796,4414.358974358975,4108.717948717949,4269.2307692307695,4316.923076923077,4434.871794871796,4396.923076923077,1682.0,1685.0,1601.554,1488.02099609375,0.0,0.0,0.0,0.0
1599865,76.0,0.0,0.0,4520.000000000001,4163.076923076924,4342.564102564103,4811.282051282052,3789.2307692307695,4231.282051282052,4269.2307692307695,4112.820512820514,4413.333333333334,4101.025641025642,4268.205128205129,4313.333333333334,4431.794871794872,4394.358974358975,1681.0,1685.0,1601.562,1488.02099609375,0.0,0.0,0.0,0.0
1599865,77.0,0.0,310.0,4510.256410256411,4156.923076923077,4335.384615384616,4812.307692307693,3786.666666666667,4237.435897435898,4268.205128205129,4115.8974358974365,4395.8974358974365,4090.2564102564106,4271.794871794872,4310.769230769231,4425.641025641026,4389.2307692307695,1682.0,1685.0,1601.569,1488.02099609375,0.0,0.0,0.0,0.0
1599865,78.0,0.0,494.0,4509.743589743591,4157.948717948719,4335.384615384616,4813.333333333334,3786.1538461538466,4237.948717948719,4268.717948717949,4143.076923076924,4401.538461538462,4097.948717948719,4273.333333333334,4310.256410256411,4429.743589743591,4389.2307692307695,1682.0,1684.0,1601.577,1488.02099609375,0.0,0.0,0.0,0.0
