timestamp,cnt,inerpolated,raw_cq,af3,f7,f3,fc5,t7,p7,o1,o2,p8,t8,fc6,f4,f8,af4,gyrox,gyroy,epoc_timestamp,epoc_es_timestamp,func_id,func_value,marker,sync_signal
1653538,94.0,0.0,493.0,4515.384615384616,4197.435897435898,4337.948717948719,4811.794871794872,3775.3846153846157,4241.025641025642,4268.205128205129,3987.692307692308,4395.384615384616,4086.1538461538466,4265.641025641026,4307.179487179487,4377.435897435898,4363.076923076924,1688.0,1684.0,1655.165,1541.684326171875,0.0,0.0,0.0,0.0
1653538,95.0,0.0,488.0,4514.871794871796,4196.923076923077,4336.410256410257,4814.871794871796,3775.8974358974365,4234.358974358975,4268.717948717949,3984.1025641025644,4390.769230769231,4081.538461538462,4268.717948717949,4309.2307692307695,4370.769230769231,4360.512820512821,1688.0,1684.0,1655.173,1541.684326171875,0.0,0.0,0.0,0.0
1653538,96.0,0.0,0.0,4514.871794871796,4192.307692307693,4334.871794871796,4812.307692307693,3775.3846153846157,4234.358974358975,4267.6923076923085,3980.0000000000005,4387.6923076923085,4072.820512820513,4267.179487179487,4308.205128205129,4366.666666666667,4356.410256410257,1688.0,1685.0,1655.181,1541.684326171875,0.0,0.0,0.0,0.0
1653539,97.0,0.0,318.0,4516.923076923077,4191.282051282052,4340.000000000001,4814.358974358975,3772.307692307693,4230.769230769231,4262.564102564103,3978.9743589743593,4375.384615384616,4066.1538461538466,4267.6923076923085,4310.769230769231,4371.794871794872,4357.948717948719,1688.0,1685.0,1655.188,1541.684326171875,0.0,0.0,0.0,0.0
1653539,98.0,0.0,493.0,4514.871794871796,4193.846153846154,4337.948717948719,4813.846153846154,3769.2307692307695,4220.512820512821,4258.461538461539,3983.076923076924,4374.358974358975,4068.205128205129,4266.153846153847,4315.8974358974365,4373.846153846154,4361.025641025642,1687.0,1685.0,1655.196,1541.684326171875,0.0,0.0,0.0,0.0
1653539,99.0,0.0,488.0,4509.2307692307695,4189.74358974359,4329.2307692307695,4806.666666666667,3768.205128205129,4224.102564102564,4259.48717948718,3995.3846153846157,4395.384615384616,4075.8974358974365,4262.564102564103,4315.384615384616,4372.820512820514,4365.128205128206,1686.0,1685.0,1655.204,1541.684326171875,0.0,0.0,0.0,0.0
1653540,100.0,0.0,0.0,4508.717948717949,4180.000000000001,4328.717948717949,4812.820512820514,3765.6410256410263,4229.2307692307695,4257.435897435898,4000.0000000000005,4397.435897435898,4078.461538461539,4265.641025641026,4315.384615384616,4375.8974358974365,4368.717948717949,1684.0,1687.0,1655.212,1541.684326171875,0.0,0.0,0.0,0.0
1653540,101.0,0.0,318.0,4514.358974358975,4181.538461538462,4335.8974358974365,4811.282051282052,3764.1025641025644,4221.538461538462,4253.846153846154,3989.23076923077,4376.923076923077,4074.8717948717954,4265.128205128206,4317.435897435898,4381.538461538462,4373.333333333334,1684.0,1686.0,1655.22,1541.684326171875,0.0,0.0,0.0,0.0
1653540,102.0,0.0,493.0,4514.871794871796,4186.666666666667,4336.410256410257,4810.256410256411,3768.717948717949,4215.8974358974365,4253.333333333334,3981.0256410256416,4372.820512820514,4073.8461538461543,4264.102564102564,4316.410256410257,4382.051282051282,4375.8974358974365,1683.0,1685.0,1655.228,1541.684326171875,0.0,0.0,0.0,0.0
1653540,103.0,0.0,488.0,4513.333333333334,4183.589743589744,4334.358974358975,4813.846153846154,3772.307692307693,4221.538461538462,4256.410256410257,3983.589743589744,4384.615384615385,4073.8461538461543,4265.641025641026,4314.358974358975,4382.564102564103,4374.358974358975,1684.0,1684.0,1655.236,1541.684326171875,0.0,0.0,0.0,0.0
1653541,104.0,0.0,0.0,4513.846153846154,4180.512820512821,4332.307692307693,4809.2307692307695,3770.7692307692314,4227.179487179487,4263.589743589744,3991.7948717948725,4394.358974358975,4075.8974358974365,4264.102564102564,4310.769230769231,4385.128205128206,4367.6923076923085,1683.0,1683.0,1655.243,1541.684326171875,0.0,0.0,0.0,0.0
1653541,105.0,0.0,318.0,4508.717948717949,4175.8974358974365,4328.205128205129,4813.846153846154,3768.717948717949,4225.641025641026,4265.641025641026,3994.358974358975,4396.923076923077,4074.8717948717954,4265.128205128206,4307.179487179487,4380.512820512821,4359.48717948718,1684.0,1682.0,1655.252,1541.684326171875,0.0,0.0,0.0,0.0
1653541,106.0,0.0,493.0,4510.256410256411,4177.948717948719,4329.2307692307695,4813.333333333334,3767.1794871794878,4222.564102564103,4258.461538461539,3986.1538461538466,4390.769230769231,4073.8461538461543,4265.128205128206,4306.666666666667,4377.435897435898,4362.564102564103,1684.0,1681.0,1655.259,1541.684326171875,0.0,0.0,0.0,0.0
1653541,107.0,0.0,488.0,4519.48717948718,4188.205128205129,4330.769230769231,4809.743589743591,3766.666666666667,4221.538461538462,4252.307692307693,3977.9487179487182,4381.025641025642,4072.820512820513,4265.128205128206,4306.153846153847,4381.538461538462,4367.179487179487,1686.0,1679.0,1655.268,1541.684326171875,0.0,0.0,0.0,0.0
1653541,108.0,0.0,0.0,4519.48717948718,4186.666666666667,4327.179487179487,4812.307692307693,3769.7435897435903,4223.589743589744,4257.435897435898,3983.076923076924,4383.076923076924,4072.307692307693,4267.179487179487,4305.641025641026,4381.025641025642,4362.564102564103,1686.0,1678.0,1655.275,1541.684326171875,0.0,0.0,0.0,0.0
1653542,109.0,0.0,318.0,4514.871794871796,4178.461538461539,4326.666666666667,4808.717948717949,3774.358974358975,4223.076923076924,4261.025641025642,3982.564102564103,4387.6923076923085,4077.9487179487187,4265.641025641026,4305.641025641026,4382.564102564103,4363.076923076924,1688.0,1679.0,1655.283,1541.684326171875,0.0,0.0,0.0,0.0
1653563,110.0,0.0,493.0,4517.435897435898,4183.076923076924,4331.282051282052,4817.435897435898,3772.820512820513,4220.512820512821,4253.846153846154,3971.2820512820517,4381.538461538462,4086.1538461538466,4266.666666666667,4310.256410256411,4392.307692307693,4372.820512820514,1687.0,1677.0,1655.29,1541.809326171875,0.0,0.0,0.0,0.0
1653563,111.0,0.0,488.0,4525.128205128206,4191.282051282052,4337.435897435898,4817.948717948719,3774.358974358975,4223.076923076924,4253.333333333334,3971.7948717948725,4380.512820512821,4088.205128205129,4266.666666666667,4314.871794871796,4401.538461538462,4383.076923076924,1686.0,1679.0,1655.299,1541.809326171875,0.0,0.0,0.0,0.0
1653563,112.0,0.0,0.0,4534.358974358975,4193.846153846154,4344.102564102564,4809.743589743591,3781.0256410256416,4225.641025641026,4261.538461538462,3980.5128205128212,4380.000000000001,4076.9230769230776,4265.128205128206,4315.8974358974365,4400.512820512821,4387.179487179487,1686.0,1679.0,1655.306,1541.809326171875,0.0,0.0,0.0,0.0
1653563,113.0,0.0,318.0,4538.974358974359,4192.820512820514,4344.615384615385,4814.871794871796,3781.538461538462,4221.538461538462,4262.051282051282,3979.48717948718,4370.256410256411,4062.0512820512827,4266.666666666667,4315.384615384616,4388.205128205129,4381.025641025642,1684.0,1680.0,1655.314,1541.809326171875,0.0,0.0,0.0,0.0
1653659,114.0,0.0,493.0,4534.358974358975,4185.641025641026,4340.512820512821,4813.846153846154,3776.410256410257,4220.512820512821,4259.48717948718,3974.8717948717954,4369.2307692307695,4056.410256410257,4267.179487179487,4311.794871794872,4379.48717948718,4370.256410256411,1683.0,1682.0,1655.321,1541.8406982421875,0.0,0.0,0.0,0.0
1653659,115.0,0.0,488.0,4526.666666666667,4176.410256410257,4333.333333333334,4816.410256410257,3776.9230769230776,4228.205128205129,4260.512820512821,3976.410256410257,4377.435897435898,4055.3846153846157,4266.666666666667,4310.769230769231,4374.871794871796,4364.102564102564,1681.0,1684.0,1655.33,1541.8406982421875,0.0,0.0,0.0,0.0
1653659,116.0,0.0,0.0,4526.153846153847,4175.8974358974365,4328.205128205129,4815.8974358974365,3778.461538461539,4232.820512820514,4261.538461538462,3977.435897435898,4377.435897435898,4056.410256410257,4265.128205128206,4311.794871794872,4370.769230769231,4363.589743589744,1680.0,1684.0,1655.338,1541.8406982421875,0.0,0.0,0.0,0.0
1653659,117.0,0.0,318.0,4530.256410256411,4178.461538461539,4334.358974358975,4808.717948717949,3773.8461538461543,4226.666666666667,4258.461538461539,3977.9487179487182,4379.48717948718,4065.1282051282055,4263.076923076924,4313.333333333334,4377.435897435898,4367.6923076923085,1678.0,1685.0,1655.345,1541.8406982421875,0.0,0.0,0.0,0.0
1653659,118.0,0.0,493.0,4531.282051282052,4173.846153846154,4338.461538461539,4815.384615384616,3774.358974358975,4218.974358974359,4255.384615384616,3985.6410256410263,4400.000000000001,4077.435897435898,4263.589743589744,4316.410256410257,4389.743589743591,4374.871794871796,1679.0,1684.0,1655.353,1541.8406982421875,0.0,0.0,0.0,0.0
1653659,119.0,0.0,488.0,4524.102564102564,4170.256410256411,4331.794871794872,4813.333333333334,3776.9230769230776,4219.48717948718,4253.846153846154,3986.1538461538466,4407.6923076923085,4080.5128205128212,4265.641025641026,4314.358974358975,4392.307692307693,4371.282051282052,1677.0,1684.0,1655.361,1541.8406982421875,0.0,0.0,0.0,0.0
1653659,120.0,0.0,0.0,4522.564102564103,4174.871794871796,4330.769230769231,4812.307692307693,3772.820512820513,4210.256410256411,4247.179487179487,3972.820512820513,4379.48717948718,4072.820512820513,4266.666666666667,4312.820512820514,4394.871794871796,4368.717948717949,1677.0,1684.0,1655.369,1541.8406982421875,0.0,0.0,0.0,0.0
1653660,121.0,0.0,318.0,4537.435897435898,4188.717948717949,4341.538461538462,4815.8974358974365,3771.2820512820517,4200.512820512821,4243.589743589744,3965.6410256410263,4358.974358974359,4072.307692307693,4265.128205128206,4317.435897435898,4410.769230769231,4386.153846153847,1677.0,1684.0,1655.376,1541.8406982421875,0.0,0.0,0.0,0.0
1653660,122.0,0.0,493.0,4545.641025641026,4200.512820512821,4350.256410256411,4809.743589743591,3774.358974358975,4215.384615384616,4254.358974358975,3976.410256410257,4376.923076923077,4086.1538461538466,4264.102564102564,4318.974358974359,4421.538461538462,4401.025641025642,1678.0,1686.0,1655.385,1541.8406982421875,0.0,0.0,0.0,0.0
1653660,123.0,0.0,488.0,4534.871794871796,4194.358974358975,4345.128205128206,4813.846153846154,3773.8461538461543,4223.589743589744,4256.923076923077,3983.076923076924,4385.128205128206,4087.1794871794878,4266.666666666667,4315.384615384616,4414.358974358975,4390.769230769231,1680.0,1684.0,1655.392,1541.8406982421875,0.0,0.0,0.0,0.0
1653660,124.0,0.0,0.0,4524.102564102564,4182.564102564103,4335.384615384616,4812.307692307693,3771.2820512820517,4214.871794871796,4251.282051282052,3973.8461538461543,4364.615384615385,4070.2564102564106,4266.153846153847,4311.282051282052,4401.538461538462,4375.384615384616,1680.0,1685.0,1655.401,1541.8406982421875,0.0,0.0,0.0,0.0
1653661,125.0,0.0,318.0,4525.128205128206,4184.102564102564,4336.923076923077,4811.794871794872,3775.8974358974365,4216.410256410257,4257.435897435898,3976.410256410257,4371.282051282052,4069.7435897435903,4267.179487179487,4312.307692307693,4396.410256410257,4373.333333333334,1681.0,1684.0,1655.407,1541.8406982421875,0.0,0.0,0.0,0.0
1653777,126.0,0.0,493.0,4526.666666666667,4185.128205128206,4338.461538461539,4814.358974358975,3777.435897435898,4219.48717948718,4261.538461538462,3987.1794871794878,4395.384615384616,4078.9743589743593,4269.2307692307695,4313.333333333334,4396.410256410257,4373.846153846154,1683.0,1684.0,1655.415,1541.9344482421875,0.0,0.0,0.0,0.0
1653777,127.0,0.0,488.0,4519.48717948718,4174.358974358975,4327.6923076923085,4809.743589743591,3769.7435897435903,4215.8974358974365,4253.846153846154,3982.0512820512827,4385.128205128206,4069.7435897435903,4264.615384615385,4309.2307692307695,4390.769230769231,4367.179487179487,1684.0,1682.0,1655.423,1541.9344482421875,0.0,0.0,0.0,0.0
1653777,128.0,0.0,0.0,4516.923076923077,4171.282051282052,4323.589743589744,4815.8974358974365,3767.1794871794878,4214.358974358975,4249.2307692307695,3971.2820512820517,4364.615384615385,4060.5128205128212,4265.641025641026,4310.769230769231,4386.153846153847,4364.102564102564,1684.0,1683.0,1655.431,1541.9344482421875,0.0,0.0,0.0,0.0
1653777,0.0,0.0,512.0,4525.128205128206,4187.179487179487,4334.871794871796,4815.384615384616,3773.8461538461543,4219.48717948718,4257.948717948719,3976.9230769230776,4374.358974358975,4074.358974358975,4267.179487179487,4315.384615384616,4396.410256410257,4369.743589743591,1686.0,1684.0,1655.439,1541.9344482421875,0.0,0.0,0.0,0.0
1653777,1.0,0.0,0.0,4528.205128205129,4191.794871794872,4336.923076923077,4811.282051282052,3774.358974358975,4223.076923076924,4261.025641025642,3981.0256410256416,4380.000000000001,4082.0512820512827,4263.589743589744,4312.307692307693,4403.589743589744,4362.564102564103,1685.0,1684.0,1655.447,1541.9344482421875,0.0,0.0,0.0,0.0
1653777,2.0,0.0,510.0,4525.641025641026,4181.025641025642,4328.205128205129,4813.333333333334,3770.2564102564106,4220.000000000001,4252.820512820514,3971.7948717948725,4361.538461538462,4072.307692307693,4264.615384615385,4309.743589743591,4398.461538461539,4350.256410256411,1686.0,1686.0,1655.454,1541.9344482421875,0.0,0.0,0.0,0.0
1653778,3.0,0.0,531.0,4531.794871794872,4185.128205128206,4333.846153846154,4809.2307692307695,3773.8461538461543,4216.410256410257,4253.846153846154,3972.307692307693,4361.025641025642,4073.333333333334,4267.179487179487,4314.871794871796,4401.538461538462,4358.974358974359,1687.0,1684.0,1655.462,1541.9344482421875,0.0,0.0,0.0,0.0
1653778,4.0,0.0,501.0,4533.333333333334,4191.282051282052,4343.589743589744,4814.871794871796,3775.3846153846157,4214.871794871796,4259.48717948718,3978.9743589743593,4367.6923076923085,4075.8974358974365,4268.205128205129,4318.461538461539,4402.051282051282,4365.641025641026,1687.0,1685.0,1655.47,1541.9344482421875,0.0,0.0,0.0,0.0
1653778,5.0,0.0,551.0,4528.717948717949,4182.564102564103,4339.48717948718,4814.358974358975,3771.2820512820517,4217.948717948719,4257.948717948719,3977.9487179487182,4360.512820512821,4067.692307692308,4266.153846153847,4314.871794871796,4391.794871794872,4351.282051282052,1688.0,1683.0,1655.479,1541.9344482421875,0.0,0.0,0.0,0.0
1653778,6.0,0.0,548.0,4531.282051282052,4176.410256410257,4333.846153846154,4807.6923076923085,3773.333333333334,4220.512820512821,4253.333333333334,3977.435897435898,4362.051282051282,4063.076923076924,4265.128205128206,4313.333333333334,4390.769230769231,4345.128205128206,1686.0,1683.0,1655.487,1541.9344482421875,0.0,0.0,0.0,0.0
1653779,7.0,0.0,339.0,4534.871794871796,4176.923076923077,4333.333333333334,4813.333333333334,3776.410256410257,4223.589743589744,4253.333333333334,3978.9743589743593,4371.282051282052,4065.6410256410263,4266.153846153847,4316.410256410257,4394.358974358975,4351.282051282052,1686.0,1684.0,1655.493,1541.9344482421875,0.0,0.0,0.0,0.0
1653779,8.0,0.0,457.0,4530.769230769231,4176.410256410257,4334.358974358975,4811.282051282052,3776.9230769230776,4228.205128205129,4256.410256410257,3981.0256410256416,4373.333333333334,4068.205128205129,4263.076923076924,4315.8974358974365,4393.333333333334,4350.256410256411,1685.0,1684.0,1655.502,1541.9344482421875,0.0,0.0,0.0,0.0
1653779,9.0,0.0,477.0,4523.589743589744,4173.846153846154,4331.794871794872,4814.871794871796,3778.461538461539,4226.666666666667,4253.846153846154,3979.48717948718,4368.205128205129,4064.615384615385,4264.615384615385,4312.820512820514,4388.717948717949,4343.589743589744,1685.0,1686.0,1655.509,1541.9344482421875,0.0,0.0,0.0,0.0
1653779,10.0,0.0,494.0,4526.666666666667,4177.948717948719,4334.358974358975,4817.948717948719,3776.9230769230776,4223.076923076924,4252.307692307693,3977.9487179487182,4365.128205128206,4067.1794871794878,4266.153846153847,4313.333333333334,4389.743589743591,4347.6923076923085,1683.0,1686.0,1655.518,1541.9344482421875,0.0,0.0,0.0,0.0
1653779,11.0,0.0,488.0,4536.410256410257,4185.641025641026,4343.589743589744,4810.769230769231,3773.8461538461543,4221.538461538462,4256.410256410257,3980.0000000000005,4366.153846153847,4073.8461538461543,4262.564102564103,4317.435897435898,4401.025641025642,4358.974358974359,1682.0,1687.0,1655.525,1541.9344482421875,0.0,0.0,0.0,0.0
1653779,12.0,0.0,0.0,4537.948717948719,4182.051282051282,4345.641025641026,4814.871794871796,3777.435897435898,4217.435897435898,4256.410256410257,3982.564102564103,4363.589743589744,4070.2564102564106,4263.589743589744,4319.48717948718,4404.615384615385,4362.051282051282,1681.0,1688.0,1655.534,1541.9344482421875,0.0,0.0,0.0,0.0
1653906,13.0,0.0,318.0,4529.743589743591,4173.333333333334,4338.461538461539,4813.333333333334,3774.8717948717954,4214.871794871796,4252.820512820514,3980.5128205128212,4363.076923076924,4062.564102564103,4265.641025641026,4314.358974358975,4394.871794871796,4352.820512820514,1680.0,1689.0,1655.54,1542.0595703125,0.0,0.0,0.0,0.0
1653907,14.0,0.0,494.0,4518.974358974359,4168.205128205129,4327.6923076923085,4812.820512820514,3766.666666666667,4216.410256410257,4251.282051282052,3981.0256410256416,4363.076923076924,4057.9487179487182,4266.666666666667,4309.743589743591,4384.102564102564,4342.051282051282,1680.0,1688.0,1655.548,1542.0595703125,0.0,0.0,0.0,0.0
1653907,15.0,0.0,488.0,4516.410256410257,4164.615384615385,4321.538461538462,4814.871794871796,3768.205128205129,4220.000000000001,4251.282051282052,3988.717948717949,4361.538461538462,4052.307692307693,4265.641025641026,4309.743589743591,4382.051282051282,4341.025641025642,1678.0,1689.0,1655.556,1542.0595703125,0.0,0.0,0.0,0.0
1653908,16.0,0.0,0.0,4521.025641025642,4166.153846153847,4323.589743589744,4810.256410256411,3772.820512820513,4218.461538461539,4250.769230769231,3990.7692307692314,4363.076923076924,4052.307692307693,4263.076923076924,4311.282051282052,4389.2307692307695,4348.717948717949,1680.0,1689.0,1655.564,1542.0595703125,0.0,0.0,0.0,0.0
1653908,17.0,0.0,0.0,4518.974358974359,4171.282051282052,4327.6923076923085,4815.384615384616,3770.7692307692314,4212.820512820514,4248.717948717949,3987.1794871794878,4363.076923076924,4055.8974358974365,4265.128205128206,4314.358974358975,4392.307692307693,4352.820512820514,1678.0,1689.0,1655.572,1542.0595703125,0.0,0.0,0.0,0.0
1653908,18.0,0.0,0.0,4512.307692307693,4172.307692307693,4327.179487179487,4815.8974358974365,3769.7435897435903,4219.48717948718,4249.74358974359,3989.23076923077,4361.025641025642,4055.3846153846157,4265.128205128206,4310.769230769231,4388.205128205129,4345.128205128206,1679.0,1690.0,1655.579,1542.0595703125,0.0,0.0,0.0,0.0
1653908,19.0,0.0,0.0,4516.410256410257,4176.923076923077,4329.743589743591,4814.358974358975,3772.307692307693,4226.666666666667,4253.333333333334,3997.9487179487182,4369.2307692307695,4062.564102564103,4264.615384615385,4307.6923076923085,4391.794871794872,4342.051282051282,1679.0,1688.0,1655.587,1542.0595703125,0.0,0.0,0.0,0.0
1653908,20.0,0.0,0.0,4525.128205128206,4187.6923076923085,4336.410256410257,4813.846153846154,3773.8461538461543,4218.974358974359,4255.384615384616,4003.076923076924,4382.051282051282,4077.9487179487187,4265.641025641026,4315.384615384616,4401.538461538462,4352.820512820514,1679.0,1688.0,1655.595,1542.0595703125,0.0,0.0,0.0,0.0
1653908,21.0,0.0,0.0,4521.538461538462,4186.153846153847,4334.358974358975,4806.153846153847,3774.358974358975,4220.000000000001,4255.384615384616,4004.615384615385,4381.538461538462,4079.48717948718,4265.128205128206,4319.48717948718,4400.000000000001,4357.435897435898,1680.0,1687.0,1655.603,1542.0595703125,0.0,0.0,0.0,0.0
1653909,22.0,0.0,0.0,4508.205128205129,4173.333333333334,4323.589743589744,4814.358974358975,3774.358974358975,4230.769230769231,4255.384615384616,4004.615384615385,4377.948717948719,4066.1538461538466,4266.153846153847,4313.846153846154,4385.641025641026,4345.641025641026,1680.0,1687.0,1655.611,1542.0595703125,0.0,0.0,0.0,0.0
1653909,23.0,0.0,0.0,4508.205128205129,4174.871794871796,4323.589743589744,4818.461538461539,3772.820512820513,4224.102564102564,4255.384615384616,3996.9230769230776,4383.589743589744,4065.6410256410263,4266.153846153847,4312.820512820514,4386.153846153847,4344.615384615385,1682.0,1687.0,1655.62,1542.0595703125,0.0,0.0,0.0,0.0
1653909,24.0,0.0,0.0,4526.666666666667,4189.2307692307695,4331.794871794872,4813.846153846154,3774.358974358975,4208.205128205129,4254.358974358975,3994.358974358975,4389.743589743591,4080.0000000000005,4266.666666666667,4320.512820512821,4399.48717948718,4356.410256410257,1682.0,1687.0,1655.626,1542.0595703125,0.0,0.0,0.0,0.0
1653909,25.0,0.0,0.0,4531.794871794872,4192.307692307693,4332.820512820514,4815.384615384616,3777.9487179487182,4209.2307692307695,4254.358974358975,4001.0256410256416,4395.384615384616,4084.615384615385,4268.205128205129,4322.051282051282,4403.589743589744,4358.461538461539,1682.0,1686.0,1655.635,1542.0595703125,0.0,0.0,0.0,0.0
1653909,26.0,0.0,0.0,4515.384615384616,4181.025641025642,4328.205128205129,4810.256410256411,3777.435897435898,4220.512820512821,4257.948717948719,3999.48717948718,4396.923076923077,4076.9230769230776,4264.102564102564,4313.333333333334,4394.358974358975,4350.769230769231,1683.0,1687.0,1655.642,1542.0595703125,0.0,0.0,0.0,0.0
1653909,27.0,0.0,0.0,4504.615384615385,4172.820512820514,4321.538461538462,4815.8974358974365,3772.307692307693,4221.025641025642,4254.871794871796,3988.717948717949,4381.025641025642,4070.2564102564106,4264.102564102564,4309.743589743591,4385.128205128206,4343.076923076924,1682.0,1686.0,1655.65,1542.0595703125,0.0,0.0,0.0,0.0
1653909,28.0,0.0,0.0,4510.256410256411,4176.923076923077,4319.48717948718,4820.000000000001,3771.2820512820517,4218.974358974359,4250.256410256411,3988.717948717949,4370.769230769231,4071.2820512820517,4267.179487179487,4311.282051282052,4386.666666666667,4342.051282051282,1681.0,1686.0,1655.658,1542.0595703125,0.0,0.0,0.0,0.0
1654037,29.0,0.0,0.0,4516.923076923077,4181.538461538462,4325.641025641026,4812.307692307693,3774.8717948717954,4226.666666666667,4256.410256410257,4000.5128205128212,4383.076923076924,4072.820512820513,4267.6923076923085,4313.333333333334,4391.794871794872,4347.179487179487,1680.0,1686.0,1655.665,1542.1846923828125,0.0,0.0,0.0,0.0
1654037,30.0,0.0,0.0,4519.48717948718,4180.512820512821,4329.2307692307695,4813.846153846154,3775.3846153846157,4229.2307692307695,4257.948717948719,4000.5128205128212,4388.717948717949,4069.7435897435903,4266.153846153847,4316.923076923077,4394.871794871796,4356.410256410257,1680.0,1687.0,1655.673,1542.1846923828125,0.0,0.0,0.0,0.0
1654037,31.0,0.0,0.0,4524.615384615385,4183.076923076924,4331.794871794872,4811.282051282052,3773.8461538461543,4221.538461538462,4254.871794871796,3987.692307692308,4385.128205128206,4074.358974358975,4263.589743589744,4318.974358974359,4399.48717948718,4361.538461538462,1679.0,1686.0,1655.681,1542.1846923828125,0.0,0.0,0.0,0.0
1654038,32.0,0.0,0.0,4526.666666666667,4183.076923076924,4336.923076923077,4813.333333333334,3776.410256410257,4215.8974358974365,4259.48717948718,3977.9487179487182,4385.641025641026,4080.0000000000005,4265.641025641026,4318.461538461539,4396.410256410257,4356.923076923077,1678.0,1686.0,1655.689,1542.1846923828125,0.0,0.0,0.0,0.0
1654038,33.0,0.0,0.0,4527.179487179488,4181.025641025642,4338.461538461539,4813.846153846154,3777.435897435898,4218.461538461539,4264.615384615385,3976.410256410257,4389.2307692307695,4076.9230769230776,4264.102564102564,4317.948717948719,4391.794871794872,4353.846153846154,1678.0,1684.0,1655.697,1542.1846923828125,0.0,0.0,0.0,0.0
1654038,34.0,0.0,0.0,4525.128205128206,4178.974358974359,4331.794871794872,4809.2307692307695,3774.358974358975,4220.512820512821,4262.051282051282,3977.9487179487182,4397.435897435898,4071.2820512820517,4260.000000000001,4315.8974358974365,4388.205128205129,4351.282051282052,1677.0,1685.0,1655.705,1542.1846923828125,0.0,0.0,0.0,0.0
1654038,35.0,0.0,0.0,4514.871794871796,4172.307692307693,4325.128205128206,4814.871794871796,3773.333333333334,4217.435897435898,4257.948717948719,3975.8974358974365,4392.820512820514,4066.1538461538466,4264.615384615385,4313.846153846154,4370.256410256411,4343.589743589744,1677.0,1683.0,1655.712,1542.1846923828125,0.0,0.0,0.0,0.0
1654038,36.0,0.0,0.0,4515.8974358974365,4173.333333333334,4330.256410256411,4811.282051282052,3775.3846153846157,4215.8974358974365,4260.512820512821,3974.358974358975,4378.974358974359,4067.1794871794878,4264.615384615385,4317.435897435898,4369.2307692307695,4343.589743589744,1675.0,1685.0,1655.72,1542.1846923828125,0.0,0.0,0.0,0.0
1654039,37.0,0.0,0.0,4527.6923076923085,4179.48717948718,4334.871794871796,4812.820512820514,3774.358974358975,4218.974358974359,4262.051282051282,3976.410256410257,4376.410256410257,4071.2820512820517,4262.564102564103,4325.641025641026,4395.384615384616,4351.794871794872,1677.0,1685.0,1655.728,1542.1846923828125,0.0,0.0,0.0,0.0
1654039,38.0,0.0,0.0,4525.641025641026,4171.794871794872,4324.615384615385,4815.8974358974365,3770.7692307692314,4226.153846153847,4258.974358974359,3977.9487179487182,4380.512820512821,4067.692307692308,4264.615384615385,4322.564102564103,4405.128205128206,4351.282051282052,1675.0,1685.0,1655.736,1542.1846923828125,0.0,0.0,0.0,0.0
1654040,39.0,0.0,0.0,4512.307692307693,4159.48717948718,4317.435897435898,4808.205128205129,3767.1794871794878,4225.128205128206,4259.48717948718,3978.461538461539,4382.051282051282,4065.1282051282055,4264.615384615385,4313.846153846154,4394.358974358975,4343.589743589744,1676.0,1687.0,1655.744,1542.1846923828125,0.0,0.0,0.0,0.0
1654040,40.0,0.0,0.0,4507.6923076923085,4157.435897435898,4320.000000000001,4814.358974358975,3764.615384615385,4214.871794871796,4257.435897435898,3978.461538461539,4382.051282051282,4069.7435897435903,4264.615384615385,4317.435897435898,4391.282051282052,4343.076923076924,1677.0,1687.0,1655.753,1542.1846923828125,0.0,0.0,0.0,0.0
1654041,41.0,0.0,0.0,4509.2307692307695,4158.974358974359,4320.000000000001,4815.384615384616,3767.692307692308,4218.461538461539,4258.974358974359,3980.5128205128212,4387.179487179487,4075.8974358974365,4261.025641025642,4322.051282051282,4395.384615384616,4347.179487179487,1676.0,1686.0,1655.759,1542.1846923828125,0.0,0.0,0.0,0.0
1654041,42.0,0.0,0.0,4504.615384615385,4155.8974358974365,4315.384615384616,4810.769230769231,3771.2820512820517,4231.794871794872,4264.102564102564,3981.0256410256416,4393.846153846154,4075.8974358974365,4263.076923076924,4318.974358974359,4391.282051282052,4345.128205128206,1676.0,1686.0,1655.769,1542.1846923828125,0.0,0.0,0.0,0.0
1654041,43.0,0.0,0.0,4499.48717948718,4150.769230769231,4313.333333333334,4812.820512820514,3770.2564102564106,4233.333333333334,4263.589743589744,3977.435897435898,4388.205128205129,4067.1794871794878,4266.666666666667,4315.8974358974365,4383.589743589744,4340.512820512821,1676.0,1687.0,1655.775,1542.1846923828125,0.0,0.0,0.0,0.0
1654041,44.0,0.0,0.0,4497.948717948719,4149.2307692307695,4310.256410256411,4809.743589743591,3770.7692307692314,4230.769230769231,4261.538461538462,3971.7948717948725,4371.282051282052,4063.589743589744,4263.589743589744,4317.435897435898,4384.102564102564,4343.076923076924,1677.0,1687.0,1655.784,1542.1846923828125,0.0,0.0,0.0,0.0
1654062,45.0,0.0,0.0,4503.076923076924,4156.410256410257,4313.333333333334,4816.923076923077,3772.307692307693,4226.666666666667,4261.025641025642,3977.435897435898,4373.846153846154,4077.9487179487187,4264.615384615385,4324.102564102564,4399.48717948718,4356.410256410257,1676.0,1688.0,1655.791,1542.309814453125,0.0,0.0,0.0,0.0
1654062,46.0,0.0,0.0,4513.333333333334,4169.74358974359,4327.6923076923085,4816.923076923077,3773.8461538461543,4222.051282051282,4262.051282051282,3995.3846153846157,4400.512820512821,4095.8974358974365,4266.666666666667,4330.256410256411,4417.435897435898,4366.666666666667,1678.0,1687.0,1655.799,1542.309814453125,0.0,0.0,0.0,0.0
1654062,47.0,0.0,0.0,4519.48717948718,4173.333333333334,4334.871794871796,4810.256410256411,3776.410256410257,4229.2307692307695,4265.641025641026,3997.9487179487182,4404.615384615385,4097.948717948719,4265.641025641026,4329.743589743591,4417.435897435898,4366.153846153847,1677.0,1687.0,1655.806,1542.309814453125,0.0,0.0,0.0,0.0
1654062,48.0,0.0,0.0,4519.48717948718,4166.153846153847,4329.743589743591,4812.307692307693,3778.9743589743593,4235.384615384616,4267.179487179487,3984.1025641025644,4390.769230769231,4086.1538461538466,4264.615384615385,4323.076923076924,4406.153846153847,4361.025641025642,1678.0,1688.0,1655.814,1542.309814453125,0.0,0.0,0.0,0.0
1654157,49.0,0.0,0.0,4518.974358974359,4165.641025641026,4331.282051282052,4809.2307692307695,3777.435897435898,4226.666666666667,4262.564102564103,3990.7692307692314,4395.384615384616,4087.1794871794878,4265.128205128206,4322.564102564103,4407.179487179487,4362.051282051282,1678.0,1686.0,1655.822,1542.341064453125,0.0,0.0,0.0,0.0
1654157,50.0,0.0,0.0,4516.410256410257,4172.307692307693,4334.358974358975,4815.8974358974365,3772.820512820513,4220.512820512821,4258.974358974359,3994.8717948717954,4400.512820512821,4092.820512820513,4266.153846153847,4328.717948717949,4410.256410256411,4367.179487179487,1679.0,1687.0,1655.83,1542.341064453125,0.0,0.0,0.0,0.0
1654157,51.0,0.0,0.0,4510.769230769231,4168.717948717949,4327.6923076923085,4817.435897435898,3770.7692307692314,4225.641025641026,4264.615384615385,3988.205128205129,4391.794871794872,4086.666666666667,4263.076923076924,4323.589743589744,4401.025641025642,4363.589743589744,1680.0,1686.0,1655.838,1542.341064453125,0.0,0.0,0.0,0.0
1654158,52.0,0.0,0.0,4511.282051282052,4161.538461538462,4322.564102564103,4808.717948717949,3771.2820512820517,4223.589743589744,4270.769230769231,4040.5128205128212,4393.846153846154,4084.1025641025644,4262.051282051282,4315.8974358974365,4394.871794871796,4357.948717948719,1680.0,1687.0,1655.845,1542.341064453125,0.0,0.0,0.0,0.0
1654158,53.0,0.0,0.0,4512.307692307693,4162.051282051282,4321.538461538462,4812.307692307693,3774.358974358975,4218.461538461539,4269.2307692307695,4130.256410256411,4406.153846153847,4091.2820512820517,4264.615384615385,4318.974358974359,4398.461538461539,4357.948717948719,1681.0,1687.0,1655.853,1542.341064453125,0.0,0.0,0.0,0.0
1654158,54.0,0.0,0.0,4511.282051282052,4165.641025641026,4322.051282051282,4812.820512820514,3772.820512820513,4224.615384615385,4265.641025641026,4153.333333333334,4402.564102564103,4090.7692307692314,4265.641025641026,4318.974358974359,4397.948717948719,4358.461538461539,1682.0,1688.0,1655.861,1542.341064453125,0.0,0.0,0.0,0.0
1654158,55.0,0.0,0.0,4510.769230769231,4163.589743589744,4323.589743589744,4813.333333333334,3768.717948717949,4225.128205128206,4260.000000000001,4121.025641025642,4386.153846153847,4079.48717948718,4267.179487179487,4313.333333333334,4391.282051282052,4354.358974358975,1683.0,1687.0,1655.869,1542.341064453125,0.0,0.0,0.0,0.0
1654158,56.0,0.0,0.0,4509.2307692307695,4158.974358974359,4321.538461538462,4811.282051282052,3768.717948717949,4220.000000000001,4258.974358974359,4118.461538461539,4382.564102564103,4075.3846153846157,4266.153846153847,4313.333333333334,4388.205128205129,4350.256410256411,1682.0,1688.0,1655.877,1542.341064453125,0.0,0.0,0.0,0.0
1654158,57.0,0.0,0.0,4508.205128205129,4158.974358974359,4318.461538461539,4805.128205128206,3770.2564102564106,4218.974358974359,4263.076923076924,4145.641025641026,4394.358974358975,4080.5128205128212,4263.589743589744,4316.923076923077,4389.743589743591,4351.794871794872,1684.0,1687.0,1655.885,1542.341064453125,0.0,0.0,0.0,0.0
1654159,58.0,0.0,0.0,4512.307692307693,4160.512820512821,4318.974358974359,4815.8974358974365,3769.7435897435903,4212.820512820514,4261.538461538462,4154.871794871796,4394.358974358975,4082.564102564103,4265.641025641026,4316.923076923077,4392.307692307693,4353.846153846154,1682.0,1687.0,1655.892,1542.341064453125,0.0,0.0,0.0,0.0
1654159,59.0,0.0,0.0,4515.384615384616,4165.128205128206,4323.076923076924,4813.333333333334,3768.205128205129,4209.74358974359,4258.461538461539,4141.025641025642,4384.615384615385,4080.0000000000005,4266.153846153847,4312.307692307693,4395.384615384616,4354.358974358975,1683.0,1687.0,1655.901,1542.341064453125,0.0,0.0,0.0,0.0
1654159,60.0,0.0,0.0,4513.333333333334,4165.641025641026,4325.641025641026,4807.6923076923085,3770.2564102564106,4220.000000000001,4258.974358974359,4131.794871794872,4383.589743589744,4076.9230769230776,4266.666666666667,4312.307692307693,4392.820512820514,4354.871794871796,1682.0,1686.0,1655.908,1542.341064453125,0.0,0.0,0.0,0.0
1654285,61.0,0.0,0.0,4514.871794871796,4161.538461538462,4323.589743589744,4814.358974358975,3772.307692307693,4224.102564102564,4258.974358974359,4137.948717948719,4383.076923076924,4076.410256410257,4267.179487179487,4317.948717948719,4387.6923076923085,4357.435897435898,1681.0,1687.0,1655.916,1542.4349365234375,0.0,0.0,0.0,0.0
1654286,62.0,0.0,0.0,4516.410256410257,4163.589743589744,4321.538461538462,4810.769230769231,3769.7435897435903,4217.948717948719,4258.461538461539,4142.051282051282,4387.179487179487,4080.0000000000005,4264.102564102564,4317.435897435898,4390.256410256411,4358.974358974359,1681.0,1686.0,1655.925,1542.4349365234375,0.0,0.0,0.0,0.0
1654287,63.0,0.0,0.0,4515.384615384616,4166.666666666667,4326.666666666667,4813.846153846154,3767.1794871794878,4211.282051282052,4255.8974358974365,4141.025641025642,4393.333333333334,4082.0512820512827,4265.641025641026,4318.461538461539,4396.410256410257,4361.538461538462,1680.0,1687.0,1655.931,1542.4349365234375,0.0,0.0,0.0,0.0
1654287,64.0,0.0,512.0,4517.948717948719,4165.128205128206,4330.769230769231,4814.358974358975,3771.2820512820517,4217.435897435898,4259.48717948718,4148.717948717949,4382.564102564103,4076.9230769230776,4267.6923076923085,4322.051282051282,4397.435897435898,4365.128205128206,1679.0,1686.0,1655.939,1542.4349365234375,0.0,0.0,0.0,0.0
1654287,65.0,0.0,0.0,4521.025641025642,4165.128205128206,4327.179487179487,4811.282051282052,3776.9230769230776,4233.846153846154,4268.205128205129,4151.794871794872,4380.512820512821,4076.9230769230776,4268.205128205129,4323.589743589744,4396.410256410257,4369.2307692307695,1679.0,1687.0,1655.948,1542.4349365234375,0.0,0.0,0.0,0.0
1654287,66.0,0.0,509.0,4528.205128205129,4171.794871794872,4332.307692307693,4811.794871794872,3776.410256410257,4233.846153846154,4269.2307692307695,4155.384615384616,4401.538461538462,4092.307692307693,4269.74358974359,4327.179487179487,4405.641025641026,4375.384615384616,1678.0,1686.0,1655.955,1542.4349365234375,0.0,0.0,0.0,0.0
1654287,67.0,0.0,531.0,4532.307692307693,4178.461538461539,4342.051282051282,4809.2307692307695,3777.435897435898,4224.102564102564,4267.6923076923085,4165.641025641026,4410.256410256411,4103.076923076924,4266.153846153847,4327.6923076923085,4413.333333333334,4376.923076923077,1677.0,1686.0,1655.964,1542.4349365234375,0.0,0.0,0.0,0.0
1654288,68.0,0.0,501.0,4522.564102564103,4171.794871794872,4332.820512820514,4816.410256410257,3780.0000000000005,4228.717948717949,4270.256410256411,4127.6923076923085,4402.564102564103,4093.333333333334,4265.128205128206,4323.076923076924,4403.076923076924,4368.205128205129,1677.0,1685.0,1655.971,1542.4349365234375,0.0,0.0,0.0,0.0
1654288,69.0,0.0,551.0,4515.384615384616,4167.179487179487,4325.128205128206,4813.846153846154,3778.9743589743593,4238.974358974359,4270.769230769231,4041.538461538462,4398.461538461539,4083.589743589744,4265.128205128206,4318.974358974359,4396.410256410257,4362.564102564103,1676.0,1685.0,1655.979,1542.4349365234375,0.0,0.0,0.0,0.0
1654288,70.0,0.0,547.0,4529.2307692307695,4178.974358974359,4337.435897435898,4808.717948717949,3778.9743589743593,4229.74358974359,4264.615384615385,3992.820512820513,4390.769230769231,4087.692307692308,4263.589743589744,4320.512820512821,4407.6923076923085,4367.179487179487,1677.0,1686.0,1655.986,1542.4349365234375,0.0,0.0,0.0,0.0
1654288,71.0,0.0,340.0,4538.461538461539,4189.74358974359,4347.179487179487,4812.307692307693,3780.512820512821,4213.333333333334,4262.564102564103,4001.0256410256416,4385.641025641026,4092.820512820513,4263.076923076924,4325.641025641026,4414.871794871796,4372.820512820514,1678.0,1686.0,1655.994,1542.4349365234375,0.0,0.0,0.0,0.0
1654288,72.0,0.0,457.0,4528.205128205129,4184.102564102564,4342.051282051282,4809.743589743591,3778.9743589743593,4218.974358974359,4266.666666666667,4009.7435897435903,4397.948717948719,4091.7948717948725,4263.589743589744,4323.589743589744,4407.6923076923085,4366.666666666667,1677.0,1688.0,1656.003,1542.4349365234375,0.0,0.0,0.0,0.0
1654288,73.0,0.0,477.0,4520.000000000001,4174.871794871796,4336.410256410257,4815.8974358974365,3779.48717948718,4230.256410256411,4266.666666666667,4006.1538461538466,4404.102564102564,4089.7435897435903,4266.153846153847,4322.051282051282,4403.076923076924,4361.538461538462,1678.0,1687.0,1656.011,1542.4349365234375,0.0,0.0,0.0,0.0
1654288,74.0,0.0,494.0,4528.717948717949,4178.461538461539,4340.512820512821,4816.410256410257,3786.1538461538466,4235.384615384616,4270.256410256411,4011.2820512820517,4405.128205128206,4101.025641025642,4264.615384615385,4326.666666666667,4412.307692307693,4373.846153846154,1678.0,1688.0,1656.017,1542.4349365234375,0.0,0.0,0.0,0.0
1654288,75.0,0.0,488.0,4536.923076923077,4188.717948717949,4351.282051282052,4809.2307692307695,3791.2820512820517,4240.000000000001,4278.974358974359,4011.7948717948725,4412.307692307693,4111.794871794872,4263.076923076924,4330.256410256411,4421.025641025642,4383.076923076924,1680.0,1687.0,1656.025,1542.4349365234375,0.0,0.0,0.0,0.0
1654289,76.0,0.0,0.0,4536.410256410257,4190.256410256411,4355.384615384616,4813.333333333334,3787.692307692308,4236.410256410257,4275.8974358974365,4004.615384615385,4408.205128205129,4105.641025641026,4266.666666666667,4330.256410256411,4418.461538461539,4375.8974358974365,1679.0,1685.0,1656.035,1542.4349365234375,0.0,0.0,0.0,0.0
1654402,77.0,0.0,318.0,4535.384615384616,4186.153846153847,4351.794871794872,4811.282051282052,3781.538461538462,4228.205128205129,4269.74358974359,4020.5128205128212,4408.717948717949,4101.538461538462,4266.666666666667,4328.717948717949,4417.948717948719,4376.410256410257,1680.0,1685.0,1656.041,1542.56005859375,0.0,0.0,0.0,0.0
1654402,78.0,0.0,494.0,4535.384615384616,4185.128205128206,4348.205128205129,4811.794871794872,3783.076923076924,4229.2307692307695,4275.384615384616,4049.7435897435903,4416.410256410257,4105.641025641026,4267.179487179487,4328.717948717949,4421.025641025642,4383.589743589744,1681.0,1686.0,1656.049,1542.56005859375,0.0,0.0,0.0,0.0
1654402,79.0,0.0,488.0,4534.358974358975,4187.179487179487,4347.179487179487,4814.871794871796,3791.2820512820517,4235.384615384616,4281.538461538462,4053.8461538461543,4410.256410256411,4106.153846153847,4266.153846153847,4328.717948717949,4418.461538461539,4381.025641025642,1683.0,1686.0,1656.056,1542.56005859375,0.0,0.0,0.0,0.0
1654402,80.0,0.0,0.0,4533.846153846154,4186.153846153847,4345.641025641026,4809.2307692307695,3791.7948717948725,4232.307692307693,4277.435897435898,4045.1282051282055,4403.589743589744,4104.615384615385,4264.102564102564,4324.615384615385,4414.358974358975,4374.871794871796,1683.0,1687.0,1656.064,1542.56005859375,0.0,0.0,0.0,0.0
1654402,81.0,0.0,318.0,4533.846153846154,4183.589743589744,4344.102564102564,4814.358974358975,3787.1794871794878,4227.6923076923085,4273.846153846154,4053.333333333334,4412.307692307693,4106.666666666667,4265.128205128206,4325.128205128206,4416.410256410257,4378.461538461539,1683.0,1688.0,1656.072,1542.56005859375,0.0,0.0,0.0,0.0
1654403,82.0,0.0,494.0,4534.871794871796,4188.205128205129,4347.6923076923085,4813.846153846154,3789.7435897435903,4232.307692307693,4277.435897435898,4058.9743589743593,4412.820512820514,4110.256410256411,4264.615384615385,4328.717948717949,4421.538461538462,4385.641025641026,1683.0,1687.0,1656.08,1542.56005859375,0.0,0.0,0.0,0.0
1654403,83.0,0.0,488.0,4534.358974358975,4190.769230769231,4347.6923076923085,4812.820512820514,3791.2820512820517,4235.384615384616,4277.948717948719,4045.6410256410263,4397.948717948719,4107.6923076923085,4265.128205128206,4327.6923076923085,4421.538461538462,4382.564102564103,1683.0,1686.0,1656.088,1542.56005859375,0.0,0.0,0.0,0.0
1654403,84.0,0.0,0.0,4532.820512820514,4185.641025641026,4337.435897435898,4816.410256410257,3783.589743589744,4232.307692307693,4272.307692307693,4035.3846153846157,4395.384615384616,4100.000000000001,4267.179487179487,4320.512820512821,4416.410256410257,4374.358974358975,1681.0,1686.0,1656.096,1542.56005859375,0.0,0.0,0.0,0.0
1654403,85.0,0.0,318.0,4528.205128205129,4180.512820512821,4331.282051282052,4811.794871794872,3775.3846153846157,4228.205128205129,4266.666666666667,4042.0512820512827,4406.666666666667,4097.435897435898,4264.102564102564,4317.948717948719,4416.923076923077,4372.307692307693,1681.0,1686.0,1656.103,1542.56005859375,0.0,0.0,0.0,0.0
1654404,86.0,0.0,494.0,4522.051282051282,4177.435897435898,4333.846153846154,4816.410256410257,3777.9487179487182,4225.128205128206,4268.717948717949,4055.8974358974365,4415.8974358974365,4103.589743589744,4263.589743589744,4324.615384615385,4421.025641025642,4376.410256410257,1679.0,1687.0,1656.111,1542.56005859375,0.0,0.0,0.0,0.0
1654405,87.0,0.0,488.0,4526.153846153847,4181.538461538462,4340.512820512821,4814.358974358975,3786.1538461538466,4230.256410256411,4275.384615384616,4060.5128205128212,4424.102564102564,4111.282051282052,4265.641025641026,4329.743589743591,4426.153846153847,4379.48717948718,1680.0,1687.0,1656.119,1542.56005859375,0.0,0.0,0.0,0.0
1654405,88.0,0.0,0.0,4539.48717948718,4190.256410256411,4348.205128205129,4810.256410256411,3790.2564102564106,4235.384615384616,4277.435897435898,4053.8461538461543,4424.615384615385,4113.846153846154,4265.641025641026,4331.282051282052,4429.743589743591,4380.000000000001,1678.0,1686.0,1656.127,1542.56005859375,0.0,0.0,0.0,0.0
1654405,89.0,0.0,318.0,4545.128205128206,4191.282051282052,4352.307692307693,4814.358974358975,3790.7692307692314,4228.717948717949,4272.307692307693,4048.717948717949,4417.948717948719,4111.282051282052,4264.102564102564,4329.743589743591,4427.6923076923085,4381.538461538462,1677.0,1687.0,1656.135,1542.56005859375,0.0,0.0,0.0,0.0
1654406,90.0,0.0,494.0,4534.358974358975,4180.512820512821,4345.641025641026,4810.256410256411,3788.205128205129,4227.179487179487,4270.256410256411,4046.666666666667,4418.974358974359,4106.153846153847,4264.102564102564,4325.641025641026,4418.974358974359,4380.512820512821,1677.0,1685.0,1656.142,1542.56005859375,0.0,0.0,0.0,0.0
1654406,91.0,0.0,488.0,4526.153846153847,4172.820512820514,4337.435897435898,4817.435897435898,3784.615384615385,4232.820512820514,4272.820512820514,4041.0256410256416,4420.512820512821,4101.025641025642,4267.179487179487,4326.666666666667,4412.820512820514,4376.410256410257,1677.0,1686.0,1656.15,1542.56005859375,0.0,0.0,0.0,0.0
1654406,92.0,0.0,0.0,4531.282051282052,4179.48717948718,4341.538461538462,4819.48717948718,3784.615384615385,4230.769230769231,4273.846153846154,4033.333333333334,4412.820512820514,4102.051282051282,4266.666666666667,4329.2307692307695,4418.461538461539,4377.948717948719,1678.0,1685.0,1656.158,1542.56005859375,0.0,0.0,0.0,0.0
1654531,93.0,0.0,318.0,4533.333333333334,4183.589743589744,4343.589743589744,4811.794871794872,3785.1282051282055,4229.2307692307695,4272.307692307693,4030.7692307692314,4402.564102564103,4102.051282051282,4264.102564102564,4325.128205128206,4417.948717948719,4374.871794871796,1677.0,1687.0,1656.166,1542.6851806640625,0.0,0.0,0.0,0.0
1654531,94.0,0.0,494.0,4525.128205128206,4176.923076923077,4334.358974358975,4812.820512820514,3786.1538461538466,4234.358974358975,4271.794871794872,4035.3846153846157,4398.974358974359,4094.358974358975,4266.153846153847,4324.102564102564,4407.179487179487,4366.153846153847,1679.0,1687.0,1656.174,1542.6851806640625,0.0,0.0,0.0,0.0
1654531,95.0,0.0,488.0,4524.615384615385,4177.948717948719,4334.358974358975,4810.769230769231,3790.2564102564106,4235.8974358974365,4277.435897435898,4043.589743589744,4407.179487179487,4096.410256410257,4267.179487179487,4329.2307692307695,4412.820512820514,4374.871794871796,1679.0,1686.0,1656.182,1542.6851806640625,0.0,0.0,0.0,0.0
1654531,96.0,0.0,0.0,4524.615384615385,4182.051282051282,4338.974358974359,4815.384615384616,3789.2307692307695,4235.384615384616,4277.948717948719,4043.589743589744,4412.307692307693,4100.000000000001,4268.717948717949,4330.256410256411,4421.538461538462,4382.564102564103,1680.0,1685.0,1656.19,1542.6851806640625,0.0,0.0,0.0,0.0
1654531,97.0,0.0,318.0,4516.410256410257,4179.48717948718,4335.384615384616,4815.384615384616,3784.1025641025644,4237.435897435898,4274.358974358975,4032.307692307693,4406.153846153847,4092.820512820513,4264.102564102564,4324.615384615385,4410.769230769231,4369.743589743591,1681.0,1685.0,1656.197,1542.6851806640625,0.0,0.0,0.0,0.0
1654531,98.0,0.0,494.0,4513.333333333334,4174.871794871796,4329.2307692307695,4809.743589743591,3782.0512820512827,4232.307692307693,4274.871794871796,4025.1282051282055,4398.974358974359,4084.1025641025644,4259.48717948718,4321.538461538462,4398.974358974359,4356.923076923077,1683.0,1685.0,1656.206,1542.6851806640625,0.0,0.0,0.0,0.0
1654531,99.0,0.0,488.0,4511.794871794872,4165.128205128206,4321.538461538462,4814.358974358975,3781.538461538462,4226.153846153847,4270.769230769231,4022.0512820512827,4387.6923076923085,4071.7948717948725,4263.589743589744,4319.48717948718,4391.282051282052,4353.846153846154,1683.0,1685.0,1656.214,1542.6851806640625,0.0,0.0,0.0,0.0
1654532,100.0,0.0,0.0,4512.820512820514,4164.102564102564,4324.615384615385,4811.282051282052,3783.076923076924,4230.256410256411,4270.769230769231,4023.589743589744,4386.153846153847,4071.2820512820517,4265.128205128206,4318.461538461539,4394.358974358975,4358.461538461539,1684.0,1686.0,1656.221,1542.6851806640625,0.0,0.0,0.0,0.0
1654532,101.0,0.0,318.0,4527.6923076923085,4184.615384615385,4342.564102564103,4810.256410256411,3791.7948717948725,4233.333333333334,4277.435897435898,4031.7948717948725,4405.128205128206,4093.333333333334,4265.128205128206,4327.179487179487,4415.8974358974365,4373.333333333334,1685.0,1685.0,1656.229,1542.6851806640625,0.0,0.0,0.0,0.0
1654532,102.0,0.0,494.0,4540.512820512821,4198.461538461539,4351.794871794872,4810.769230769231,3794.8717948717954,4231.794871794872,4277.948717948719,4034.8717948717954,4414.871794871796,4103.589743589744,4262.051282051282,4331.282051282052,4427.6923076923085,4383.076923076924,1684.0,1687.0,1656.236,1542.6851806640625,0.0,0.0,0.0,0.0
1654532,103.0,0.0,488.0,4536.923076923077,4191.282051282052,4346.153846153847,4808.205128205129,3788.717948717949,4233.846153846154,4275.384615384616,4032.820512820513,4409.2307692307695,4095.3846153846157,4260.512820512821,4325.128205128206,4422.051282051282,4377.435897435898,1685.0,1686.0,1656.243,1542.6851806640625,0.0,0.0,0.0,0.0
1654532,104.0,0.0,0.0,4529.743589743591,4186.666666666667,4344.102564102564,4815.8974358974365,3790.2564102564106,4234.358974358975,4274.358974358975,4038.461538461539,4408.205128205129,4094.358974358975,4267.6923076923085,4323.589743589744,4422.051282051282,4370.256410256411,1682.0,1687.0,1656.253,1542.6851806640625,0.0,0.0,0.0,0.0
1654533,105.0,0.0,318.0,4527.179487179488,4191.794871794872,4346.153846153847,4813.333333333334,3793.333333333334,4234.871794871796,4272.307692307693,4046.666666666667,4405.641025641026,4097.435897435898,4266.153846153847,4324.102564102564,4426.666666666667,4367.6923076923085,1684.0,1686.0,1656.26,1542.6851806640625,0.0,0.0,0.0,0.0
1654533,106.0,0.0,494.0,4528.717948717949,4190.256410256411,4342.051282051282,4811.282051282052,3787.1794871794878,4236.410256410257,4267.179487179487,4049.7435897435903,4392.307692307693,4090.7692307692314,4262.564102564103,4323.076923076924,4423.589743589744,4367.6923076923085,1682.0,1685.0,1656.268,1542.6851806640625,0.0,0.0,0.0,0.0
1654533,107.0,0.0,488.0,4531.794871794872,4187.179487179487,4343.076923076924,4816.410256410257,3779.48717948718,4233.333333333334,4264.615384615385,4059.48717948718,4391.794871794872,4088.205128205129,4266.666666666667,4326.153846153847,4422.564102564103,4372.307692307693,1681.0,1685.0,1656.275,1542.6851806640625,0.0,0.0,0.0,0.0
1654533,108.0,0.0,0.0,4530.769230769231,4188.717948717949,4348.205128205129,4809.743589743591,3777.435897435898,4224.615384615385,4261.538461538462,4072.820512820513,4402.051282051282,4091.7948717948725,4264.615384615385,4328.205128205129,4426.153846153847,4376.410256410257,1681.0,1685.0,1656.283,1542.6851806640625,0.0,0.0,0.0,0.0
1654555,109.0,0.0,318.0,4527.179487179488,4185.641025641026,4344.615384615385,4813.333333333334,3780.512820512821,4216.410256410257,4256.410256410257,4080.0000000000005,4399.48717948718,4091.7948717948725,4263.589743589744,4326.153846153847,4425.128205128206,4375.8974358974365,1681.0,1685.0,1656.291,1542.8101806640625,0.0,0.0,0.0,0.0
1654555,110.0,0.0,494.0,4524.102564102564,4181.025641025642,4336.923076923077,4814.871794871796,3781.538461538462,4225.128205128206,4259.48717948718,4083.076923076924,4393.333333333334,4089.7435897435903,4266.666666666667,4321.025641025642,4423.076923076924,4370.769230769231,1680.0,1685.0,1656.299,1542.8101806640625,0.0,0.0,0.0,0.0
1654555,111.0,0.0,488.0,4520.000000000001,4176.923076923077,4331.282051282052,4810.256410256411,3779.48717948718,4237.435897435898,4265.128205128206,4080.0000000000005,4394.871794871796,4087.692307692308,4265.641025641026,4318.974358974359,4421.025641025642,4369.2307692307695,1681.0,1685.0,1656.307,1542.8101806640625,0.0,0.0,0.0,0.0
1654555,112.0,0.0,0.0,4521.538461538462,4178.461538461539,4330.256410256411,4810.769230769231,3778.9743589743593,4229.74358974359,4263.076923076924,4077.9487179487187,4402.051282051282,4088.205128205129,4264.102564102564,4322.051282051282,4422.051282051282,4374.871794871796,1680.0,1685.0,1656.315,1542.8101806640625,0.0,0.0,0.0,0.0
1654654,113.0,0.0,318.0,4529.2307692307695,4188.205128205129,4336.923076923077,4807.6923076923085,3781.538461538462,4223.589743589744,4265.128205128206,4075.3846153846157,4409.2307692307695,4096.410256410257,4264.615384615385,4327.6923076923085,4432.820512820514,4384.615384615385,1679.0,1687.0,1656.322,1542.841552734375,0.0,0.0,0.0,0.0
1654655,114.0,0.0,494.0,4530.256410256411,4191.282051282052,4344.615384615385,4815.384615384616,3785.6410256410263,4228.717948717949,4266.666666666667,4072.307692307693,4409.2307692307695,4102.051282051282,4265.128205128206,4333.333333333334,4441.025641025642,4388.717948717949,1681.0,1686.0,1656.33,1542.841552734375,0.0,0.0,0.0,0.0
1654655,115.0,0.0,488.0,4530.769230769231,4190.256410256411,4348.205128205129,4814.358974358975,3785.6410256410263,4225.641025641026,4263.076923076924,4080.5128205128212,4416.410256410257,4107.6923076923085,4264.615384615385,4333.333333333334,4442.564102564103,4393.846153846154,1679.0,1687.0,1656.338,1542.841552734375,0.0,0.0,0.0,0.0
1654655,116.0,0.0,0.0,4534.871794871796,4191.282051282052,4346.153846153847,4808.205128205129,3783.076923076924,4219.48717948718,4261.025641025642,4087.1794871794878,4423.589743589744,4110.256410256411,4266.153846153847,4328.717948717949,4441.538461538462,4397.435897435898,1681.0,1687.0,1656.346,1542.841552734375,0.0,0.0,0.0,0.0
1654656,117.0,0.0,318.0,4529.2307692307695,4186.666666666667,4337.435897435898,4814.871794871796,3780.0000000000005,4221.025641025642,4256.410256410257,4075.3846153846157,4403.076923076924,4095.8974358974365,4267.179487179487,4324.615384615385,4432.307692307693,4390.256410256411,1680.0,1685.0,1656.354,1542.841552734375,0.0,0.0,0.0,0.0
1654656,118.0,0.0,494.0,4513.846153846154,4174.871794871796,4323.589743589744,4811.794871794872,3777.435897435898,4227.6923076923085,4252.307692307693,4067.1794871794878,4382.564102564103,4080.5128205128212,4264.615384615385,4317.435897435898,4421.538461538462,4377.948717948719,1680.0,1685.0,1656.361,1542.841552734375,0.0,0.0,0.0,0.0
1654656,119.0,0.0,488.0,4507.179487179488,4168.205128205129,4317.948717948719,4813.846153846154,3777.9487179487182,4230.769230769231,4256.923076923077,4081.538461538462,4393.333333333334,4082.0512820512827,4265.641025641026,4317.948717948719,4417.948717948719,4376.410256410257,1680.0,1683.0,1656.369,1542.841552734375,0.0,0.0,0.0,0.0
1654656,120.0,0.0,0.0,4514.358974358975,4173.333333333334,4326.153846153847,4814.871794871796,3781.538461538462,4231.282051282052,4263.076923076924,4099.48717948718,4407.179487179487,4090.2564102564106,4265.641025641026,4326.666666666667,4423.076923076924,4388.717948717949,1679.0,1684.0,1656.377,1542.841552734375,0.0,0.0,0.0,0.0
1654656,121.0,0.0,318.0,4523.076923076924,4178.461538461539,4335.384615384616,4808.717948717949,3783.076923076924,4232.820512820514,4263.076923076924,4100.512820512821,4402.564102564103,4091.7948717948725,4264.102564102564,4327.6923076923085,4431.282051282052,4394.871794871796,1680.0,1684.0,1656.385,1542.841552734375,0.0,0.0,0.0,0.0
1654656,122.0,0.0,494.0,4524.102564102564,4177.948717948719,4334.871794871796,4812.820512820514,3781.538461538462,4235.8974358974365,4260.512820512821,4091.7948717948725,4399.48717948718,4089.7435897435903,4267.179487179487,4324.615384615385,4432.820512820514,4386.153846153847,1678.0,1685.0,1656.393,1542.841552734375,0.0,0.0,0.0,0.0
1654657,123.0,0.0,488.0,4523.076923076924,4177.948717948719,4335.384615384616,4812.820512820514,3783.076923076924,4238.461538461539,4262.051282051282,4093.333333333334,4408.205128205129,4094.358974358975,4267.6923076923085,4325.641025641026,4430.769230769231,4382.051282051282,1678.0,1684.0,1656.401,1542.841552734375,0.0,0.0,0.0,0.0
1654657,124.0,0.0,0.0,4523.076923076924,4178.974358974359,4336.410256410257,4816.923076923077,3787.1794871794878,4235.384615384616,4262.564102564103,4096.923076923077,4410.769230769231,4098.974358974359,4266.666666666667,4326.666666666667,4430.256410256411,4386.666666666667,1676.0,1685.0,1656.408,1542.841552734375,0.0,0.0,0.0,0.0
1654782,125.0,0.0,318.0,4523.076923076924,4181.538461538462,4331.794871794872,4816.923076923077,3790.7692307692314,4231.794871794872,4261.025641025642,4092.820512820513,4407.179487179487,4099.48717948718,4266.153846153847,4325.128205128206,4434.358974358975,4391.282051282052,1677.0,1684.0,1656.416,1542.935302734375,0.0,0.0,0.0,0.0
1654782,126.0,0.0,494.0,4523.589743589744,4186.153846153847,4331.282051282052,4807.179487179488,3789.2307692307695,4232.307692307693,4262.051282051282,4088.205128205129,4403.589743589744,4098.461538461539,4265.128205128206,4323.076923076924,4438.974358974359,4391.282051282052,1674.0,1685.0,1656.424,1542.935302734375,0.0,0.0,0.0,0.0
1654782,127.0,0.0,488.0,4526.666666666667,4187.179487179487,4339.48717948718,4812.307692307693,3784.615384615385,4232.307692307693,4263.076923076924,4082.564102564103,4393.333333333334,4093.8461538461543,4267.179487179487,4326.153846153847,4437.435897435898,4390.769230769231,1674.0,1685.0,1656.432,1542.935302734375,0.0,0.0,0.0,0.0
1654782,128.0,0.0,0.0,4531.282051282052,4189.74358974359,4345.641025641026,4813.333333333334,3786.1538461538466,4234.871794871796,4263.076923076924,4082.0512820512827,4396.410256410257,4094.358974358975,4268.205128205129,4329.2307692307695,4437.948717948719,4395.8974358974365,1673.0,1684.0,1656.44,1542.935302734375,0.0,0.0,0.0,0.0
1654782,0.0,0.0,512.0,4530.769230769231,4189.74358974359,4344.102564102564,4811.794871794872,3790.7692307692314,4233.333333333334,4263.076923076924,4089.23076923077,4414.871794871796,4102.564102564103,4267.6923076923085,4327.179487179487,4440.512820512821,4402.051282051282,1673.0,1686.0,1656.447,1542.935302734375,0.0,0.0,0.0,0.0
1654782,1.0,0.0,0.0,4523.589743589744,4181.538461538462,4338.974358974359,4813.333333333334,3791.7948717948725,4235.384615384616,4262.051282051282,4091.2820512820517,4415.384615384616,4101.025641025642,4268.205128205129,4324.102564102564,4434.871794871796,4398.974358974359,1675.0,1685.0,1656.455,1542.935302734375,0.0,0.0,0.0,0.0
1654783,2.0,0.0,509.0,4521.538461538462,4183.076923076924,4341.025641025642,4807.6923076923085,3796.410256410257,4248.205128205129,4263.589743589744,4090.2564102564106,4401.538461538462,4092.820512820513,4266.666666666667,4324.615384615385,4432.307692307693,4393.333333333334,1675.0,1686.0,1656.463,1542.935302734375,0.0,0.0,0.0,0.0
1654783,3.0,0.0,531.0,4522.564102564103,4191.282051282052,4345.128205128206,4814.871794871796,3802.564102564103,4248.205128205129,4263.589743589744,4094.358974358975,4400.000000000001,4091.2820512820517,4267.179487179487,4328.205128205129,4433.846153846154,4393.846153846154,1676.0,1685.0,1656.471,1542.935302734375,0.0,0.0,0.0,0.0
1654783,4.0,0.0,501.0,4514.358974358975,4185.128205128206,4344.615384615385,4816.923076923077,3800.0000000000005,4233.846153846154,4261.025641025642,4093.8461538461543,4404.102564102564,4092.307692307693,4266.153846153847,4327.179487179487,4430.256410256411,4398.974358974359,1677.0,1684.0,1656.479,1542.935302734375,0.0,0.0,0.0,0.0
1654783,5.0,0.0,551.0,4509.2307692307695,4177.948717948719,4349.2307692307695,4812.307692307693,3797.435897435898,4225.641025641026,4261.538461538462,4094.8717948717954,4408.205128205129,4094.358974358975,4267.179487179487,4331.282051282052,4433.333333333334,4407.6923076923085,1679.0,1683.0,1656.487,1542.935302734375,0.0,0.0,0.0,0.0
1654783,6.0,0.0,547.0,4511.794871794872,4184.615384615385,4357.435897435898,4813.846153846154,3805.1282051282055,4229.74358974359,4267.6923076923085,4103.589743589744,4418.461538461539,4103.076923076924,4265.641025641026,4336.410256410257,4442.564102564103,4415.8974358974365,1680.0,1683.0,1656.494,1542.935302734375,0.0,0.0,0.0,0.0
1654783,7.0,0.0,340.0,4507.6923076923085,4194.871794871796,4358.974358974359,4809.2307692307695,3811.2820512820517,4239.48717948718,4270.256410256411,4104.615384615385,4416.923076923077,4109.2307692307695,4260.000000000001,4333.846153846154,4445.128205128206,4417.948717948719,1681.0,1683.0,1656.503,1542.935302734375,0.0,0.0,0.0,0.0
1654783,8.0,0.0,457.0,4497.435897435898,4197.948717948719,4358.461538461539,4814.358974358975,3811.7948717948725,4241.025641025642,4264.102564102564,4097.948717948719,4400.000000000001,4106.153846153847,4265.128205128206,4332.307692307693,4444.102564102564,4417.948717948719,1682.0,1684.0,1656.51,1542.935302734375,0.0,0.0,0.0,0.0
1654783,9.0,0.0,477.0,4499.48717948718,4203.589743589744,4366.153846153847,4813.846153846154,3812.820512820513,4232.820512820514,4264.615384615385,4097.948717948719,4397.435897435898,4105.641025641026,4269.2307692307695,4333.333333333334,4447.6923076923085,4419.48717948718,1682.0,1684.0,1656.519,1542.935302734375,0.0,0.0,0.0,0.0
1654783,10.0,0.0,493.0,4508.205128205129,4211.282051282052,4376.410256410257,4806.153846153847,3811.7948717948725,4225.641025641026,4271.794871794872,4101.025641025642,4409.743589743591,4110.769230769231,4265.128205128206,4334.358974358975,4452.307692307693,4425.128205128206,1682.0,1684.0,1656.527,1542.935302734375,0.0,0.0,0.0,0.0
1654784,11.0,0.0,488.0,4501.538461538462,4205.641025641026,4372.307692307693,4811.282051282052,3809.7435897435903,4225.641025641026,4269.74358974359,4101.025641025642,4408.205128205129,4106.153846153847,4263.589743589744,4334.358974358975,4448.205128205129,4426.153846153847,1682.0,1684.0,1656.534,1542.935302734375,0.0,0.0,0.0,0.0
1654901,12.0,0.0,0.0,4486.666666666667,4192.820512820514,4359.48717948718,4811.282051282052,3807.692307692308,4228.717948717949,4269.2307692307695,4105.128205128206,4403.076923076924,4096.923076923077,4264.615384615385,4331.282051282052,4440.512820512821,4416.923076923077,1682.0,1684.0,1656.541,1543.0604248046875,0.0,0.0,0.0,0.0
1654901,13.0,0.0,318.0,4478.461538461539,4186.666666666667,4353.846153846154,4812.820512820514,3802.564102564103,4229.2307692307695,4270.769230769231,4105.128205128206,4405.128205128206,4091.7948717948725,4267.6923076923085,4329.2307692307695,4433.846153846154,4405.128205128206,1682.0,1683.0,1656.549,1543.0604248046875,0.0,0.0,0.0,0.0
1654901,14.0,0.0,493.0,4477.435897435898,4187.6923076923085,4354.358974358975,4814.871794871796,3801.0256410256416,4229.2307692307695,4266.153846153847,4099.48717948718,4408.717948717949,4090.7692307692314,4265.641025641026,4329.2307692307695,4432.820512820514,4403.589743589744,1682.0,1683.0,1656.557,1543.0604248046875,0.0,0.0,0.0,0.0
1654901,15.0,0.0,488.0,4477.948717948719,4191.794871794872,4355.384615384616,4809.743589743591,3802.0512820512827,4231.794871794872,4264.102564102564,4097.435897435898,4410.256410256411,4096.923076923077,4262.564102564103,4329.2307692307695,4440.000000000001,4410.769230769231,1683.0,1683.0,1656.565,1543.0604248046875,0.0,0.0,0.0,0.0
1654901,16.0,0.0,0.0,4475.8974358974365,4195.384615384616,4355.8974358974365,4811.282051282052,3804.615384615385,4232.820512820514,4265.128205128206,4094.8717948717954,4405.128205128206,4100.000000000001,4266.666666666667,4329.743589743591,4444.102564102564,4413.333333333334,1681.0,1684.0,1656.573,1543.0604248046875,0.0,0.0,0.0,0.0
1654901,17.0,0.0,0.0,4473.846153846154,4201.538461538462,4359.48717948718,4809.2307692307695,3808.717948717949,4233.846153846154,4265.128205128206,4094.358974358975,4407.6923076923085,4100.000000000001,4267.6923076923085,4328.717948717949,4445.641025641026,4407.6923076923085,1682.0,1684.0,1656.58,1543.0604248046875,0.0,0.0,0.0,0.0
1654901,18.0,0.0,0.0,4472.820512820514,4201.025641025642,4358.974358974359,4814.358974358975,3808.205128205129,4234.358974358975,4268.205128205129,4097.435897435898,4417.435897435898,4107.179487179487,4265.641025641026,4326.666666666667,4446.153846153847,4403.076923076924,1682.0,1684.0,1656.588,1543.0604248046875,0.0,0.0,0.0,0.0
1654902,19.0,0.0,0.0,4470.769230769231,4197.948717948719,4355.8974358974365,4814.358974358975,3804.615384615385,4232.307692307693,4269.2307692307695,4095.8974358974365,4413.846153846154,4111.282051282052,4266.153846153847,4326.666666666667,4446.153846153847,4406.666666666667,1681.0,1686.0,1656.596,1543.0604248046875,0.0,0.0,0.0,0.0
1654902,20.0,0.0,0.0,4463.076923076924,4196.410256410257,4352.307692307693,4805.641025641026,3804.1025641025644,4234.871794871796,4267.6923076923085,4091.2820512820517,4403.589743589744,4104.615384615385,4265.128205128206,4322.051282051282,4444.102564102564,4409.743589743591,1681.0,1685.0,1656.604,1543.0604248046875,0.0,0.0,0.0,0.0
1654902,21.0,0.0,0.0,4452.820512820514,4191.282051282052,4347.6923076923085,4812.307692307693,3803.589743589744,4237.435897435898,4267.6923076923085,4091.7948717948725,4398.974358974359,4096.923076923077,4264.102564102564,4320.512820512821,4436.410256410257,4402.564102564103,1681.0,1686.0,1656.612,1543.0604248046875,0.0,0.0,0.0,0.0
1654902,22.0,0.0,0.0,4451.282051282052,4185.128205128206,4346.153846153847,4812.307692307693,3797.9487179487182,4232.820512820514,4265.641025641026,4090.7692307692314,4395.8974358974365,4091.7948717948725,4265.128205128206,4322.564102564103,4430.256410256411,4396.410256410257,1681.0,1685.0,1656.619,1543.0604248046875,0.0,0.0,0.0,0.0
1654902,23.0,0.0,0.0,4453.333333333334,4183.076923076924,4345.641025641026,4809.743589743591,3796.9230769230776,4225.641025641026,4260.000000000001,4087.692307692308,4390.769230769231,4084.615384615385,4264.615384615385,4324.615384615385,4430.769230769231,4397.435897435898,1681.0,1685.0,1656.627,1543.0604248046875,0.0,0.0,0.0,0.0
1654902,24.0,0.0,0.0,4458.974358974359,4192.307692307693,4350.769230769231,4813.333333333334,3802.564102564103,4224.102564102564,4261.538461538462,4091.7948717948725,4393.846153846154,4088.205128205129,4264.102564102564,4330.256410256411,4437.435897435898,4405.641025641026,1681.0,1685.0,1656.636,1543.0604248046875,0.0,0.0,0.0,0.0
1654902,25.0,0.0,0.0,4464.102564102564,4200.512820512821,4358.461538461539,4809.2307692307695,3805.6410256410263,4226.666666666667,4267.179487179487,4097.948717948719,4401.538461538462,4099.48717948718,4263.076923076924,4331.794871794872,4444.102564102564,4411.794871794872,1682.0,1686.0,1656.643,1543.0604248046875,0.0,0.0,0.0,0.0
1654902,26.0,0.0,0.0,4461.025641025642,4199.48717948718,4361.025641025642,4816.923076923077,3802.0512820512827,4225.128205128206,4266.666666666667,4098.974358974359,4402.564102564103,4100.512820512821,4264.615384615385,4331.794871794872,4447.179487179487,4409.743589743591,1683.0,1685.0,1656.653,1543.0604248046875,0.0,0.0,0.0,0.0
1654902,27.0,0.0,0.0,4460.512820512821,4197.948717948719,4364.102564102564,4815.8974358974365,3796.9230769230776,4223.076923076924,4265.128205128206,4097.948717948719,4406.666666666667,4099.48717948718,4265.641025641026,4334.358974358975,4450.256410256411,4411.794871794872,1682.0,1686.0,1656.659,1543.0604248046875,0.0,0.0,0.0,0.0
1655039,28.0,0.0,0.0,4458.974358974359,4194.358974358975,4358.974358974359,4809.743589743591,3791.7948717948725,4221.538461538462,4260.000000000001,4097.435897435898,4411.794871794872,4097.948717948719,4265.641025641026,4329.743589743591,4441.025641025642,4409.743589743591,1683.0,1686.0,1656.667,1543.185546875,0.0,0.0,0.0,0.0
1655039,29.0,0.0,0.0,4448.717948717949,4184.102564102564,4344.615384615385,4814.358974358975,3788.205128205129,4214.358974358975,4250.256410256411,4089.23076923077,4399.48717948718,4087.1794871794878,4266.666666666667,4319.48717948718,4424.615384615385,4395.8974358974365,1683.0,1685.0,1656.674,1543.185546875,0.0,0.0,0.0,0.0
1655039,30.0,0.0,0.0,4443.076923076924,4181.025641025642,4340.000000000001,4811.282051282052,3787.1794871794878,4208.717948717949,4247.179487179487,4074.8717948717954,4377.948717948719,4076.9230769230776,4265.641025641026,4313.846153846154,4423.589743589744,4387.6923076923085,1682.0,1685.0,1656.682,1543.185546875,0.0,0.0,0.0,0.0
1655039,31.0,0.0,0.0,4444.102564102564,4181.538461538462,4341.025641025642,4811.794871794872,3785.6410256410263,4209.2307692307695,4244.615384615385,4066.666666666667,4370.256410256411,4073.8461538461543,4268.205128205129,4316.410256410257,4422.564102564103,4384.615384615385,1683.0,1684.0,1656.69,1543.185546875,0.0,0.0,0.0,0.0
1655040,32.0,0.0,0.0,4445.641025641026,4178.974358974359,4340.000000000001,4811.282051282052,3785.1282051282055,4213.846153846154,4246.666666666667,4071.2820512820517,4375.384615384616,4074.8717948717954,4267.6923076923085,4320.512820512821,4418.974358974359,4384.102564102564,1682.0,1686.0,1656.698,1543.185546875,0.0,0.0,0.0,0.0
1655040,33.0,0.0,0.0,4452.307692307693,4184.102564102564,4345.641025641026,4809.2307692307695,3790.7692307692314,4214.871794871796,4254.871794871796,4088.205128205129,4385.641025641026,4084.615384615385,4265.641025641026,4326.666666666667,4429.743589743591,4396.410256410257,1683.0,1686.0,1656.706,1543.185546875,0.0,0.0,0.0,0.0
1655040,34.0,0.0,0.0,4461.025641025642,4191.794871794872,4355.384615384616,4812.307692307693,3795.8974358974365,4215.8974358974365,4259.48717948718,4101.538461538462,4397.435897435898,4098.974358974359,4269.2307692307695,4333.333333333334,4442.051282051282,4411.282051282052,1682.0,1687.0,1656.713,1543.185546875,0.0,0.0,0.0,0.0
1655040,35.0,0.0,0.0,4461.025641025642,4191.282051282052,4356.410256410257,4804.615384615386,3797.9487179487182,4222.564102564103,4262.564102564103,4098.974358974359,4396.410256410257,4099.48717948718,4266.666666666667,4335.384615384616,4443.076923076924,4412.820512820514,1683.0,1687.0,1656.721,1543.185546875,0.0,0.0,0.0,0.0
1655041,36.0,0.0,0.0,4455.8974358974365,4186.666666666667,4351.282051282052,4810.256410256411,3799.48717948718,4225.128205128206,4261.538461538462,4089.23076923077,4381.538461538462,4086.1538461538466,4265.641025641026,4334.358974358975,4441.025641025642,4408.717948717949,1681.0,1687.0,1656.729,1543.185546875,0.0,0.0,0.0,0.0
1655041,37.0,0.0,0.0,4453.846153846154,4183.076923076924,4347.179487179487,4815.384615384616,3797.9487179487182,4224.102564102564,4258.974358974359,4092.820512820513,4386.153846153847,4085.6410256410263,4266.153846153847,4328.717948717949,4440.000000000001,4406.153846153847,1681.0,1686.0,1656.737,1543.185546875,0.0,0.0,0.0,0.0
1655041,38.0,0.0,0.0,4451.794871794872,4180.000000000001,4343.076923076924,4806.153846153847,3794.8717948717954,4226.153846153847,4263.589743589744,4100.000000000001,4405.641025641026,4091.2820512820517,4262.564102564103,4322.051282051282,4431.282051282052,4398.974358974359,1679.0,1685.0,1656.745,1543.185546875,0.0,0.0,0.0,0.0
1655042,39.0,0.0,0.0,4448.205128205129,4178.461538461539,4343.076923076924,4811.794871794872,3796.410256410257,4222.051282051282,4263.589743589744,4090.7692307692314,4405.128205128206,4085.6410256410263,4263.076923076924,4324.102564102564,4423.076923076924,4394.358974358975,1680.0,1686.0,1656.753,1543.185546875,0.0,0.0,0.0,0.0
1655042,40.0,0.0,0.0,4448.717948717949,4181.025641025642,4348.205128205129,4813.333333333334,3802.0512820512827,4218.974358974359,4261.538461538462,4089.23076923077,4401.538461538462,4086.666666666667,4265.128205128206,4326.666666666667,4429.2307692307695,4397.435897435898,1679.0,1684.0,1656.76,1543.185546875,0.0,0.0,0.0,0.0
1655042,41.0,0.0,0.0,4450.256410256411,4176.410256410257,4345.641025641026,4812.307692307693,3802.0512820512827,4221.538461538462,4264.615384615385,4103.589743589744,4410.256410256411,4095.8974358974365,4267.179487179487,4324.615384615385,4433.846153846154,4396.410256410257,1678.0,1685.0,1656.769,1543.185546875,0.0,0.0,0.0,0.0
1655042,42.0,0.0,0.0,4451.794871794872,4174.358974358975,4342.051282051282,4813.333333333334,3795.3846153846157,4217.948717948719,4262.051282051282,4100.512820512821,4407.179487179487,4093.333333333334,4265.641025641026,4325.641025641026,4428.205128205129,4394.358974358975,1678.0,1684.0,1656.776,1543.185546875,0.0,0.0,0.0,0.0
1655042,43.0,0.0,0.0,4456.410256410257,4182.564102564103,4348.717948717949,4806.666666666667,3792.820512820513,4214.358974358975,4254.358974358975,4084.615384615385,4398.461538461539,4088.205128205129,4262.051282051282,4328.205128205129,4428.717948717949,4397.948717948719,1677.0,1685.0,1656.785,1543.185546875,0.0,0.0,0.0,0.0
1655062,44.0,0.0,0.0,4455.8974358974365,4183.076923076924,4350.256410256411,4812.307692307693,3792.307692307693,4215.8974358974365,4251.794871794872,4081.0256410256416,4399.48717948718,4088.717948717949,4266.666666666667,4327.179487179487,4430.256410256411,4395.8974358974365,1678.0,1685.0,1656.792,1543.3106689453125,0.0,0.0,0.0,0.0
1655062,45.0,0.0,0.0,4448.205128205129,4171.794871794872,4341.025641025642,4814.871794871796,3787.1794871794878,4223.076923076924,4253.333333333334,4074.358974358975,4394.358974358975,4083.076923076924,4266.666666666667,4321.025641025642,4418.974358974359,4385.128205128206,1677.0,1685.0,1656.8,1543.3106689453125,0.0,0.0,0.0,0.0
1655062,46.0,0.0,0.0,4442.051282051282,4163.589743589744,4333.846153846154,4813.333333333334,3787.1794871794878,4231.794871794872,4256.410256410257,4061.538461538462,4384.102564102564,4074.8717948717954,4263.076923076924,4317.435897435898,4406.153846153847,4377.435897435898,1678.0,1686.0,1656.807,1543.3106689453125,0.0,0.0,0.0,0.0
1655063,47.0,0.0,0.0,4440.000000000001,4159.48717948718,4330.256410256411,4812.307692307693,3792.307692307693,4230.256410256411,4257.948717948719,4063.589743589744,4390.256410256411,4073.333333333334,4263.076923076924,4317.948717948719,4401.025641025642,4375.8974358974365,1679.0,1686.0,1656.815,1543.3106689453125,0.0,0.0,0.0,0.0
1655156,48.0,0.0,0.0,4441.538461538462,4160.512820512821,4331.282051282052,4806.666666666667,3787.692307692308,4221.538461538462,4257.948717948719,4075.3846153846157,4405.641025641026,4074.8717948717954,4263.076923076924,4316.410256410257,4402.564102564103,4376.410256410257,1679.0,1685.0,1656.823,1543.3419189453125,0.0,0.0,0.0,0.0
1655156,49.0,0.0,0.0,4439.48717948718,4162.564102564103,4332.820512820514,4814.358974358975,3782.564102564103,4217.435897435898,4259.48717948718,4081.0256410256416,4413.333333333334,4076.9230769230776,4265.128205128206,4317.948717948719,4404.102564102564,4375.8974358974365,1679.0,1686.0,1656.831,1543.3419189453125,0.0,0.0,0.0,0.0
1655157,50.0,0.0,0.0,4432.307692307693,4157.435897435898,4329.743589743591,4814.358974358975,3788.205128205129,4221.025641025642,4262.051282051282,4082.0512820512827,4419.48717948718,4078.9743589743593,4266.666666666667,4318.974358974359,4399.48717948718,4371.282051282052,1681.0,1686.0,1656.839,1543.3419189453125,0.0,0.0,0.0,0.0
1655157,51.0,0.0,0.0,4431.794871794872,4151.794871794872,4326.666666666667,4809.2307692307695,3790.7692307692314,4225.641025641026,4258.461538461539,4076.410256410257,4411.794871794872,4073.8461538461543,4265.641025641026,4317.435897435898,4394.871794871796,4369.743589743591,1681.0,1684.0,1656.846,1543.3419189453125,0.0,0.0,0.0,0.0
1655157,52.0,0.0,0.0,4442.564102564103,4160.000000000001,4329.743589743591,4812.307692307693,3789.7435897435903,4222.564102564103,4252.820512820514,4074.358974358975,4396.923076923077,4072.820512820513,4264.615384615385,4318.461538461539,4402.564102564103,4381.025641025642,1682.0,1685.0,1656.854,1543.3419189453125,0.0,0.0,0.0,0.0
1655157,53.0,0.0,0.0,4451.794871794872,4176.923076923077,4340.512820512821,4808.205128205129,3790.2564102564106,4221.025641025642,4257.435897435898,4086.666666666667,4410.256410256411,4090.2564102564106,4266.666666666667,4324.615384615385,4421.025641025642,4396.923076923077,1683.0,1684.0,1656.863,1543.3419189453125,0.0,0.0,0.0,0.0
1655157,54.0,0.0,0.0,4448.205128205129,4177.435897435898,4343.589743589744,4811.794871794872,3791.2820512820517,4228.717948717949,4261.538461538462,4093.8461538461543,4427.179487179487,4096.923076923077,4268.205128205129,4328.205128205129,4425.128205128206,4398.461538461539,1682.0,1685.0,1656.87,1543.3419189453125,0.0,0.0,0.0,0.0
1655157,55.0,0.0,0.0,4438.974358974359,4163.076923076924,4331.282051282052,4813.333333333334,3789.2307692307695,4233.846153846154,4257.435897435898,4085.1282051282055,4407.6923076923085,4077.435897435898,4263.589743589744,4321.025641025642,4411.794871794872,4388.205128205129,1684.0,1685.0,1656.878,1543.3419189453125,0.0,0.0,0.0,0.0
1655158,56.0,0.0,0.0,4435.8974358974365,4158.461538461539,4322.051282051282,4807.179487179488,3785.1282051282055,4227.6923076923085,4251.794871794872,4078.9743589743593,4390.256410256411,4068.205128205129,4261.538461538462,4312.820512820514,4404.102564102564,4383.076923076924,1683.0,1686.0,1656.886,1543.3419189453125,0.0,0.0,0.0,0.0
1655158,57.0,0.0,0.0,4434.871794871796,4160.000000000001,4321.025641025642,4812.307692307693,3782.564102564103,4223.589743589744,4248.205128205129,4085.1282051282055,4398.974358974359,4075.3846153846157,4266.153846153847,4314.358974358975,4406.153846153847,4382.564102564103,1683.0,1687.0,1656.893,1543.3419189453125,0.0,0.0,0.0,0.0
1655158,58.0,0.0,0.0,4430.769230769231,4155.8974358974365,4317.948717948719,4810.769230769231,3776.410256410257,4226.153846153847,4249.2307692307695,4092.307692307693,4407.179487179487,4080.0000000000005,4265.641025641026,4315.8974358974365,4408.717948717949,4381.025641025642,1683.0,1687.0,1656.901,1543.3419189453125,0.0,0.0,0.0,0.0
1655158,59.0,0.0,0.0,4432.820512820514,4156.410256410257,4320.512820512821,4812.307692307693,3776.9230769230776,4227.179487179487,4257.435897435898,4093.8461538461543,4411.794871794872,4086.1538461538466,4264.102564102564,4319.48717948718,4411.282051282052,4383.589743589744,1682.0,1688.0,1656.909,1543.3419189453125,0.0,0.0,0.0,0.0
1655285,60.0,0.0,0.0,4444.102564102564,4163.076923076924,4333.333333333334,4813.333333333334,3786.666666666667,4227.6923076923085,4263.076923076924,4096.923076923077,4424.102564102564,4097.435897435898,4263.076923076924,4325.128205128206,4418.461538461539,4391.282051282052,1681.0,1687.0,1656.918,1543.435791015625,0.0,0.0,0.0,0.0
1655285,61.0,0.0,0.0,4450.769230769231,4164.102564102564,4337.435897435898,4806.666666666667,3790.7692307692314,4230.769230769231,4261.025641025642,4098.461538461539,4424.615384615385,4095.3846153846157,4262.564102564103,4325.128205128206,4417.435897435898,4392.820512820514,1680.0,1687.0,1656.924,1543.435791015625,0.0,0.0,0.0,0.0
1655285,62.0,0.0,0.0,4447.6923076923085,4163.589743589744,4332.820512820514,4813.333333333334,3788.717948717949,4232.307692307693,4262.564102564103,4091.7948717948725,4410.256410256411,4087.1794871794878,4265.641025641026,4321.538461538462,4412.307692307693,4390.256410256411,1680.0,1687.0,1656.932,1543.435791015625,0.0,0.0,0.0,0.0
1655285,63.0,0.0,0.0,4445.128205128206,4165.128205128206,4334.871794871796,4812.307692307693,3788.205128205129,4232.307692307693,4265.128205128206,4085.6410256410263,4409.2307692307695,4091.2820512820517,4264.615384615385,4319.48717948718,4420.000000000001,4392.307692307693,1681.0,1686.0,1656.94,1543.435791015625,0.0,0.0,0.0,0.0
1655285,64.0,0.0,512.0,4445.641025641026,4162.564102564103,4333.846153846154,4809.2307692307695,3791.2820512820517,4227.179487179487,4257.435897435898,4081.0256410256416,4413.846153846154,4091.2820512820517,4264.102564102564,4321.025641025642,4423.589743589744,4393.846153846154,1680.0,1685.0,1656.948,1543.435791015625,0.0,0.0,0.0,0.0
1655285,65.0,0.0,0.0,4446.666666666667,4162.564102564103,4329.743589743591,4809.743589743591,3791.7948717948725,4226.153846153847,4253.333333333334,4074.8717948717954,4410.769230769231,4083.589743589744,4264.615384615385,4322.564102564103,4417.435897435898,4391.282051282052,1680.0,1685.0,1656.956,1543.435791015625,0.0,0.0,0.0,0.0
1655286,66.0,0.0,509.0,4445.641025641026,4163.076923076924,4331.282051282052,4804.615384615386,3788.205128205129,4230.256410256411,4257.948717948719,4075.8974358974365,4411.282051282052,4086.1538461538466,4262.051282051282,4320.512820512821,4417.948717948719,4391.794871794872,1680.0,1684.0,1656.964,1543.435791015625,0.0,0.0,0.0,0.0
1655286,67.0,0.0,531.0,4437.948717948719,4153.846153846154,4327.179487179487,4810.769230769231,3784.1025641025644,4225.128205128206,4253.333333333334,4075.3846153846157,4407.6923076923085,4083.076923076924,4264.102564102564,4317.435897435898,4415.384615384616,4389.2307692307695,1680.0,1684.0,1656.971,1543.435791015625,0.0,0.0,0.0,0.0
1655286,68.0,0.0,501.0,4436.410256410257,4152.820512820514,4324.102564102564,4810.769230769231,3787.692307692308,4218.974358974359,4250.769230769231,4072.307692307693,4398.461538461539,4073.8461538461543,4267.6923076923085,4318.461538461539,4411.282051282052,4386.666666666667,1679.0,1684.0,1656.979,1543.435791015625,0.0,0.0,0.0,0.0
1655286,69.0,0.0,551.0,4448.205128205129,4163.589743589744,4333.333333333334,4809.2307692307695,3792.307692307693,4224.102564102564,4261.538461538462,4074.8717948717954,4402.564102564103,4081.0256410256416,4268.717948717949,4323.589743589744,4420.000000000001,4395.384615384616,1680.0,1685.0,1656.987,1543.435791015625,0.0,0.0,0.0,0.0
1655286,70.0,0.0,547.0,4456.410256410257,4167.179487179487,4338.974358974359,4811.794871794872,3784.1025641025644,4228.205128205129,4268.205128205129,4077.9487179487187,4413.333333333334,4092.820512820513,4268.205128205129,4327.6923076923085,4429.2307692307695,4403.076923076924,1680.0,1685.0,1656.995,1543.435791015625,0.0,0.0,0.0,0.0
1655286,71.0,0.0,340.0,4452.307692307693,4166.666666666667,4335.8974358974365,4806.153846153847,3774.358974358975,4222.564102564103,4267.179487179487,4075.8974358974365,4413.846153846154,4094.8717948717954,4265.128205128206,4326.666666666667,4429.743589743591,4401.025641025642,1680.0,1686.0,1657.003,1543.435791015625,0.0,0.0,0.0,0.0
1655286,72.0,0.0,456.0,4443.589743589744,4162.051282051282,4330.256410256411,4812.307692307693,3771.794871794872,4218.974358974359,4263.076923076924,4076.9230769230776,4413.333333333334,4094.8717948717954,4265.641025641026,4325.128205128206,4424.102564102564,4392.307692307693,1681.0,1685.0,1657.01,1543.435791015625,0.0,0.0,0.0,0.0
1655287,73.0,0.0,477.0,4440.512820512821,4155.384615384616,4328.205128205129,4814.358974358975,3772.307692307693,4225.641025641026,4263.076923076924,4081.0256410256416,4423.589743589744,4098.461538461539,4265.641025641026,4323.589743589744,4422.051282051282,4384.615384615385,1680.0,1685.0,1657.019,1543.435791015625,0.0,0.0,0.0,0.0
1655287,74.0,0.0,493.0,4449.2307692307695,4160.000000000001,4333.333333333334,4808.205128205129,3774.8717948717954,4231.794871794872,4267.6923076923085,4086.666666666667,4428.717948717949,4101.538461538462,4266.153846153847,4326.153846153847,4430.256410256411,4391.794871794872,1681.0,1685.0,1657.026,1543.435791015625,0.0,0.0,0.0,0.0
1655288,75.0,0.0,488.0,4460.512820512821,4166.153846153847,4337.435897435898,4810.769230769231,3778.461538461539,4233.333333333334,4269.74358974359,4090.7692307692314,4428.205128205129,4104.615384615385,4268.205128205129,4332.307692307693,4435.8974358974365,4406.153846153847,1681.0,1685.0,1657.034,1543.435791015625,0.0,0.0,0.0,0.0
1655532,76.0,0.0,0.0,4454.871794871796,4160.512820512821,4333.846153846154,4809.2307692307695,3776.410256410257,4239.48717948718,4269.74358974359,4082.0512820512827,4426.666666666667,4102.051282051282,4264.615384615385,4329.743589743591,4428.205128205129,4402.564102564103,1681.0,1685.0,1657.042,1543.5609130859375,0.0,0.0,0.0,0.0
1655532,77.0,0.0,318.0,4444.615384615385,4155.8974358974365,4330.769230769231,4813.333333333334,3771.794871794872,4236.923076923077,4266.153846153847,4059.48717948718,4416.410256410257,4092.820512820513,4262.564102564103,4325.128205128206,4421.538461538462,4390.769230769231,1681.0,1685.0,1657.051,1543.5609130859375,0.0,0.0,0.0,0.0
1655532,78.0,0.0,493.0,4449.2307692307695,4166.153846153847,4336.923076923077,4814.358974358975,3771.794871794872,4224.102564102564,4259.48717948718,4044.615384615385,4409.743589743591,4090.7692307692314,4264.615384615385,4327.6923076923085,4426.153846153847,4394.871794871796,1681.0,1685.0,1657.058,1543.5609130859375,0.0,0.0,0.0,0.0
1655532,79.0,0.0,488.0,4455.8974358974365,4170.256410256411,4339.48717948718,4808.717948717949,3771.2820512820517,4224.102564102564,4258.974358974359,4047.1794871794878,4419.48717948718,4097.435897435898,4267.179487179487,4327.6923076923085,4426.666666666667,4398.461538461539,1682.0,1684.0,1657.065,1543.5609130859375,0.0,0.0,0.0,0.0
1655532,80.0,0.0,0.0,4449.2307692307695,4157.948717948719,4331.794871794872,4813.846153846154,3771.794871794872,4234.358974358975,4264.615384615385,4051.2820512820517,4423.589743589744,4094.8717948717954,4265.641025641026,4323.589743589744,4418.461538461539,4392.820512820514,1681.0,1684.0,1657.073,1543.5609130859375,0.0,0.0,0.0,0.0
1655532,81.0,0.0,318.0,4445.128205128206,4156.410256410257,4330.256410256411,4811.282051282052,3775.8974358974365,4235.8974358974365,4265.641025641026,4035.8974358974365,4409.2307692307695,4088.205128205129,4261.025641025642,4323.076923076924,4416.923076923077,4392.307692307693,1681.0,1683.0,1657.081,1543.5609130859375,0.0,0.0,0.0,0.0
1655533,82.0,0.0,493.0,4450.769230769231,4168.205128205129,4336.410256410257,4811.794871794872,3778.9743589743593,4228.717948717949,4264.102564102564,4029.23076923077,4408.205128205129,4094.8717948717954,4265.641025641026,4326.666666666667,4426.666666666667,4396.923076923077,1680.0,1684.0,1657.089,1543.5609130859375,0.0,0.0,0.0,0.0
1655533,83.0,0.0,488.0,4458.974358974359,4174.871794871796,4340.512820512821,4811.794871794872,3778.9743589743593,4228.717948717949,4270.256410256411,4068.205128205129,4421.538461538462,4104.615384615385,4270.256410256411,4327.179487179487,4434.871794871796,4401.025641025642,1681.0,1683.0,1657.096,1543.5609130859375,0.0,0.0,0.0,0.0
1655533,84.0,0.0,0.0,4461.025641025642,4171.282051282052,4339.48717948718,4805.128205128206,3778.9743589743593,4230.256410256411,4270.769230769231,4112.307692307693,4420.000000000001,4100.000000000001,4264.102564102564,4325.128205128206,4430.769230769231,4400.000000000001,1679.0,1684.0,1657.104,1543.5609130859375,0.0,0.0,0.0,0.0
1655533,85.0,0.0,318.0,4455.384615384616,4162.564102564103,4332.820512820514,4812.307692307693,3777.435897435898,4221.538461538462,4259.48717948718,4118.974358974359,4408.205128205129,4090.2564102564106,4263.589743589744,4325.128205128206,4421.025641025642,4392.307692307693,1680.0,1684.0,1657.113,1543.5609130859375,0.0,0.0,0.0,0.0
1655533,86.0,0.0,493.0,4451.282051282052,4160.000000000001,4329.743589743591,4812.820512820514,3772.820512820513,4215.8974358974365,4257.948717948719,4122.051282051282,4405.641025641026,4086.1538461538466,4268.717948717949,4324.615384615385,4420.512820512821,4388.717948717949,1680.0,1683.0,1657.12,1543.5609130859375,0.0,0.0,0.0,0.0
1655533,87.0,0.0,488.0,4451.794871794872,4162.051282051282,4331.282051282052,4812.307692307693,3772.307692307693,4220.000000000001,4261.025641025642,4136.410256410257,4401.025641025642,4078.9743589743593,4268.205128205129,4323.076923076924,4420.512820512821,4391.794871794872,1679.0,1685.0,1657.128,1543.5609130859375,0.0,0.0,0.0,0.0
1655533,88.0,0.0,0.0,4451.282051282052,4161.025641025642,4324.102564102564,4812.307692307693,3773.333333333334,4228.717948717949,4253.846153846154,4135.8974358974365,4389.2307692307695,4070.2564102564106,4265.641025641026,4319.48717948718,4413.846153846154,4389.2307692307695,1679.0,1684.0,1657.136,1543.5609130859375,0.0,0.0,0.0,0.0
1655533,89.0,0.0,318.0,4447.179487179487,4157.435897435898,4316.923076923077,4806.153846153847,3769.2307692307695,4233.333333333334,4247.6923076923085,4125.641025641026,4385.641025641026,4069.23076923077,4266.153846153847,4311.794871794872,4408.205128205129,4382.051282051282,1679.0,1684.0,1657.143,1543.5609130859375,0.0,0.0,0.0,0.0
1655534,90.0,0.0,493.0,4444.102564102564,4158.974358974359,4323.076923076924,4814.358974358975,3766.666666666667,4225.641025641026,4248.205128205129,4119.48717948718,4380.000000000001,4070.7692307692314,4268.205128205129,4316.410256410257,4411.282051282052,4384.102564102564,1679.0,1685.0,1657.152,1543.5609130859375,0.0,0.0,0.0,0.0
1655534,91.0,0.0,488.0,4453.846153846154,4165.641025641026,4333.333333333334,4815.384615384616,3772.307692307693,4220.512820512821,4255.384615384616,4122.564102564103,4382.564102564103,4077.9487179487187,4265.128205128206,4326.666666666667,4422.564102564103,4395.384615384616,1679.0,1687.0,1657.159,1543.5609130859375,0.0,0.0,0.0,0.0
1655534,92.0,0.0,0.0,4465.641025641026,4171.282051282052,4335.8974358974365,4809.743589743591,3777.435897435898,4230.769230769231,4261.025641025642,4132.820512820514,4404.102564102564,4088.717948717949,4263.076923076924,4328.717948717949,4428.205128205129,4401.025641025642,1678.0,1687.0,1657.167,1543.5609130859375,0.0,0.0,0.0,0.0
1655534,93.0,0.0,318.0,4466.153846153847,4176.923076923077,4337.435897435898,4812.820512820514,3776.9230769230776,4233.333333333334,4260.512820512821,4130.769230769231,4415.384615384616,4093.333333333334,4263.076923076924,4328.205128205129,4428.205128205129,4402.564102564103,1677.0,1688.0,1657.175,1543.5609130859375,0.0,0.0,0.0,0.0
1655534,94.0,0.0,493.0,4463.589743589744,4178.461538461539,4341.538461538462,4809.743589743591,3777.9487179487182,4224.102564102564,4261.025641025642,4127.179487179487,4417.435897435898,4098.461538461539,4262.564102564103,4327.6923076923085,4433.846153846154,4408.717948717949,1678.0,1687.0,1657.182,1543.5609130859375,0.0,0.0,0.0,0.0
1655534,95.0,0.0,488.0,4456.923076923077,4167.6923076923085,4336.923076923077,4812.820512820514,3781.0256410256416,4229.2307692307695,4265.128205128206,4132.820512820514,4424.102564102564,4096.410256410257,4267.6923076923085,4326.666666666667,4428.205128205129,4405.128205128206,1677.0,1686.0,1657.19,1543.5609130859375,0.0,0.0,0.0,0.0
1655534,96.0,0.0,0.0,4449.2307692307695,4162.564102564103,4330.769230769231,4813.333333333334,3781.0256410256416,4242.051282051282,4264.102564102564,4126.153846153847,4412.307692307693,4085.6410256410263,4266.666666666667,4325.641025641026,4418.461538461539,4394.358974358975,1677.0,1686.0,1657.198,1543.5609130859375,0.0,0.0,0.0,0.0
1655534,97.0,0.0,318.0,4457.435897435898,4175.384615384616,4337.435897435898,4809.743589743591,3782.0512820512827,4236.410256410257,4255.8974358974365,4112.307692307693,4389.2307692307695,4084.1025641025644,4263.076923076924,4329.2307692307695,4426.153846153847,4395.384615384616,1676.0,1684.0,1657.206,1543.5609130859375,0.0,0.0,0.0,0.0
1655534,98.0,0.0,493.0,4465.128205128206,4183.076923076924,4344.102564102564,4810.256410256411,3780.512820512821,4222.051282051282,4250.256410256411,4118.461538461539,4390.256410256411,4089.23076923077,4265.641025641026,4329.2307692307695,4432.820512820514,4400.000000000001,1676.0,1685.0,1657.214,1543.5609130859375,0.0,0.0,0.0,0.0
1655534,99.0,0.0,488.0,4450.256410256411,4169.2307692307695,4331.282051282052,4806.153846153847,3776.410256410257,4224.102564102564,4252.820512820514,4134.358974358975,4402.051282051282,4083.589743589744,4264.615384615385,4319.48717948718,4420.512820512821,4391.794871794872,1677.0,1684.0,1657.222,1543.5609130859375,0.0,0.0,0.0,0.0
1655535,100.0,0.0,0.0,4438.974358974359,4158.461538461539,4318.974358974359,4813.846153846154,3776.410256410257,4234.358974358975,4256.923076923077,4140.000000000001,4400.512820512821,4081.0256410256416,4266.153846153847,4315.8974358974365,4413.846153846154,4385.641025641026,1676.0,1685.0,1657.229,1543.5609130859375,0.0,0.0,0.0,0.0
1655535,101.0,0.0,318.0,4453.333333333334,4168.205128205129,4329.2307692307695,4815.384615384616,3778.9743589743593,4229.2307692307695,4259.48717948718,4146.153846153847,4404.615384615385,4092.307692307693,4267.6923076923085,4321.538461538462,4425.641025641026,4391.794871794872,1677.0,1684.0,1657.237,1543.5609130859375,0.0,0.0,0.0,0.0
1655535,102.0,0.0,493.0,4468.717948717949,4178.974358974359,4344.615384615385,4808.205128205129,3781.0256410256416,4215.8974358974365,4264.615384615385,4156.923076923077,4418.461538461539,4099.48717948718,4264.102564102564,4327.179487179487,4434.871794871796,4401.025641025642,1677.0,1686.0,1657.245,1543.5609130859375,0.0,0.0,0.0,0.0
1655535,103.0,0.0,488.0,4469.743589743591,4174.358974358975,4344.102564102564,4813.333333333334,3782.0512820512827,4213.846153846154,4269.74358974359,4158.974358974359,4422.564102564103,4096.410256410257,4264.615384615385,4327.179487179487,4430.769230769231,4404.102564102564,1678.0,1686.0,1657.254,1543.5609130859375,0.0,0.0,0.0,0.0
1655535,104.0,0.0,0.0,4464.102564102564,4162.051282051282,4335.8974358974365,4810.769230769231,3783.076923076924,4229.74358974359,4270.769230769231,4149.2307692307695,4410.256410256411,4087.692307692308,4264.615384615385,4321.538461538462,4422.051282051282,4394.358974358975,1678.0,1686.0,1657.261,1543.5609130859375,0.0,0.0,0.0,0.0
1655535,105.0,0.0,318.0,4461.538461538462,4161.025641025642,4335.8974358974365,4810.769230769231,3784.1025641025644,4237.948717948719,4270.769230769231,4145.641025641026,4404.102564102564,4083.076923076924,4264.615384615385,4324.102564102564,4418.974358974359,4389.2307692307695,1680.0,1685.0,1657.269,1543.5609130859375,0.0,0.0,0.0,0.0
1655565,106.0,0.0,493.0,4466.153846153847,4172.307692307693,4341.538461538462,4811.794871794872,3785.6410256410263,4228.717948717949,4273.846153846154,4155.384615384616,4417.948717948719,4090.7692307692314,4264.102564102564,4330.256410256411,4427.6923076923085,4401.538461538462,1679.0,1685.0,1657.276,1543.5609130859375,0.0,0.0,0.0,0.0
1655565,107.0,0.0,488.0,4465.641025641026,4173.333333333334,4337.435897435898,4805.641025641026,3783.076923076924,4225.641025641026,4273.333333333334,4151.282051282052,4415.384615384616,4089.7435897435903,4262.564102564103,4325.128205128206,4428.717948717949,4406.153846153847,1680.0,1685.0,1657.285,1543.5609130859375,0.0,0.0,0.0,0.0
1655576,108.0,0.0,0.0,4457.435897435898,4162.051282051282,4327.6923076923085,4813.846153846154,3781.0256410256416,4230.769230769231,4262.564102564103,4133.846153846154,4390.769230769231,4074.358974358975,4265.128205128206,4321.025641025642,4416.923076923077,4397.948717948719,1681.0,1684.0,1657.292,1543.81103515625,0.0,0.0,0.0,0.0
1655576,109.0,0.0,318.0,4457.948717948719,4163.589743589744,4332.820512820514,4813.333333333334,3779.48717948718,4228.717948717949,4256.410256410257,4134.871794871796,4391.794871794872,4076.9230769230776,4265.128205128206,4323.589743589744,4418.461538461539,4395.8974358974365,1681.0,1686.0,1657.301,1543.81103515625,0.0,0.0,0.0,0.0
1655576,110.0,0.0,493.0,4462.051282051282,4170.769230769231,4338.974358974359,4808.717948717949,3776.9230769230776,4218.974358974359,4260.000000000001,4145.128205128206,4404.615384615385,4087.1794871794878,4264.615384615385,4324.615384615385,4423.589743589744,4392.820512820514,1682.0,1684.0,1657.308,1543.81103515625,0.0,0.0,0.0,0.0
1655577,111.0,0.0,488.0,4460.000000000001,4166.153846153847,4332.820512820514,4813.333333333334,3778.461538461539,4220.512820512821,4261.025641025642,4142.051282051282,4393.333333333334,4081.538461538462,4265.128205128206,4322.051282051282,4411.794871794872,4387.6923076923085,1682.0,1685.0,1657.315,1543.81103515625,0.0,0.0,0.0,0.0
1656030,112.0,0.0,0.0,4461.538461538462,4163.076923076924,4332.820512820514,4810.256410256411,3782.564102564103,4233.846153846154,4263.076923076924,4138.974358974359,4396.410256410257,4083.076923076924,4264.615384615385,4322.564102564103,4408.717948717949,4393.846153846154,1684.0,1685.0,1657.323,1543.8424072265625,0.0,0.0,0.0,0.0
1656031,113.0,0.0,318.0,4466.153846153847,4165.128205128206,4338.461538461539,4812.307692307693,3783.589743589744,4232.307692307693,4265.128205128206,4138.461538461539,4413.333333333334,4089.7435897435903,4266.153846153847,4324.102564102564,4416.410256410257,4398.461538461539,1683.0,1685.0,1657.331,1543.8424072265625,0.0,0.0,0.0,0.0
1656031,114.0,0.0,493.0,4465.641025641026,4163.076923076924,4340.000000000001,4812.307692307693,3778.461538461539,4218.461538461539,4262.564102564103,4130.256410256411,4403.076923076924,4080.0000000000005,4267.6923076923085,4322.564102564103,4412.820512820514,4396.410256410257,1683.0,1686.0,1657.339,1543.8424072265625,0.0,0.0,0.0,0.0
1656031,115.0,0.0,488.0,4467.179487179487,4165.128205128206,4339.48717948718,4811.282051282052,3773.8461538461543,4210.256410256411,4256.923076923077,4125.128205128206,4382.564102564103,4069.7435897435903,4266.666666666667,4322.051282051282,4407.179487179487,4398.974358974359,1683.0,1687.0,1657.347,1543.8424072265625,0.0,0.0,0.0,0.0
1656031,116.0,0.0,0.0,4470.769230769231,4168.717948717949,4338.461538461539,4812.820512820514,3780.0000000000005,4214.358974358975,4255.8974358974365,4130.769230769231,4387.6923076923085,4072.820512820513,4265.641025641026,4323.076923076924,4412.820512820514,4399.48717948718,1683.0,1687.0,1657.355,1543.8424072265625,0.0,0.0,0.0,0.0
1656032,117.0,0.0,318.0,4467.6923076923085,4165.128205128206,4333.846153846154,4808.205128205129,3789.7435897435903,4231.282051282052,4261.025641025642,4134.871794871796,4407.6923076923085,4077.9487179487187,4265.128205128206,4322.564102564103,4416.923076923077,4396.410256410257,1682.0,1686.0,1657.362,1543.8424072265625,0.0,0.0,0.0,0.0
1656032,118.0,0.0,493.0,4460.000000000001,4160.000000000001,4327.6923076923085,4815.8974358974365,3787.1794871794878,4238.461538461539,4262.051282051282,4128.205128205129,4407.6923076923085,4078.461538461539,4266.153846153847,4323.076923076924,4415.384615384616,4393.333333333334,1682.0,1684.0,1657.37,1543.8424072265625,0.0,0.0,0.0,0.0
1656032,119.0,0.0,488.0,4463.076923076924,4165.128205128206,4331.794871794872,4815.384615384616,3778.9743589743593,4229.2307692307695,4261.025641025642,4122.051282051282,4392.820512820514,4082.0512820512827,4263.589743589744,4326.666666666667,4421.025641025642,4396.410256410257,1681.0,1684.0,1657.378,1543.8424072265625,0.0,0.0,0.0,0.0
1656032,120.0,0.0,0.0,4474.871794871796,4172.307692307693,4343.589743589744,4808.205128205129,3778.461538461539,4219.48717948718,4260.512820512821,4126.666666666667,4391.282051282052,4087.692307692308,4262.051282051282,4330.769230769231,4430.769230769231,4405.641025641026,1682.0,1684.0,1657.386,1543.8424072265625,0.0,0.0,0.0,0.0
1656032,121.0,0.0,318.0,4478.461538461539,4167.6923076923085,4346.153846153847,4812.307692307693,3781.0256410256416,4214.358974358975,4258.461538461539,4135.384615384616,4403.076923076924,4089.7435897435903,4264.615384615385,4331.794871794872,4430.769230769231,4409.743589743591,1681.0,1685.0,1657.394,1543.8424072265625,0.0,0.0,0.0,0.0
1656032,122.0,0.0,493.0,4468.717948717949,4157.948717948719,4333.846153846154,4809.2307692307695,3777.435897435898,4219.48717948718,4256.410256410257,4133.333333333334,4402.564102564103,4083.589743589744,4265.641025641026,4324.615384615385,4423.076923076924,4400.000000000001,1681.0,1686.0,1657.402,1543.8424072265625,0.0,0.0,0.0,0.0
1656033,123.0,0.0,488.0,4454.871794871796,4150.256410256411,4324.102564102564,4812.820512820514,3775.8974358974365,4228.205128205129,4254.358974358975,4126.666666666667,4391.794871794872,4076.410256410257,4268.205128205129,4321.025641025642,4414.358974358975,4387.6923076923085,1681.0,1688.0,1657.412,1543.8424072265625,0.0,0.0,0.0,0.0
1656033,124.0,0.0,0.0,4460.512820512821,4156.410256410257,4332.820512820514,4815.384615384616,3785.1282051282055,4228.717948717949,4257.948717948719,4130.769230769231,4396.410256410257,4084.1025641025644,4268.205128205129,4327.6923076923085,4420.000000000001,4395.384615384616,1682.0,1687.0,1657.418,1543.8424072265625,0.0,0.0,0.0,0.0
1656033,125.0,0.0,318.0,4478.974358974359,4169.74358974359,4344.615384615385,4807.6923076923085,3790.7692307692314,4223.589743589744,4266.153846153847,4136.410256410257,4407.6923076923085,4101.025641025642,4265.128205128206,4330.769230769231,4437.435897435898,4412.820512820514,1681.0,1687.0,1657.425,1543.8424072265625,0.0,0.0,0.0,0.0
1656033,126.0,0.0,493.0,4481.025641025642,4171.794871794872,4344.102564102564,4812.307692307693,3786.666666666667,4224.102564102564,4263.589743589744,4135.8974358974365,4402.564102564103,4102.564102564103,4266.666666666667,4327.6923076923085,4440.512820512821,4414.358974358975,1682.0,1687.0,1657.434,1543.8424072265625,0.0,0.0,0.0,0.0
1656033,127.0,0.0,488.0,4472.820512820514,4166.153846153847,4341.025641025642,4810.256410256411,3781.538461538462,4225.641025641026,4260.000000000001,4140.512820512821,4400.000000000001,4095.8974358974365,4267.179487179487,4327.6923076923085,4431.794871794872,4404.615384615385,1681.0,1687.0,1657.442,1543.8424072265625,0.0,0.0,0.0,0.0
1656033,128.0,0.0,0.0,4466.153846153847,4159.48717948718,4335.384615384616,4809.743589743591,3779.48717948718,4225.128205128206,4264.615384615385,4144.102564102564,4406.666666666667,4089.23076923077,4266.153846153847,4327.179487179487,4424.615384615385,4397.948717948719,1681.0,1689.0,1657.448,1543.8424072265625,0.0,0.0,0.0,0.0
1656033,0.0,0.0,512.0,4461.025641025642,4155.384615384616,4329.2307692307695,4811.794871794872,3777.9487179487182,4226.153846153847,4261.538461538462,4137.435897435898,4405.641025641026,4080.0000000000005,4264.615384615385,4321.538461538462,4420.512820512821,4394.358974358975,1682.0,1687.0,1657.456,1543.8424072265625,0.0,0.0,0.0,0.0
1656033,1.0,0.0,0.0,4463.589743589744,4158.974358974359,4328.717948717949,4808.205128205129,3777.9487179487182,4221.538461538462,4255.8974358974365,4138.974358974359,4402.051282051282,4082.0512820512827,4263.589743589744,4321.538461538462,4423.076923076924,4395.8974358974365,1680.0,1688.0,1657.464,1543.8424072265625,0.0,0.0,0.0,0.0
1656034,2.0,0.0,509.0,4464.615384615385,4158.461538461539,4327.179487179487,4814.358974358975,3780.512820512821,4219.48717948718,4258.974358974359,4147.179487179487,4396.923076923077,4086.1538461538466,4265.128205128206,4324.102564102564,4424.615384615385,4394.871794871796,1680.0,1687.0,1657.473,1543.8424072265625,0.0,0.0,0.0,0.0
1656034,3.0,0.0,531.0,4456.923076923077,4150.256410256411,4325.128205128206,4812.820512820514,3780.512820512821,4229.74358974359,4261.025641025642,4147.6923076923085,4392.307692307693,4079.48717948718,4264.102564102564,4318.974358974359,4416.410256410257,4387.179487179487,1680.0,1686.0,1657.48,1543.8424072265625,0.0,0.0,0.0,0.0
1656034,4.0,0.0,501.0,4463.589743589744,4153.846153846154,4333.846153846154,4810.769230769231,3782.564102564103,4231.794871794872,4258.461538461539,4153.846153846154,4400.000000000001,4083.589743589744,4264.615384615385,4322.051282051282,4417.435897435898,4393.333333333334,1680.0,1685.0,1657.487,1543.8424072265625,0.0,0.0,0.0,0.0
1656034,5.0,0.0,551.0,4485.128205128206,4170.769230769231,4345.641025641026,4811.794871794872,3787.692307692308,4224.615384615385,4258.461538461539,4165.128205128206,4410.256410256411,4096.923076923077,4265.641025641026,4331.794871794872,4433.846153846154,4411.794871794872,1679.0,1685.0,1657.495,1543.8424072265625,0.0,0.0,0.0,0.0
1656034,6.0,0.0,547.0,4490.256410256411,4174.871794871796,4348.205128205129,4807.179487179488,3787.692307692308,4223.076923076924,4260.512820512821,4161.025641025642,4408.205128205129,4091.7948717948725,4262.564102564103,4330.769230769231,4440.000000000001,4413.333333333334,1680.0,1684.0,1657.503,1543.8424072265625,0.0,0.0,0.0,0.0
1656034,7.0,0.0,340.0,4482.564102564103,4167.6923076923085,4346.153846153847,4815.384615384616,3785.6410256410263,4223.589743589744,4258.974358974359,4155.384615384616,4396.410256410257,4081.538461538462,4267.179487179487,4326.666666666667,4430.769230769231,4406.153846153847,1680.0,1683.0,1657.511,1543.8424072265625,0.0,0.0,0.0,0.0
1656034,8.0,0.0,456.0,4482.051282051282,4165.641025641026,4345.641025641026,4814.871794871796,3786.666666666667,4224.615384615385,4262.051282051282,4169.2307692307695,4392.820512820514,4089.7435897435903,4266.666666666667,4326.666666666667,4428.717948717949,4408.205128205129,1681.0,1683.0,1657.519,1543.8424072265625,0.0,0.0,0.0,0.0
1656035,9.0,0.0,477.0,4483.076923076924,4162.564102564103,4338.974358974359,4806.666666666667,3789.7435897435903,4229.2307692307695,4268.205128205129,4180.000000000001,4402.564102564103,4090.2564102564106,4262.564102564103,4323.076923076924,4426.666666666667,4403.589743589744,1681.0,1682.0,1657.527,1543.8424072265625,0.0,0.0,0.0,0.0
1656035,10.0,0.0,494.0,4480.000000000001,4157.435897435898,4328.205128205129,4809.743589743591,3789.7435897435903,4232.820512820514,4269.74358974359,4170.769230769231,4406.666666666667,4074.8717948717954,4265.128205128206,4318.974358974359,4416.410256410257,4392.820512820514,1681.0,1684.0,1657.534,1543.8424072265625,0.0,0.0,0.0,0.0
1656035,11.0,0.0,488.0,4475.8974358974365,4155.384615384616,4322.564102564103,4807.6923076923085,3784.615384615385,4228.205128205129,4264.102564102564,4164.615384615385,4397.948717948719,4067.1794871794878,4265.128205128206,4315.8974358974365,4409.743589743591,4387.179487179487,1683.0,1683.0,1657.542,1543.8424072265625,0.0,0.0,0.0,0.0
1656035,12.0,0.0,0.0,4468.717948717949,4151.282051282052,4322.051282051282,4812.307692307693,3778.461538461539,4216.923076923077,4252.307692307693,4164.615384615385,4388.205128205129,4066.666666666667,4264.615384615385,4316.410256410257,4405.641025641026,4382.564102564103,1681.0,1684.0,1657.551,1543.8424072265625,0.0,0.0,0.0,0.0
1656035,13.0,0.0,318.0,4474.871794871796,4156.923076923077,4331.794871794872,4813.333333333334,3778.9743589743593,4214.871794871796,4250.256410256411,4162.564102564103,4394.358974358975,4073.8461538461543,4263.076923076924,4325.128205128206,4409.2307692307695,4390.769230769231,1683.0,1684.0,1657.558,1543.8424072265625,0.0,0.0,0.0,0.0
1656035,14.0,0.0,494.0,4490.769230769231,4168.205128205129,4344.102564102564,4809.2307692307695,3782.0512820512827,4224.615384615385,4256.923076923077,4165.128205128206,4404.615384615385,4084.1025641025644,4263.589743589744,4329.743589743591,4419.48717948718,4406.153846153847,1683.0,1685.0,1657.567,1543.8424072265625,0.0,0.0,0.0,0.0
1656035,15.0,0.0,488.0,4496.923076923077,4166.666666666667,4344.102564102564,4813.333333333334,3780.512820512821,4224.615384615385,4254.871794871796,4166.153846153847,4396.923076923077,4082.0512820512827,4266.153846153847,4327.6923076923085,4420.512820512821,4406.666666666667,1683.0,1687.0,1657.573,1543.8424072265625,0.0,0.0,0.0,0.0
1656035,16.0,0.0,0.0,4494.358974358975,4171.794871794872,4345.641025641026,4810.256410256411,3780.512820512821,4216.923076923077,4256.923076923077,4163.589743589744,4393.333333333334,4085.6410256410263,4264.102564102564,4329.2307692307695,4423.589743589744,4408.205128205129,1683.0,1687.0,1657.581,1543.8424072265625,0.0,0.0,0.0,0.0
1656036,17.0,0.0,0.0,4491.794871794872,4179.48717948718,4351.282051282052,4813.846153846154,3785.6410256410263,4215.384615384616,4265.641025641026,4165.641025641026,4404.615384615385,4098.461538461539,4265.641025641026,4333.333333333334,4433.333333333334,4416.923076923077,1683.0,1688.0,1657.589,1543.8424072265625,0.0,0.0,0.0,0.0
1656036,18.0,0.0,0.0,4484.615384615385,4169.74358974359,4343.076923076924,4814.871794871796,3786.1538461538466,4218.974358974359,4264.102564102564,4163.589743589744,4403.589743589744,4092.307692307693,4266.153846153847,4326.666666666667,4430.256410256411,4408.205128205129,1682.0,1687.0,1657.597,1543.8424072265625,0.0,0.0,0.0,0.0
1656036,19.0,0.0,0.0,4474.871794871796,4155.384615384616,4330.256410256411,4809.743589743591,3784.1025641025644,4227.179487179487,4256.410256410257,4155.8974358974365,4393.846153846154,4075.8974358974365,4264.102564102564,4320.000000000001,4412.307692307693,4389.2307692307695,1682.0,1685.0,1657.605,1543.8424072265625,0.0,0.0,0.0,0.0
1656036,20.0,0.0,0.0,4471.794871794872,4152.820512820514,4324.615384615385,4814.871794871796,3783.589743589744,4237.435897435898,4257.948717948719,4158.461538461539,4400.512820512821,4076.410256410257,4265.641025641026,4322.051282051282,4404.102564102564,4385.641025641026,1681.0,1684.0,1657.613,1543.8424072265625,0.0,0.0,0.0,0.0
1656036,21.0,0.0,0.0,4478.974358974359,4159.48717948718,4328.717948717949,4812.307692307693,3781.538461538462,4234.358974358975,4261.538461538462,4161.025641025642,4407.6923076923085,4088.717948717949,4266.666666666667,4323.076923076924,4414.358974358975,4395.8974358974365,1680.0,1686.0,1657.62,1543.8424072265625,0.0,0.0,0.0,0.0
1656036,22.0,0.0,0.0,4488.205128205129,4167.179487179487,4336.410256410257,4811.794871794872,3781.0256410256416,4217.948717948719,4255.8974358974365,4152.820512820514,4399.48717948718,4092.820512820513,4265.128205128206,4327.179487179487,4430.769230769231,4407.179487179487,1680.0,1684.0,1657.628,1543.8424072265625,0.0,0.0,0.0,0.0
1656036,23.0,0.0,0.0,4484.615384615385,4164.102564102564,4332.820512820514,4811.794871794872,3782.564102564103,4214.358974358975,4252.307692307693,4148.717948717949,4392.307692307693,4084.615384615385,4264.102564102564,4328.205128205129,4427.6923076923085,4404.615384615385,1680.0,1685.0,1657.636,1543.8424072265625,0.0,0.0,0.0,0.0
1656036,24.0,0.0,0.0,4471.282051282052,4154.358974358975,4322.051282051282,4806.666666666667,3781.0256410256416,4222.564102564103,4256.410256410257,4150.769230769231,4388.717948717949,4072.820512820513,4264.615384615385,4321.025641025642,4413.846153846154,4391.794871794872,1680.0,1685.0,1657.644,1543.8424072265625,0.0,0.0,0.0,0.0
1656037,25.0,0.0,0.0,4470.769230769231,4156.923076923077,4326.153846153847,4814.358974358975,3781.538461538462,4220.512820512821,4261.025641025642,4154.358974358975,4388.717948717949,4075.3846153846157,4265.128205128206,4323.589743589744,4418.974358974359,4389.743589743591,1679.0,1685.0,1657.652,1543.8424072265625,0.0,0.0,0.0,0.0
1656037,26.0,0.0,0.0,4483.589743589744,4169.74358974359,4339.48717948718,4812.820512820514,3786.1538461538466,4221.025641025642,4264.615384615385,4163.076923076924,4398.461538461539,4091.7948717948725,4264.615384615385,4329.743589743591,4434.871794871796,4405.641025641026,1680.0,1684.0,1657.659,1543.8424072265625,0.0,0.0,0.0,0.0
1656037,27.0,0.0,0.0,4489.2307692307695,4173.333333333334,4338.974358974359,4809.2307692307695,3786.666666666667,4230.769230769231,4265.641025641026,4170.256410256411,4411.282051282052,4100.000000000001,4266.153846153847,4328.717948717949,4438.461538461539,4405.128205128206,1680.0,1683.0,1657.667,1543.8424072265625,0.0,0.0,0.0,0.0
1656037,28.0,0.0,0.0,4485.641025641026,4164.102564102564,4332.820512820514,4813.846153846154,3786.1538461538466,4233.846153846154,4263.076923076924,4168.205128205129,4417.435897435898,4097.435897435898,4266.666666666667,4327.179487179487,4432.820512820514,4368.717948717949,1680.0,1684.0,1657.674,1543.8424072265625,0.0,0.0,0.0,0.0
1656037,29.0,0.0,0.0,4483.589743589744,4158.974358974359,4334.871794871796,4809.2307692307695,3787.1794871794878,4230.256410256411,4262.051282051282,4164.615384615385,4417.435897435898,4098.974358974359,4265.128205128206,4327.179487179487,4431.794871794872,4342.051282051282,1680.0,1684.0,1657.683,1543.8424072265625,0.0,0.0,0.0,0.0
1656037,30.0,0.0,0.0,4484.102564102564,4162.564102564103,4333.846153846154,4813.333333333334,3786.666666666667,4228.205128205129,4259.48717948718,4164.615384615385,4413.846153846154,4100.000000000001,4266.666666666667,4325.641025641026,4431.282051282052,4354.871794871796,1680.0,1685.0,1657.691,1543.8424072265625,0.0,0.0,0.0,0.0
1656037,31.0,0.0,0.0,4488.717948717949,4169.74358974359,4335.8974358974365,4813.846153846154,3786.666666666667,4229.74358974359,4258.974358974359,4167.179487179487,4413.846153846154,4099.48717948718,4267.179487179487,4325.128205128206,4432.820512820514,4375.8974358974365,1680.0,1684.0,1657.699,1543.8424072265625,0.0,0.0,0.0,0.0
1656038,32.0,0.0,0.0,4493.846153846154,4170.769230769231,4338.974358974359,4808.717948717949,3787.1794871794878,4229.2307692307695,4261.025641025642,4157.435897435898,4407.179487179487,4097.435897435898,4264.102564102564,4323.076923076924,4430.256410256411,4374.871794871796,1680.0,1685.0,1657.706,1543.8424072265625,0.0,0.0,0.0,0.0
1656039,33.0,0.0,0.0,4485.128205128206,4162.051282051282,4325.128205128206,4811.282051282052,3785.1282051282055,4226.153846153847,4256.923076923077,4140.000000000001,4393.333333333334,4084.1025641025644,4263.076923076924,4313.846153846154,4413.333333333334,4363.076923076924,1681.0,1683.0,1657.714,1543.8424072265625,0.0,0.0,0.0,0.0
1656039,34.0,0.0,0.0,4475.384615384616,4158.461538461539,4317.948717948719,4808.717948717949,3786.1538461538466,4226.666666666667,4255.384615384616,4141.025641025642,4399.48717948718,4078.9743589743593,4261.538461538462,4312.307692307693,4406.666666666667,4362.051282051282,1680.0,1685.0,1657.722,1543.8424072265625,0.0,0.0,0.0,0.0
1656040,35.0,0.0,0.0,4483.589743589744,4166.666666666667,4330.769230769231,4811.794871794872,3790.7692307692314,4230.256410256411,4261.025641025642,4147.6923076923085,4403.076923076924,4088.205128205129,4264.615384615385,4323.589743589744,4423.076923076924,4374.358974358975,1682.0,1684.0,1657.73,1543.8424072265625,0.0,0.0,0.0,0.0
1656040,36.0,0.0,0.0,4494.871794871796,4174.871794871796,4341.025641025642,4811.282051282052,3792.307692307693,4234.358974358975,4265.128205128206,4142.051282051282,4384.615384615385,4087.692307692308,4265.641025641026,4328.717948717949,4432.307692307693,4383.076923076924,1681.0,1684.0,1657.739,1543.8424072265625,0.0,0.0,0.0,0.0
1656041,37.0,0.0,0.0,4494.871794871796,4172.820512820514,4337.948717948719,4807.6923076923085,3792.307692307693,4234.358974358975,4264.102564102564,4143.076923076924,4380.512820512821,4082.564102564103,4264.102564102564,4322.051282051282,4421.538461538462,4376.923076923077,1682.0,1685.0,1657.746,1543.8424072265625,0.0,0.0,0.0,0.0
1656041,38.0,0.0,0.0,4497.435897435898,4172.820512820514,4337.948717948719,4812.307692307693,3794.358974358975,4227.179487179487,4262.051282051282,4155.384615384616,4408.205128205129,4098.974358974359,4267.179487179487,4325.641025641026,4420.000000000001,4378.461538461539,1682.0,1684.0,1657.754,1543.8424072265625,0.0,0.0,0.0,0.0
1656041,39.0,0.0,0.0,4503.076923076924,4176.923076923077,4341.025641025642,4809.2307692307695,3793.333333333334,4226.153846153847,4265.128205128206,4158.461538461539,4424.102564102564,4114.358974358975,4265.128205128206,4334.358974358975,4432.307692307693,4387.6923076923085,1681.0,1685.0,1657.761,1543.8424072265625,0.0,0.0,0.0,0.0
1656042,40.0,0.0,0.0,4491.282051282052,4167.6923076923085,4336.923076923077,4811.794871794872,3792.307692307693,4235.384615384616,4265.128205128206,4144.615384615385,4402.564102564103,4094.358974358975,4262.051282051282,4328.205128205129,4424.102564102564,4382.051282051282,1682.0,1684.0,1657.77,1543.8424072265625,0.0,0.0,0.0,0.0
1656042,41.0,0.0,0.0,4479.48717948718,4155.384615384616,4331.282051282052,4813.333333333334,3788.205128205129,4231.282051282052,4257.948717948719,4135.384615384616,4383.589743589744,4074.8717948717954,4263.076923076924,4320.000000000001,4407.179487179487,4372.820512820514,1681.0,1684.0,1657.777,1543.8424072265625,0.0,0.0,0.0,0.0
1656042,42.0,0.0,0.0,4487.6923076923085,4159.48717948718,4333.333333333334,4808.205128205129,3780.512820512821,4216.923076923077,4254.358974358975,4143.589743589744,4392.820512820514,4083.589743589744,4263.589743589744,4324.102564102564,4413.333333333334,4376.923076923077,1682.0,1683.0,1657.786,1543.8424072265625,0.0,0.0,0.0,0.0
1656063,43.0,0.0,0.0,4490.256410256411,4158.461538461539,4328.717948717949,4814.871794871796,3777.435897435898,4215.384615384616,4254.358974358975,4151.794871794872,4402.051282051282,4089.23076923077,4264.615384615385,4328.717948717949,4418.974358974359,4378.461538461539,1681.0,1683.0,1657.792,1544.3115234375,0.0,0.0,0.0,0.0
1656063,44.0,0.0,0.0,4479.48717948718,4147.6923076923085,4318.974358974359,4812.307692307693,3776.9230769230776,4219.48717948718,4251.794871794872,4142.051282051282,4395.8974358974365,4078.9743589743593,4264.615384615385,4321.025641025642,4409.743589743591,4369.2307692307695,1681.0,1683.0,1657.801,1544.3115234375,0.0,0.0,0.0,0.0
1656063,45.0,0.0,0.0,4484.102564102564,4150.256410256411,4322.564102564103,4809.743589743591,3776.9230769230776,4215.8974358974365,4249.2307692307695,4134.871794871796,4397.435897435898,4079.48717948718,4267.6923076923085,4323.589743589744,4411.282051282052,4368.205128205129,1680.0,1684.0,1657.808,1544.3115234375,0.0,0.0,0.0,0.0
1656063,46.0,0.0,0.0,4497.435897435898,4161.025641025642,4333.846153846154,4812.307692307693,3780.0000000000005,4217.435897435898,4253.846153846154,4144.615384615385,4410.769230769231,4095.3846153846157,4266.666666666667,4332.820512820514,4424.102564102564,4377.435897435898,1681.0,1683.0,1657.816,1544.3115234375,0.0,0.0,0.0,0.0
1656408,47.0,0.0,0.0,4493.846153846154,4157.435897435898,4331.794871794872,4808.717948717949,3782.0512820512827,4224.102564102564,4256.923076923077,4144.615384615385,4410.256410256411,4097.435897435898,4262.051282051282,4327.6923076923085,4426.666666666667,4378.461538461539,1680.0,1684.0,1657.824,1544.3427734375,0.0,0.0,0.0,0.0
1656408,48.0,0.0,0.0,4488.717948717949,4152.820512820514,4327.179487179487,4814.871794871796,3781.538461538462,4223.076923076924,4253.846153846154,4135.384615384616,4403.076923076924,4089.7435897435903,4265.641025641026,4324.102564102564,4422.564102564103,4375.8974358974365,1680.0,1684.0,1657.831,1544.3427734375,0.0,0.0,0.0,0.0
1656408,49.0,0.0,0.0,4498.461538461539,4158.461538461539,4333.333333333334,4814.871794871796,3784.1025641025644,4228.717948717949,4257.435897435898,4136.923076923077,4412.820512820514,4093.333333333334,4267.6923076923085,4326.153846153847,4424.615384615385,4376.923076923077,1680.0,1685.0,1657.839,1544.3427734375,0.0,0.0,0.0,0.0
1656409,50.0,0.0,0.0,4496.923076923077,4155.384615384616,4331.282051282052,4810.256410256411,3785.6410256410263,4237.435897435898,4263.076923076924,4140.000000000001,4416.923076923077,4091.2820512820517,4264.102564102564,4320.512820512821,4417.435897435898,4365.128205128206,1680.0,1685.0,1657.847,1544.3427734375,0.0,0.0,0.0,0.0
1656409,51.0,0.0,0.0,4487.179487179488,4149.74358974359,4322.564102564103,4810.769230769231,3783.589743589744,4232.820512820514,4258.974358974359,4137.948717948719,4406.666666666667,4079.48717948718,4263.589743589744,4315.384615384616,4405.641025641026,4353.846153846154,1680.0,1685.0,1657.855,1544.3427734375,0.0,0.0,0.0,0.0
1656409,52.0,0.0,0.0,4487.6923076923085,4153.846153846154,4323.589743589744,4810.769230769231,3781.538461538462,4224.615384615385,4253.333333333334,4133.846153846154,4399.48717948718,4076.9230769230776,4265.128205128206,4317.948717948719,4407.6923076923085,4361.538461538462,1681.0,1684.0,1657.864,1544.3427734375,0.0,0.0,0.0,0.0
1656410,53.0,0.0,0.0,4485.641025641026,4155.384615384616,4325.641025641026,4818.461538461539,3781.538461538462,4221.538461538462,4253.333333333334,4122.564102564103,4396.410256410257,4077.435897435898,4265.641025641026,4321.538461538462,4412.307692307693,4367.179487179487,1680.0,1685.0,1657.871,1544.3427734375,0.0,0.0,0.0,0.0
1656410,54.0,0.0,0.0,4482.051282051282,4152.820512820514,4324.615384615385,4814.358974358975,3787.1794871794878,4225.641025641026,4258.461538461539,4121.025641025642,4396.410256410257,4077.435897435898,4264.102564102564,4320.512820512821,4411.282051282052,4364.615384615385,1681.0,1684.0,1657.878,1544.3427734375,0.0,0.0,0.0,0.0
1656410,55.0,0.0,0.0,4487.179487179488,4152.820512820514,4326.153846153847,4809.743589743591,3789.2307692307695,4232.820512820514,4263.076923076924,4135.384615384616,4404.615384615385,4082.564102564103,4263.076923076924,4321.538461538462,4412.820512820514,4366.666666666667,1681.0,1683.0,1657.886,1544.3427734375,0.0,0.0,0.0,0.0
1656410,56.0,0.0,0.0,4491.794871794872,4151.282051282052,4328.205128205129,4814.871794871796,3782.0512820512827,4228.717948717949,4261.538461538462,4142.564102564103,4412.307692307693,4086.1538461538466,4264.102564102564,4326.153846153847,4415.8974358974365,4373.846153846154,1681.0,1685.0,1657.894,1544.3427734375,0.0,0.0,0.0,0.0
1656410,57.0,0.0,0.0,4494.358974358975,4154.358974358975,4331.794871794872,4808.717948717949,3777.435897435898,4223.076923076924,4262.051282051282,4140.512820512821,4414.871794871796,4089.23076923077,4264.102564102564,4328.717948717949,4420.512820512821,4379.48717948718,1682.0,1683.0,1657.902,1544.3427734375,0.0,0.0,0.0,0.0
1656411,58.0,0.0,0.0,4496.923076923077,4158.461538461539,4334.358974358975,4814.358974358975,3782.0512820512827,4222.051282051282,4263.076923076924,4144.102564102564,4416.410256410257,4091.7948717948725,4264.102564102564,4328.717948717949,4421.538461538462,4379.48717948718,1681.0,1684.0,1657.91,1544.3427734375,0.0,0.0,0.0,0.0
1656411,59.0,0.0,0.0,4494.871794871796,4157.435897435898,4333.333333333334,4818.461538461539,3784.1025641025644,4222.051282051282,4259.48717948718,4150.256410256411,4418.974358974359,4092.820512820513,4262.564102564103,4328.717948717949,4419.48717948718,4376.410256410257,1681.0,1683.0,1657.919,1544.3427734375,0.0,0.0,0.0,0.0
1656411,60.0,0.0,0.0,4497.435897435898,4158.974358974359,4332.820512820514,4811.282051282052,3781.538461538462,4226.153846153847,4262.051282051282,4156.410256410257,4423.076923076924,4100.000000000001,4264.102564102564,4332.307692307693,4424.615384615385,4383.076923076924,1681.0,1683.0,1657.925,1544.3427734375,0.0,0.0,0.0,0.0
1656411,61.0,0.0,0.0,4500.512820512821,4158.461538461539,4328.205128205129,4813.333333333334,3784.615384615385,4228.717948717949,4268.205128205129,4148.717948717949,4422.051282051282,4104.615384615385,4267.6923076923085,4335.384615384616,4429.743589743591,4389.743589743591,1682.0,1682.0,1657.934,1544.3427734375,0.0,0.0,0.0,0.0
1656412,62.0,0.0,0.0,4489.2307692307695,4148.717948717949,4319.48717948718,4811.794871794872,3790.2564102564106,4228.717948717949,4269.74358974359,4117.435897435898,4408.205128205129,4091.2820512820517,4266.153846153847,4328.205128205129,4419.48717948718,4376.923076923077,1680.0,1684.0,1657.941,1544.3427734375,0.0,0.0,0.0,0.0
1656412,63.0,0.0,0.0,4477.948717948719,4136.923076923077,4313.333333333334,4814.871794871796,3788.717948717949,4235.8974358974365,4267.6923076923085,4098.461538461539,4398.974358974359,4075.3846153846157,4265.641025641026,4318.974358974359,4403.076923076924,4360.000000000001,1682.0,1683.0,1657.949,1544.3427734375,0.0,0.0,0.0,0.0
1656412,64.0,0.0,512.0,4485.128205128206,4138.974358974359,4315.8974358974365,4816.410256410257,3784.615384615385,4236.410256410257,4270.256410256411,4089.7435897435903,4415.384615384616,4083.076923076924,4266.153846153847,4322.051282051282,4403.076923076924,4367.179487179487,1680.0,1683.0,1657.957,1544.3427734375,0.0,0.0,0.0,0.0
1656412,65.0,0.0,0.0,4494.871794871796,4149.74358974359,4326.153846153847,4808.717948717949,3788.717948717949,4226.153846153847,4272.307692307693,4049.7435897435903,4434.871794871796,4100.000000000001,4262.564102564103,4329.2307692307695,4416.923076923077,4381.025641025642,1681.0,1684.0,1657.964,1544.3427734375,0.0,0.0,0.0,0.0
