timestamp,cnt,inerpolated,raw_cq,af3,f7,f3,fc5,t7,p7,o1,o2,p8,t8,fc6,f4,f8,af4,gyrox,gyroy,epoc_timestamp,epoc_es_timestamp,func_id,func_value,marker,sync_signal
1395220,67.0,0.0,524.0,4401.538461538462,4149.2307692307695,4289.74358974359,4815.384615384616,3778.461538461539,4207.179487179487,4224.615384615385,3968.717948717949,4364.102564102564,4028.717948717949,4255.384615384616,4231.794871794872,4337.948717948719,4295.8974358974365,1681.0,1680.0,1396.719,1283.3450927734375,0.0,0.0,0.0,0.0
1395220,68.0,0.0,494.0,4401.025641025642,4151.282051282052,4287.179487179487,4816.923076923077,3776.410256410257,4205.641025641026,4222.051282051282,4080.0000000000005,4363.076923076924,4032.307692307693,4257.435897435898,4235.8974358974365,4338.974358974359,4295.384615384616,1680.0,1681.0,1396.727,1283.3450927734375,0.0,0.0,0.0,0.0
1395220,69.0,0.0,546.0,4400.000000000001,4146.153846153847,4284.615384615385,4814.358974358975,3778.9743589743593,4203.076923076924,4216.410256410257,4098.974358974359,4345.641025641026,4024.1025641025644,4253.846153846154,4232.820512820514,4333.333333333334,4292.820512820514,1681.0,1681.0,1396.734,1283.3450927734375,0.0,0.0,0.0,0.0
1395220,70.0,0.0,541.0,4400.000000000001,4145.641025641026,4285.128205128206,4817.948717948719,3783.589743589744,4205.128205128206,4218.461538461539,4064.1025641025644,4345.641025641026,4024.615384615385,4254.358974358975,4230.769230769231,4333.333333333334,4296.410256410257,1680.0,1683.0,1396.742,1283.3450927734375,0.0,0.0,0.0,0.0
1395221,71.0,0.0,289.0,4404.615384615385,4156.923076923077,4294.358974358975,4818.974358974359,3783.589743589744,4210.256410256411,4227.179487179487,4086.666666666667,4359.48717948718,4035.3846153846157,4257.948717948719,4237.948717948719,4344.102564102564,4305.641025641026,1681.0,1683.0,1396.75,1283.3450927734375,0.0,0.0,0.0,0.0
1395221,72.0,0.0,450.0,4410.769230769231,4160.512820512821,4300.512820512821,4814.871794871796,3780.0000000000005,4212.307692307693,4226.666666666667,4099.48717948718,4365.128205128206,4037.9487179487182,4258.461538461539,4241.538461538462,4349.2307692307695,4309.2307692307695,1679.0,1682.0,1396.758,1283.3450927734375,0.0,0.0,0.0,0.0
1395221,73.0,0.0,469.0,4413.333333333334,4150.256410256411,4296.410256410257,4816.923076923077,3777.435897435898,4215.384615384616,4221.025641025642,4082.0512820512827,4354.358974358975,4030.2564102564106,4258.974358974359,4235.384615384616,4342.564102564103,4307.179487179487,1681.0,1682.0,1396.765,1283.3450927734375,0.0,0.0,0.0,0.0
1395222,74.0,0.0,490.0,4415.384615384616,4151.794871794872,4296.410256410257,4813.846153846154,3777.435897435898,4217.435897435898,4222.051282051282,4086.666666666667,4351.794871794872,4028.205128205129,4257.948717948719,4232.307692307693,4342.051282051282,4310.256410256411,1681.0,1681.0,1396.774,1283.3450927734375,0.0,0.0,0.0,0.0
1395222,75.0,0.0,483.0,4418.461538461539,4158.974358974359,4303.589743589744,4812.820512820514,3776.9230769230776,4210.256410256411,4225.641025641026,4099.48717948718,4365.641025641026,4033.333333333334,4255.8974358974365,4238.974358974359,4349.743589743591,4315.384615384616,1682.0,1682.0,1396.781,1283.3450927734375,0.0,0.0,0.0,0.0
1395223,76.0,0.0,0.0,4419.48717948718,4158.974358974359,4307.6923076923085,4817.435897435898,3773.8461538461543,4203.589743589744,4225.128205128206,4107.179487179487,4368.205128205129,4037.9487179487182,4257.435897435898,4241.538461538462,4356.410256410257,4314.871794871796,1682.0,1681.0,1396.789,1283.3450927734375,0.0,0.0,0.0,0.0
1395223,77.0,0.0,271.0,4418.461538461539,4156.410256410257,4306.666666666667,4814.871794871796,3773.333333333334,4206.666666666667,4220.000000000001,4100.000000000001,4349.2307692307695,4037.9487179487182,4257.948717948719,4239.48717948718,4359.48717948718,4316.410256410257,1683.0,1683.0,1396.796,1283.3450927734375,0.0,0.0,0.0,0.0
1395223,78.0,0.0,490.0,4417.435897435898,4152.820512820514,4305.641025641026,4814.871794871796,3777.435897435898,4212.820512820514,4220.512820512821,4087.692307692308,4341.538461538462,4031.7948717948725,4256.410256410257,4238.974358974359,4353.333333333334,4316.923076923077,1684.0,1682.0,1396.805,1283.3450927734375,0.0,0.0,0.0,0.0
1395223,79.0,0.0,483.0,4420.000000000001,4150.256410256411,4309.2307692307695,4815.384615384616,3778.9743589743593,4216.923076923077,4228.205128205129,4087.1794871794878,4357.435897435898,4033.8461538461543,4255.8974358974365,4238.461538461539,4347.179487179487,4308.717948717949,1683.0,1683.0,1396.812,1283.3450927734375,0.0,0.0,0.0,0.0
1395223,80.0,0.0,0.0,4423.076923076924,4153.333333333334,4312.307692307693,4816.410256410257,3776.410256410257,4215.384615384616,4230.256410256411,4097.435897435898,4370.769230769231,4044.1025641025644,4257.948717948719,4238.461538461539,4351.794871794872,4304.102564102564,1685.0,1682.0,1396.821,1283.3450927734375,0.0,0.0,0.0,0.0
1395224,81.0,0.0,271.0,4421.025641025642,4155.8974358974365,4309.743589743591,4817.435897435898,3776.9230769230776,4211.282051282052,4225.128205128206,4100.000000000001,4361.538461538462,4045.1282051282055,4258.974358974359,4237.435897435898,4357.948717948719,4308.717948717949,1684.0,1683.0,1396.829,1283.3450927734375,0.0,0.0,0.0,0.0
1395224,82.0,0.0,490.0,4412.307692307693,4148.205128205129,4301.538461538462,4815.384615384616,3774.8717948717954,4213.846153846154,4223.076923076924,4094.358974358975,4341.538461538462,4032.820512820513,4257.435897435898,4231.794871794872,4350.256410256411,4304.102564102564,1685.0,1684.0,1396.836,1283.3450927734375,0.0,0.0,0.0,0.0
1395224,83.0,0.0,483.0,4404.615384615385,4135.8974358974365,4292.820512820514,4814.871794871796,3769.7435897435903,4212.307692307693,4220.512820512821,4111.282051282052,4338.974358974359,4027.1794871794878,4257.948717948719,4230.769230769231,4343.076923076924,4294.358974358975,1685.0,1683.0,1396.843,1283.3450927734375,0.0,0.0,0.0,0.0
1395225,84.0,0.0,0.0,4409.2307692307695,4141.025641025642,4294.358974358975,4814.358974358975,3769.2307692307695,4205.641025641026,4222.051282051282,4111.282051282052,4354.358974358975,4038.9743589743593,4258.974358974359,4233.846153846154,4351.282051282052,4298.974358974359,1684.0,1684.0,1396.851,1283.3450927734375,0.0,0.0,0.0,0.0
1395225,85.0,0.0,271.0,4414.871794871796,4147.6923076923085,4299.48717948718,4817.435897435898,3772.307692307693,4207.6923076923085,4227.6923076923085,4102.051282051282,4365.641025641026,4047.1794871794878,4260.000000000001,4234.358974358975,4358.461538461539,4305.128205128206,1684.0,1683.0,1396.86,1283.3450927734375,0.0,0.0,0.0,0.0
1395225,86.0,0.0,490.0,4409.743589743591,4139.48717948718,4295.8974358974365,4817.435897435898,3773.8461538461543,4210.256410256411,4228.205128205129,4174.358974358975,4367.6923076923085,4044.615384615385,4258.461538461539,4235.8974358974365,4354.358974358975,4302.051282051282,1684.0,1683.0,1396.867,1283.3450927734375,0.0,0.0,0.0,0.0
1395226,87.0,0.0,483.0,4406.153846153847,4133.333333333334,4289.74358974359,4813.846153846154,3773.8461538461543,4208.717948717949,4226.153846153847,4062.0512820512827,4362.564102564103,4044.1025641025644,4256.410256410257,4236.923076923077,4352.820512820514,4301.538461538462,1683.0,1683.0,1396.874,1283.3450927734375,0.0,0.0,0.0,0.0
1395226,88.0,0.0,0.0,4408.205128205129,4138.974358974359,4291.794871794872,4820.512820512821,3774.358974358975,4210.256410256411,4224.615384615385,3748.205128205129,4354.871794871796,4043.589743589744,4259.48717948718,4235.384615384616,4358.974358974359,4307.179487179487,1683.0,1683.0,1396.882,1283.3450927734375,0.0,0.0,0.0,0.0
1395226,89.0,0.0,271.0,4408.205128205129,4143.076923076924,4297.948717948719,4822.564102564103,3775.8974358974365,4216.923076923077,4227.6923076923085,3666.1538461538466,4358.974358974359,4043.589743589744,4261.538461538462,4235.384615384616,4363.589743589744,4311.794871794872,1683.0,1682.0,1396.89,1283.3450927734375,0.0,0.0,0.0,0.0
1395226,90.0,0.0,490.0,4407.6923076923085,4142.051282051282,4301.025641025642,4815.384615384616,3779.48717948718,4217.435897435898,4234.358974358975,3672.820512820513,4366.666666666667,4045.6410256410263,4259.48717948718,4237.435897435898,4360.512820512821,4311.282051282052,1684.0,1683.0,1396.898,1283.3450927734375,0.0,0.0,0.0,0.0
1395226,91.0,0.0,483.0,4410.256410256411,4141.538461538462,4296.923076923077,4812.307692307693,3778.461538461539,4208.205128205129,4232.820512820514,3494.8717948717954,4359.48717948718,4039.48717948718,4258.461538461539,4237.435897435898,4354.358974358975,4305.641025641026,1683.0,1681.0,1396.906,1283.3450927734375,0.0,0.0,0.0,0.0
1395226,92.0,0.0,0.0,4405.641025641026,4139.48717948718,4289.74358974359,4813.846153846154,3771.794871794872,4202.564102564103,4225.641025641026,3400.0000000000005,4351.282051282052,4029.23076923077,4257.435897435898,4231.794871794872,4351.282051282052,4298.974358974359,1685.0,1681.0,1396.914,1283.3450927734375,0.0,0.0,0.0,0.0
1395226,93.0,0.0,271.0,4395.384615384616,4134.871794871796,4287.179487179487,4819.48717948718,3770.7692307692314,4205.128205128206,4225.128205128206,3520.512820512821,4358.974358974359,4030.7692307692314,4258.461538461539,4232.820512820514,4352.820512820514,4301.538461538462,1684.0,1680.0,1396.922,1283.3450927734375,0.0,0.0,0.0,0.0
1395227,94.0,0.0,490.0,4395.8974358974365,4134.358974358975,4290.769230769231,4817.948717948719,3773.333333333334,4207.6923076923085,4229.2307692307695,3560.512820512821,4364.102564102564,4037.435897435898,4260.000000000001,4238.974358974359,4358.974358974359,4310.256410256411,1684.0,1681.0,1396.929,1283.3450927734375,0.0,0.0,0.0,0.0
1395227,95.0,0.0,483.0,4401.025641025642,4138.461538461539,4292.307692307693,4814.358974358975,3773.333333333334,4204.102564102564,4228.205128205129,3600.0000000000005,4352.820512820514,4032.307692307693,4259.48717948718,4236.923076923077,4360.512820512821,4308.205128205129,1684.0,1680.0,1396.937,1283.3450927734375,0.0,0.0,0.0,0.0
1395227,96.0,0.0,0.0,4401.538461538462,4138.974358974359,4292.820512820514,4817.948717948719,3773.8461538461543,4200.512820512821,4225.641025641026,3734.358974358975,4347.179487179487,4027.692307692308,4257.948717948719,4231.282051282052,4354.358974358975,4302.564102564103,1685.0,1681.0,1396.945,1283.3450927734375,0.0,0.0,0.0,0.0
1395227,97.0,0.0,271.0,4397.948717948719,4133.846153846154,4293.333333333334,4817.948717948719,3777.9487179487182,4205.128205128206,4229.74358974359,3783.076923076924,4352.307692307693,4030.7692307692314,4257.948717948719,4233.333333333334,4351.282051282052,4307.6923076923085,1684.0,1680.0,1396.955,1283.3450927734375,0.0,0.0,0.0,0.0
1395228,98.0,0.0,490.0,4394.871794871796,4136.923076923077,4290.256410256411,4817.435897435898,3778.461538461539,4209.2307692307695,4232.307692307693,3721.0256410256416,4351.794871794872,4028.717948717949,4260.512820512821,4236.410256410257,4352.820512820514,4313.846153846154,1683.0,1681.0,1396.961,1283.3450927734375,0.0,0.0,0.0,0.0
1395249,99.0,0.0,483.0,4396.923076923077,4144.102564102564,4291.282051282052,4816.410256410257,3776.410256410257,4206.666666666667,4228.717948717949,3515.8974358974365,4353.333333333334,4026.666666666667,4258.974358974359,4234.871794871796,4356.410256410257,4310.769230769231,1685.0,1681.0,1396.969,1283.5953369140625,0.0,0.0,0.0,0.0
1395249,100.0,0.0,0.0,4398.974358974359,4142.564102564103,4294.871794871796,4815.384615384616,3777.435897435898,4204.102564102564,4227.6923076923085,3493.333333333334,4359.48717948718,4033.8461538461543,4256.410256410257,4234.358974358975,4362.051282051282,4307.179487179487,1683.0,1681.0,1396.978,1283.5953369140625,0.0,0.0,0.0,0.0
1395249,101.0,0.0,271.0,4400.512820512821,4140.512820512821,4295.384615384616,4818.461538461539,3780.512820512821,4205.128205128206,4229.2307692307695,3852.820512820513,4361.538461538462,4043.076923076924,4259.48717948718,4235.384615384616,4365.128205128206,4311.282051282052,1684.0,1682.0,1396.984,1283.5953369140625,0.0,0.0,0.0,0.0
1395249,102.0,0.0,490.0,4402.564102564103,4141.538461538462,4296.410256410257,4817.948717948719,3778.9743589743593,4203.076923076924,4227.6923076923085,4111.794871794872,4356.410256410257,4041.538461538462,4262.051282051282,4231.794871794872,4362.564102564103,4316.923076923077,1684.0,1681.0,1396.992,1283.5953369140625,0.0,0.0,0.0,0.0
1395336,103.0,0.0,483.0,4399.48717948718,4134.358974358975,4296.410256410257,4817.435897435898,3774.8717948717954,4195.8974358974365,4223.589743589744,4143.076923076924,4341.025641025642,4028.205128205129,4260.000000000001,4231.282051282052,4357.435897435898,4312.820512820514,1684.0,1683.0,1397.0,1283.6265869140625,0.0,0.0,0.0,0.0
1395336,104.0,0.0,0.0,4395.384615384616,4129.2307692307695,4291.282051282052,4818.974358974359,3769.7435897435903,4190.256410256411,4222.564102564103,4146.666666666667,4327.6923076923085,4018.9743589743593,4257.435897435898,4235.8974358974365,4358.461538461539,4308.205128205129,1683.0,1682.0,1397.007,1283.6265869140625,0.0,0.0,0.0,0.0
1395336,105.0,0.0,271.0,4399.48717948718,4138.461538461539,4293.333333333334,4815.384615384616,3767.692307692308,4191.794871794872,4224.615384615385,3856.410256410257,4333.333333333334,4024.615384615385,4258.461538461539,4235.8974358974365,4367.179487179487,4315.384615384616,1684.0,1683.0,1397.016,1283.6265869140625,0.0,0.0,0.0,0.0
1395336,106.0,0.0,490.0,4397.948717948719,4137.435897435898,4293.846153846154,4813.333333333334,3768.717948717949,4191.794871794872,4222.564102564103,3535.3846153846157,4342.051282051282,4028.717948717949,4260.512820512821,4235.384615384616,4365.128205128206,4313.846153846154,1683.0,1682.0,1397.023,1283.6265869140625,0.0,0.0,0.0,0.0
1395336,107.0,0.0,483.0,4385.641025641026,4120.512820512821,4281.025641025642,4813.333333333334,3765.6410256410263,4190.769230769231,4216.410256410257,3834.8717948717954,4337.948717948719,4020.0000000000005,4260.000000000001,4232.820512820514,4351.282051282052,4301.025641025642,1682.0,1684.0,1397.031,1283.6265869140625,0.0,0.0,0.0,0.0
1395337,108.0,0.0,0.0,4382.564102564103,4120.000000000001,4277.435897435898,4815.384615384616,3766.1538461538466,4194.358974358975,4215.8974358974365,4079.48717948718,4335.8974358974365,4018.9743589743593,4258.974358974359,4231.282051282052,4352.307692307693,4302.564102564103,1683.0,1683.0,1397.04,1283.6265869140625,0.0,0.0,0.0,0.0
1395337,109.0,0.0,271.0,4389.2307692307695,4130.769230769231,4285.128205128206,4814.871794871796,3771.2820512820517,4196.410256410257,4220.512820512821,3861.538461538462,4343.589743589744,4026.666666666667,4258.974358974359,4234.358974358975,4361.025641025642,4311.794871794872,1681.0,1684.0,1397.046,1283.6265869140625,0.0,0.0,0.0,0.0
1395337,110.0,0.0,490.0,4385.128205128206,4124.102564102564,4280.000000000001,4810.769230769231,3768.717948717949,4195.8974358974365,4219.48717948718,3914.358974358975,4345.641025641026,4022.564102564103,4257.435897435898,4234.358974358975,4355.8974358974365,4306.666666666667,1682.0,1683.0,1397.054,1283.6265869140625,0.0,0.0,0.0,0.0
1395337,111.0,0.0,483.0,4373.846153846154,4112.307692307693,4270.256410256411,4817.435897435898,3762.0512820512827,4191.282051282052,4211.794871794872,4184.615384615385,4340.000000000001,4016.9230769230776,4258.461538461539,4231.794871794872,4346.666666666667,4298.461538461539,1681.0,1684.0,1397.062,1283.6265869140625,0.0,0.0,0.0,0.0
1395337,112.0,0.0,0.0,4373.846153846154,4116.923076923077,4276.410256410257,4821.025641025642,3763.589743589744,4188.205128205129,4212.820512820514,4168.717948717949,4348.205128205129,4027.1794871794878,4260.512820512821,4233.846153846154,4351.794871794872,4303.589743589744,1681.0,1684.0,1397.07,1283.6265869140625,0.0,0.0,0.0,0.0
1395337,113.0,0.0,271.0,4380.000000000001,4121.025641025642,4285.128205128206,4813.846153846154,3771.2820512820517,4196.410256410257,4223.589743589744,4114.871794871796,4359.48717948718,4033.8461538461543,4261.025641025642,4235.384615384616,4358.974358974359,4307.179487179487,1681.0,1683.0,1397.078,1283.6265869140625,0.0,0.0,0.0,0.0
1395337,114.0,0.0,490.0,4382.051282051282,4119.48717948718,4283.076923076924,4814.871794871796,3769.2307692307695,4200.512820512821,4224.102564102564,4176.923076923077,4350.256410256411,4029.7435897435903,4260.512820512821,4233.846153846154,4359.48717948718,4306.666666666667,1680.0,1684.0,1397.088,1283.6265869140625,0.0,0.0,0.0,0.0
1395591,115.0,0.0,483.0,4385.641025641026,4124.615384615385,4284.102564102564,4817.435897435898,3764.1025641025644,4192.820512820514,4217.435897435898,4181.025641025642,4343.589743589744,4032.307692307693,4258.461538461539,4234.358974358975,4363.589743589744,4314.871794871796,1680.0,1683.0,1397.093,1283.7203369140625,0.0,0.0,0.0,0.0
1395591,116.0,0.0,0.0,4385.128205128206,4123.589743589744,4286.666666666667,4817.948717948719,3766.1538461538466,4192.307692307693,4218.461538461539,4178.461538461539,4352.820512820514,4035.8974358974365,4258.461538461539,4236.923076923077,4366.153846153847,4317.435897435898,1680.0,1683.0,1397.102,1283.7203369140625,0.0,0.0,0.0,0.0
1395592,117.0,0.0,271.0,4376.923076923077,4118.974358974359,4283.076923076924,4816.410256410257,3768.717948717949,4202.564102564103,4221.025641025642,4194.358974358975,4358.461538461539,4035.8974358974365,4259.48717948718,4234.358974358975,4364.615384615385,4309.743589743591,1680.0,1683.0,1397.109,1283.7203369140625,0.0,0.0,0.0,0.0
1395592,118.0,0.0,490.0,4377.435897435898,4123.589743589744,4283.076923076924,4813.333333333334,3767.692307692308,4201.538461538462,4217.435897435898,4192.307692307693,4351.794871794872,4039.48717948718,4260.512820512821,4231.794871794872,4370.256410256411,4312.307692307693,1679.0,1684.0,1397.117,1283.7203369140625,0.0,0.0,0.0,0.0
1395592,119.0,0.0,483.0,4388.717948717949,4130.256410256411,4287.179487179487,4815.8974358974365,3769.2307692307695,4194.871794871796,4213.333333333334,4193.333333333334,4348.205128205129,4042.564102564103,4263.076923076924,4234.871794871796,4377.948717948719,4317.948717948719,1680.0,1684.0,1397.125,1283.7203369140625,0.0,0.0,0.0,0.0
1395592,120.0,0.0,0.0,4390.769230769231,4132.307692307693,4285.641025641026,4814.358974358975,3769.7435897435903,4199.48717948718,4214.358974358975,4200.000000000001,4350.769230769231,4037.9487179487182,4264.102564102564,4235.384615384616,4375.8974358974365,4315.8974358974365,1680.0,1684.0,1397.133,1283.7203369140625,0.0,0.0,0.0,0.0
1395593,121.0,0.0,271.0,4383.589743589744,4130.769230769231,4280.512820512821,4814.871794871796,3768.205128205129,4203.076923076924,4213.333333333334,4197.435897435898,4347.179487179487,4030.2564102564106,4263.589743589744,4231.794871794872,4365.128205128206,4312.820512820514,1681.0,1685.0,1397.14,1283.7203369140625,0.0,0.0,0.0,0.0
1395593,122.0,0.0,490.0,4383.076923076924,4129.74358974359,4281.025641025642,4817.948717948719,3772.307692307693,4203.076923076924,4215.384615384616,4186.666666666667,4340.512820512821,4027.1794871794878,4260.000000000001,4230.769230769231,4358.461538461539,4313.333333333334,1680.0,1685.0,1397.148,1283.7203369140625,0.0,0.0,0.0,0.0
1395593,123.0,0.0,483.0,4386.666666666667,4131.794871794872,4287.179487179487,4814.871794871796,3773.8461538461543,4203.076923076924,4221.025641025642,4180.000000000001,4345.641025641026,4031.7948717948725,4258.461538461539,4232.820512820514,4366.153846153847,4316.923076923077,1681.0,1686.0,1397.156,1283.7203369140625,0.0,0.0,0.0,0.0
1395593,124.0,0.0,0.0,4386.666666666667,4132.820512820514,4290.256410256411,4815.8974358974365,3771.794871794872,4197.948717948719,4218.974358974359,4160.000000000001,4361.538461538462,4038.9743589743593,4262.051282051282,4231.794871794872,4376.410256410257,4321.538461538462,1681.0,1685.0,1397.164,1283.7203369140625,0.0,0.0,0.0,0.0
1395594,125.0,0.0,271.0,4385.641025641026,4130.769230769231,4287.179487179487,4816.923076923077,3773.8461538461543,4196.410256410257,4216.410256410257,4125.641025641026,4368.205128205129,4041.0256410256416,4263.589743589744,4230.256410256411,4374.358974358975,4321.538461538462,1681.0,1686.0,1397.172,1283.7203369140625,0.0,0.0,0.0,0.0
1395594,126.0,0.0,490.0,4384.615384615385,4128.205128205129,4283.076923076924,4816.923076923077,3771.794871794872,4197.948717948719,4216.923076923077,4107.179487179487,4353.846153846154,4034.8717948717954,4264.102564102564,4233.333333333334,4371.794871794872,4317.948717948719,1681.0,1685.0,1397.179,1283.7203369140625,0.0,0.0,0.0,0.0
1395594,127.0,0.0,483.0,4384.102564102564,4124.615384615385,4280.000000000001,4815.384615384616,3765.6410256410263,4195.384615384616,4213.333333333334,4109.74358974359,4340.512820512821,4029.23076923077,4262.051282051282,4234.358974358975,4370.256410256411,4316.410256410257,1680.0,1685.0,1397.187,1283.7203369140625,0.0,0.0,0.0,0.0
1395594,128.0,0.0,0.0,4383.589743589744,4121.025641025642,4277.435897435898,4814.871794871796,3766.666666666667,4194.358974358975,4210.769230769231,4108.205128205129,4347.6923076923085,4025.6410256410263,4258.461538461539,4230.256410256411,4360.512820512821,4312.820512820514,1680.0,1684.0,1397.195,1283.7203369140625,0.0,0.0,0.0,0.0
1395594,0.0,0.0,507.0,4383.076923076924,4122.051282051282,4280.512820512821,4815.384615384616,3771.794871794872,4196.923076923077,4210.769230769231,4096.410256410257,4342.051282051282,4018.461538461539,4259.48717948718,4230.769230769231,4356.923076923077,4312.820512820514,1679.0,1684.0,1397.203,1283.7203369140625,0.0,0.0,0.0,0.0
1395595,1.0,0.0,0.0,4386.153846153847,4127.6923076923085,4289.74358974359,4810.769230769231,3773.8461538461543,4202.051282051282,4212.307692307693,4090.7692307692314,4323.589743589744,4016.410256410257,4262.051282051282,4234.871794871796,4367.6923076923085,4322.051282051282,1680.0,1683.0,1397.211,1283.7203369140625,0.0,0.0,0.0,0.0
1395595,2.0,0.0,500.0,4389.2307692307695,4131.282051282052,4291.282051282052,4810.769230769231,3774.358974358975,4200.000000000001,4213.333333333334,4095.3846153846157,4333.333333333334,4026.666666666667,4262.564102564103,4236.410256410257,4370.769230769231,4326.153846153847,1678.0,1683.0,1397.219,1283.7203369140625,0.0,0.0,0.0,0.0
1395595,3.0,0.0,524.0,4388.205128205129,4129.74358974359,4286.153846153847,4816.923076923077,3773.8461538461543,4186.666666666667,4209.74358974359,4097.948717948719,4350.769230769231,4034.8717948717954,4264.102564102564,4232.820512820514,4365.641025641026,4321.025641025642,1679.0,1682.0,1397.226,1283.7203369140625,0.0,0.0,0.0,0.0
1395595,4.0,0.0,494.0,4386.666666666667,4123.589743589744,4283.589743589744,4815.384615384616,3769.2307692307695,4177.948717948719,4205.128205128206,4093.333333333334,4341.025641025642,4027.1794871794878,4262.564102564103,4230.769230769231,4366.666666666667,4318.974358974359,1678.0,1683.0,1397.234,1283.7203369140625,0.0,0.0,0.0,0.0
1395595,5.0,0.0,546.0,4383.076923076924,4114.358974358975,4278.974358974359,4816.923076923077,3765.6410256410263,4183.589743589744,4208.205128205129,4093.333333333334,4333.333333333334,4016.9230769230776,4260.000000000001,4230.256410256411,4360.512820512821,4318.461538461539,1678.0,1685.0,1397.242,1283.7203369140625,0.0,0.0,0.0,0.0
1395596,6.0,0.0,541.0,4378.461538461539,4113.333333333334,4276.410256410257,4817.948717948719,3768.205128205129,4187.179487179487,4210.256410256411,4089.7435897435903,4343.589743589744,4017.9487179487182,4260.000000000001,4229.74358974359,4355.384615384616,4315.8974358974365,1678.0,1684.0,1397.25,1283.7203369140625,0.0,0.0,0.0,0.0
1395596,7.0,0.0,283.0,4379.48717948718,4117.948717948719,4280.000000000001,4814.358974358975,3767.1794871794878,4181.538461538462,4204.615384615385,4076.410256410257,4341.538461538462,4021.0256410256416,4261.538461538462,4232.307692307693,4364.102564102564,4315.8974358974365,1676.0,1686.0,1397.258,1283.7203369140625,0.0,0.0,0.0,0.0
1395596,8.0,0.0,450.0,4383.589743589744,4116.410256410257,4278.461538461539,4813.846153846154,3761.0256410256416,4181.025641025642,4201.025641025642,4065.1282051282055,4335.384615384616,4014.8717948717954,4261.025641025642,4234.358974358975,4362.564102564103,4319.48717948718,1677.0,1685.0,1397.265,1283.7203369140625,0.0,0.0,0.0,0.0
1395596,9.0,0.0,469.0,4386.666666666667,4114.358974358975,4276.410256410257,4814.358974358975,3761.0256410256416,4186.666666666667,4205.128205128206,4062.564102564103,4345.128205128206,4013.8461538461543,4257.948717948719,4233.333333333334,4354.358974358975,4324.102564102564,1676.0,1684.0,1397.273,1283.7203369140625,0.0,0.0,0.0,0.0
1395596,10.0,0.0,490.0,4388.717948717949,4120.000000000001,4283.589743589744,4819.48717948718,3768.717948717949,4190.769230769231,4209.2307692307695,4067.1794871794878,4350.769230769231,4022.564102564103,4261.538461538462,4237.435897435898,4362.051282051282,4327.179487179487,1677.0,1683.0,1397.281,1283.7203369140625,0.0,0.0,0.0,0.0
1395596,11.0,0.0,483.0,4390.256410256411,4128.717948717949,4292.307692307693,4820.000000000001,3774.8717948717954,4194.871794871796,4214.358974358975,4081.0256410256416,4343.076923076924,4030.2564102564106,4263.589743589744,4240.512820512821,4374.358974358975,4328.717948717949,1676.0,1683.0,1397.289,1283.7203369140625,0.0,0.0,0.0,0.0
1395596,12.0,0.0,0.0,4387.6923076923085,4129.2307692307695,4292.820512820514,4812.820512820514,3774.358974358975,4195.8974358974365,4217.435897435898,4099.48717948718,4342.564102564103,4028.717948717949,4260.512820512821,4234.358974358975,4369.2307692307695,4326.666666666667,1677.0,1684.0,1397.297,1283.7203369140625,0.0,0.0,0.0,0.0
1395597,13.0,0.0,271.0,4385.128205128206,4122.564102564103,4286.153846153847,4812.820512820514,3775.8974358974365,4195.384615384616,4214.871794871796,4104.615384615385,4349.2307692307695,4024.615384615385,4262.564102564103,4230.256410256411,4359.48717948718,4325.641025641026,1678.0,1684.0,1397.305,1283.7203369140625,0.0,0.0,0.0,0.0
1395597,14.0,0.0,490.0,4386.666666666667,4123.076923076924,4286.153846153847,4813.333333333334,3780.0000000000005,4197.948717948719,4216.410256410257,4098.461538461539,4348.205128205129,4030.7692307692314,4265.128205128206,4232.307692307693,4363.589743589744,4324.615384615385,1679.0,1685.0,1397.312,1283.7203369140625,0.0,0.0,0.0,0.0
1395598,15.0,0.0,483.0,4383.589743589744,4123.589743589744,4286.153846153847,4817.948717948719,3777.435897435898,4196.410256410257,4217.948717948719,4094.358974358975,4347.179487179487,4034.358974358975,4263.589743589744,4230.256410256411,4366.666666666667,4318.461538461539,1680.0,1686.0,1397.321,1283.7203369140625,0.0,0.0,0.0,0.0
1395598,16.0,0.0,0.0,4380.512820512821,4118.461538461539,4280.000000000001,4820.000000000001,3772.820512820513,4188.717948717949,4212.820512820514,4092.820512820513,4353.846153846154,4031.2820512820517,4262.564102564103,4229.74358974359,4364.102564102564,4315.8974358974365,1681.0,1685.0,1397.328,1283.7203369140625,0.0,0.0,0.0,0.0
1395598,17.0,0.0,0.0,4384.615384615385,4119.48717948718,4280.512820512821,4816.410256410257,3775.8974358974365,4187.179487179487,4213.846153846154,4089.23076923077,4365.128205128206,4040.0000000000005,4265.128205128206,4236.923076923077,4368.717948717949,4323.589743589744,1680.0,1685.0,1397.337,1283.7203369140625,0.0,0.0,0.0,0.0
1395724,18.0,0.0,0.0,4388.717948717949,4126.666666666667,4285.641025641026,4817.435897435898,3780.512820512821,4188.205128205129,4220.512820512821,4084.1025641025644,4371.282051282052,4050.7692307692314,4266.153846153847,4240.000000000001,4375.8974358974365,4334.871794871796,1681.0,1685.0,1397.344,1283.9705810546875,0.0,0.0,0.0,0.0
1395724,19.0,0.0,0.0,4388.205128205129,4127.6923076923085,4287.179487179487,4817.948717948719,3777.9487179487182,4188.717948717949,4218.974358974359,4075.3846153846157,4367.179487179487,4049.23076923077,4264.615384615385,4235.8974358974365,4379.48717948718,4338.974358974359,1680.0,1686.0,1397.351,1283.9705810546875,0.0,0.0,0.0,0.0
1395724,20.0,0.0,0.0,4388.205128205129,4123.076923076924,4286.153846153847,4815.384615384616,3774.8717948717954,4191.794871794872,4214.358974358975,4065.1282051282055,4366.153846153847,4047.692307692308,4264.102564102564,4236.923076923077,4379.48717948718,4334.871794871796,1681.0,1686.0,1397.359,1283.9705810546875,0.0,0.0,0.0,0.0
1395725,21.0,0.0,0.0,4391.282051282052,4125.128205128206,4287.179487179487,4812.820512820514,3775.8974358974365,4189.74358974359,4217.948717948719,4060.5128205128212,4369.2307692307695,4052.820512820513,4263.589743589744,4239.48717948718,4377.948717948719,4331.282051282052,1679.0,1687.0,1397.367,1283.9705810546875,0.0,0.0,0.0,0.0
1395725,22.0,0.0,0.0,4391.794871794872,4134.358974358975,4288.717948717949,4811.282051282052,3779.48717948718,4189.74358974359,4218.974358974359,4061.538461538462,4364.102564102564,4047.692307692308,4262.051282051282,4236.923076923077,4377.948717948719,4331.794871794872,1680.0,1687.0,1397.375,1283.9705810546875,0.0,0.0,0.0,0.0
1395725,23.0,0.0,0.0,4384.615384615385,4131.794871794872,4283.076923076924,4816.410256410257,3781.0256410256416,4195.384615384616,4213.333333333334,4057.9487179487182,4350.769230769231,4031.7948717948725,4262.564102564103,4233.846153846154,4371.282051282052,4326.666666666667,1678.0,1686.0,1397.383,1283.9705810546875,0.0,0.0,0.0,0.0
1395725,24.0,0.0,0.0,4375.384615384616,4115.384615384616,4272.820512820514,4816.410256410257,3775.8974358974365,4196.410256410257,4212.820512820514,4048.717948717949,4348.717948717949,4024.1025641025644,4262.564102564103,4229.74358974359,4356.923076923077,4313.846153846154,1679.0,1686.0,1397.391,1283.9705810546875,0.0,0.0,0.0,0.0
1395726,25.0,0.0,0.0,4373.846153846154,4107.6923076923085,4269.2307692307695,4813.333333333334,3772.307692307693,4191.794871794872,4212.820512820514,4051.7948717948725,4354.871794871796,4026.1538461538466,4262.051282051282,4229.74358974359,4353.333333333334,4307.179487179487,1678.0,1683.0,1397.398,1283.9705810546875,0.0,0.0,0.0,0.0
1395726,26.0,0.0,0.0,4376.923076923077,4114.358974358975,4274.358974358975,4817.435897435898,3773.333333333334,4190.256410256411,4209.2307692307695,4055.8974358974365,4349.743589743591,4026.666666666667,4262.051282051282,4235.384615384616,4362.564102564103,4308.717948717949,1677.0,1684.0,1397.406,1283.9705810546875,0.0,0.0,0.0,0.0
1395726,27.0,0.0,0.0,4374.871794871796,4116.923076923077,4274.358974358975,4817.948717948719,3776.410256410257,4191.282051282052,4209.74358974359,4046.666666666667,4348.205128205129,4025.6410256410263,4261.538461538462,4233.846153846154,4365.128205128206,4311.282051282052,1679.0,1683.0,1397.414,1283.9705810546875,0.0,0.0,0.0,0.0
1395726,28.0,0.0,0.0,4368.717948717949,4109.74358974359,4268.717948717949,4817.435897435898,3776.9230769230776,4192.820512820514,4211.282051282052,4042.0512820512827,4353.846153846154,4026.1538461538466,4262.051282051282,4230.769230769231,4358.461538461539,4312.307692307693,1678.0,1683.0,1397.423,1283.9705810546875,0.0,0.0,0.0,0.0
1395726,29.0,0.0,0.0,4368.205128205129,4107.6923076923085,4268.717948717949,4813.333333333334,3777.435897435898,4200.512820512821,4213.333333333334,4050.2564102564106,4353.333333333334,4026.666666666667,4262.051282051282,4232.820512820514,4357.948717948719,4309.2307692307695,1680.0,1683.0,1397.431,1283.9705810546875,0.0,0.0,0.0,0.0
1395727,30.0,0.0,0.0,4372.307692307693,4109.2307692307695,4272.820512820514,4810.769230769231,3778.9743589743593,4202.564102564103,4217.948717948719,4052.307692307693,4353.333333333334,4028.717948717949,4261.025641025642,4233.846153846154,4360.512820512821,4305.641025641026,1680.0,1683.0,1397.438,1283.9705810546875,0.0,0.0,0.0,0.0
1395727,31.0,0.0,0.0,4374.358974358975,4104.615384615385,4271.282051282052,4814.358974358975,3775.3846153846157,4190.256410256411,4213.333333333334,4049.7435897435903,4358.461538461539,4028.717948717949,4262.564102564103,4233.846153846154,4355.8974358974365,4305.128205128206,1681.0,1684.0,1397.445,1283.9705810546875,0.0,0.0,0.0,0.0
1395727,32.0,0.0,0.0,4374.871794871796,4106.153846153847,4270.769230769231,4814.358974358975,3769.2307692307695,4181.538461538462,4204.102564102564,4046.666666666667,4352.307692307693,4023.076923076924,4263.076923076924,4231.794871794872,4353.333333333334,4309.2307692307695,1681.0,1684.0,1397.454,1283.9705810546875,0.0,0.0,0.0,0.0
1395727,33.0,0.0,0.0,4371.794871794872,4109.74358974359,4271.282051282052,4815.8974358974365,3768.205128205129,4181.538461538462,4202.051282051282,4040.5128205128212,4333.333333333334,4014.358974358975,4262.564102564103,4231.794871794872,4354.358974358975,4313.846153846154,1682.0,1685.0,1397.461,1283.9705810546875,0.0,0.0,0.0,0.0
1395749,34.0,0.0,0.0,4370.769230769231,4105.128205128206,4268.717948717949,4816.410256410257,3766.666666666667,4180.512820512821,4203.076923076924,4040.0000000000005,4331.282051282052,4011.2820512820517,4263.076923076924,4232.820512820514,4351.282051282052,4313.846153846154,1682.0,1686.0,1397.47,1284.095703125,0.0,0.0,0.0,0.0
1395749,35.0,0.0,0.0,4376.923076923077,4104.615384615385,4270.256410256411,4813.333333333334,3765.1282051282055,4182.564102564103,4201.025641025642,4046.1538461538466,4341.025641025642,4017.435897435898,4262.051282051282,4233.333333333334,4351.794871794872,4313.333333333334,1683.0,1687.0,1397.477,1284.095703125,0.0,0.0,0.0,0.0
1395749,36.0,0.0,0.0,4385.641025641026,4115.8974358974365,4277.948717948719,4814.871794871796,3767.692307692308,4188.717948717949,4200.000000000001,4048.205128205129,4344.102564102564,4028.717948717949,4263.589743589744,4235.8974358974365,4361.025641025642,4316.410256410257,1683.0,1686.0,1397.484,1284.095703125,0.0,0.0,0.0,0.0
1395749,37.0,0.0,0.0,4389.2307692307695,4121.538461538462,4284.102564102564,4816.410256410257,3771.2820512820517,4186.666666666667,4201.025641025642,4048.717948717949,4352.307692307693,4038.461538461539,4266.153846153847,4238.461538461539,4367.179487179487,4321.538461538462,1683.0,1687.0,1397.492,1284.095703125,0.0,0.0,0.0,0.0
1395844,38.0,0.0,0.0,4384.615384615385,4113.846153846154,4281.538461538462,4816.410256410257,3768.717948717949,4178.974358974359,4198.461538461539,4049.7435897435903,4354.358974358975,4034.8717948717954,4266.153846153847,4232.820512820514,4359.48717948718,4317.435897435898,1684.0,1685.0,1397.5,1284.126953125,0.0,0.0,0.0,0.0
1395844,39.0,0.0,0.0,4375.8974358974365,4109.2307692307695,4272.307692307693,4815.384615384616,3763.076923076924,4175.8974358974365,4194.871794871796,4046.666666666667,4339.48717948718,4021.0256410256416,4263.589743589744,4227.179487179487,4351.794871794872,4309.743589743591,1683.0,1686.0,1397.508,1284.126953125,0.0,0.0,0.0,0.0
1395844,40.0,0.0,0.0,4376.410256410257,4113.333333333334,4267.179487179487,4812.820512820514,3762.0512820512827,4177.435897435898,4192.307692307693,4048.205128205129,4333.333333333334,4018.461538461539,4262.051282051282,4230.256410256411,4355.8974358974365,4312.307692307693,1684.0,1687.0,1397.516,1284.126953125,0.0,0.0,0.0,0.0
1395844,41.0,0.0,0.0,4380.000000000001,4117.435897435898,4271.794871794872,4813.846153846154,3763.589743589744,4179.48717948718,4190.769230769231,4051.2820512820517,4340.512820512821,4028.717948717949,4263.076923076924,4233.333333333334,4362.564102564103,4315.8974358974365,1683.0,1685.0,1397.523,1284.126953125,0.0,0.0,0.0,0.0
1395845,42.0,0.0,0.0,4372.820512820514,4115.384615384616,4275.384615384616,4812.307692307693,3765.6410256410263,4187.179487179487,4194.871794871796,4052.820512820513,4345.641025641026,4030.2564102564106,4264.102564102564,4229.74358974359,4361.538461538462,4311.282051282052,1683.0,1685.0,1397.531,1284.126953125,0.0,0.0,0.0,0.0
1395845,43.0,0.0,0.0,4366.153846153847,4111.794871794872,4273.333333333334,4812.820512820514,3768.205128205129,4192.820512820514,4199.48717948718,4058.9743589743593,4354.358974358975,4030.2564102564106,4266.666666666667,4230.256410256411,4358.461538461539,4309.743589743591,1683.0,1684.0,1397.54,1284.126953125,0.0,0.0,0.0,0.0
1395845,44.0,0.0,0.0,4372.820512820514,4113.333333333334,4274.358974358975,4815.384615384616,3772.820512820513,4192.820512820514,4200.000000000001,4053.8461538461543,4358.974358974359,4035.8974358974365,4264.615384615385,4233.846153846154,4362.564102564103,4318.461538461539,1682.0,1684.0,1397.547,1284.126953125,0.0,0.0,0.0,0.0
1395845,45.0,0.0,0.0,4383.589743589744,4118.461538461539,4278.461538461539,4815.8974358974365,3775.8974358974365,4199.48717948718,4203.589743589744,4035.8974358974365,4345.641025641026,4038.461538461539,4261.025641025642,4233.846153846154,4371.794871794872,4321.538461538462,1681.0,1683.0,1397.555,1284.126953125,0.0,0.0,0.0,0.0
1395845,46.0,0.0,0.0,4383.589743589744,4122.051282051282,4277.948717948719,4818.974358974359,3776.9230769230776,4203.589743589744,4206.666666666667,4034.8717948717954,4335.384615384616,4039.48717948718,4264.102564102564,4233.846153846154,4375.8974358974365,4318.974358974359,1681.0,1683.0,1397.563,1284.126953125,0.0,0.0,0.0,0.0
1395845,47.0,0.0,0.0,4377.948717948719,4121.025641025642,4275.8974358974365,4814.871794871796,3774.8717948717954,4194.871794871796,4203.076923076924,4053.333333333334,4346.666666666667,4042.564102564103,4266.666666666667,4235.8974358974365,4371.794871794872,4324.615384615385,1681.0,1682.0,1397.571,1284.126953125,0.0,0.0,0.0,0.0
1395846,48.0,0.0,0.0,4377.948717948719,4120.512820512821,4277.948717948719,4810.256410256411,3771.2820512820517,4187.179487179487,4200.000000000001,4062.564102564103,4357.948717948719,4042.0512820512827,4264.102564102564,4236.410256410257,4369.2307692307695,4329.2307692307695,1679.0,1683.0,1397.579,1284.126953125,0.0,0.0,0.0,0.0
1395846,49.0,0.0,0.0,4380.512820512821,4117.435897435898,4277.948717948719,4813.333333333334,3773.8461538461543,4189.74358974359,4201.025641025642,4058.9743589743593,4353.333333333334,4037.435897435898,4263.589743589744,4234.358974358975,4367.6923076923085,4324.615384615385,1680.0,1683.0,1397.588,1284.126953125,0.0,0.0,0.0,0.0
1395964,50.0,0.0,0.0,4376.410256410257,4110.769230769231,4273.333333333334,4814.358974358975,3777.9487179487182,4192.820512820514,4204.615384615385,4053.333333333334,4349.743589743591,4033.8461538461543,4265.641025641026,4230.769230769231,4362.564102564103,4316.410256410257,1679.0,1683.0,1397.594,1284.2208251953125,0.0,0.0,0.0,0.0
1395964,51.0,0.0,0.0,4368.717948717949,4103.076923076924,4265.128205128206,4815.384615384616,3776.410256410257,4187.179487179487,4205.128205128206,4049.7435897435903,4354.358974358975,4029.7435897435903,4265.641025641026,4230.256410256411,4355.8974358974365,4310.256410256411,1679.0,1684.0,1397.603,1284.2208251953125,0.0,0.0,0.0,0.0
1395965,52.0,0.0,0.0,4366.153846153847,4101.538461538462,4258.461538461539,4815.8974358974365,3771.794871794872,4188.205128205129,4203.076923076924,4057.435897435898,4360.512820512821,4028.205128205129,4262.051282051282,4229.74358974359,4351.282051282052,4310.256410256411,1679.0,1683.0,1397.613,1284.2208251953125,0.0,0.0,0.0,0.0
1395966,53.0,0.0,0.0,4373.333333333334,4109.74358974359,4261.538461538462,4814.871794871796,3771.2820512820517,4196.410256410257,4205.641025641026,4063.076923076924,4360.000000000001,4031.2820512820517,4262.051282051282,4229.74358974359,4353.333333333334,4314.358974358975,1680.0,1684.0,1397.618,1284.2208251953125,0.0,0.0,0.0,0.0
1395966,54.0,0.0,0.0,4378.974358974359,4117.435897435898,4271.282051282052,4813.846153846154,3775.3846153846157,4197.948717948719,4210.256410256411,4049.7435897435903,4353.333333333334,4031.2820512820517,4266.666666666667,4231.282051282052,4361.025641025642,4314.871794871796,1680.0,1682.0,1397.625,1284.2208251953125,0.0,0.0,0.0,0.0
1395966,55.0,0.0,0.0,4377.948717948719,4116.923076923077,4272.820512820514,4812.820512820514,3774.8717948717954,4191.794871794872,4209.74358974359,4041.0256410256416,4350.256410256411,4029.23076923077,4266.153846153847,4230.769230769231,4364.102564102564,4312.307692307693,1680.0,1682.0,1397.633,1284.2208251953125,0.0,0.0,0.0,0.0
1395967,56.0,0.0,0.0,4376.923076923077,4110.256410256411,4267.6923076923085,4819.48717948718,3767.692307692308,4183.076923076924,4201.025641025642,4044.615384615385,4348.717948717949,4027.1794871794878,4264.615384615385,4230.256410256411,4361.025641025642,4315.8974358974365,1680.0,1681.0,1397.641,1284.2208251953125,0.0,0.0,0.0,0.0
1395967,57.0,0.0,0.0,4374.871794871796,4108.205128205129,4268.205128205129,4820.000000000001,3761.538461538462,4177.948717948719,4195.384615384616,4040.5128205128212,4344.102564102564,4024.1025641025644,4267.6923076923085,4232.307692307693,4357.435897435898,4317.948717948719,1681.0,1682.0,1397.649,1284.2208251953125,0.0,0.0,0.0,0.0
1395967,58.0,0.0,0.0,4370.769230769231,4107.6923076923085,4269.74358974359,4812.820512820514,3763.589743589744,4177.948717948719,4196.410256410257,4030.2564102564106,4338.461538461539,4018.9743589743593,4268.717948717949,4231.794871794872,4352.820512820514,4313.333333333334,1682.0,1681.0,1397.657,1284.2208251953125,0.0,0.0,0.0,0.0
1395967,59.0,0.0,0.0,4375.384615384616,4106.666666666667,4268.717948717949,4815.384615384616,3767.692307692308,4179.48717948718,4198.461538461539,4012.820512820513,4333.333333333334,4020.0000000000005,4267.6923076923085,4231.794871794872,4354.871794871796,4315.384615384616,1680.0,1682.0,1397.664,1284.2208251953125,0.0,0.0,0.0,0.0
1395967,60.0,0.0,0.0,4386.666666666667,4114.871794871796,4276.923076923077,4817.435897435898,3771.2820512820517,4184.615384615385,4204.615384615385,3981.0256410256416,4330.769230769231,4026.666666666667,4266.153846153847,4235.384615384616,4366.666666666667,4329.743589743591,1682.0,1682.0,1397.673,1284.2208251953125,0.0,0.0,0.0,0.0
1395967,61.0,0.0,0.0,4385.128205128206,4117.948717948719,4283.589743589744,4815.8974358974365,3774.358974358975,4188.717948717949,4209.74358974359,3965.6410256410263,4335.8974358974365,4031.2820512820517,4267.179487179487,4240.512820512821,4369.743589743591,4336.923076923077,1681.0,1682.0,1397.68,1284.2208251953125,0.0,0.0,0.0,0.0
1395967,62.0,0.0,0.0,4381.025641025642,4113.846153846154,4280.000000000001,4816.410256410257,3774.358974358975,4188.205128205129,4208.717948717949,3988.717948717949,4353.333333333334,4038.9743589743593,4269.74358974359,4242.564102564103,4366.666666666667,4334.358974358975,1682.0,1683.0,1397.689,1284.2208251953125,0.0,0.0,0.0,0.0
1395967,63.0,0.0,0.0,4382.564102564103,4114.871794871796,4277.948717948719,4812.820512820514,3772.307692307693,4185.128205128206,4206.666666666667,4006.1538461538466,4363.076923076924,4045.6410256410263,4271.282051282052,4238.974358974359,4368.205128205129,4332.820512820514,1681.0,1682.0,1397.695,1284.2208251953125,0.0,0.0,0.0,0.0
1395968,64.0,0.0,507.0,4379.48717948718,4112.307692307693,4273.333333333334,4815.384615384616,3769.2307692307695,4186.666666666667,4205.128205128206,3997.435897435898,4351.282051282052,4034.358974358975,4269.74358974359,4234.358974358975,4362.051282051282,4329.743589743591,1682.0,1684.0,1397.704,1284.2208251953125,0.0,0.0,0.0,0.0
1395968,65.0,0.0,0.0,4376.410256410257,4108.205128205129,4269.74358974359,4818.461538461539,3769.7435897435903,4191.282051282052,4203.076923076924,3998.461538461539,4340.512820512821,4025.6410256410263,4267.6923076923085,4231.794871794872,4357.435897435898,4327.6923076923085,1682.0,1683.0,1397.711,1284.2208251953125,0.0,0.0,0.0,0.0
1396096,66.0,0.0,500.0,4381.025641025642,4116.410256410257,4272.820512820514,4817.948717948719,3772.307692307693,4188.717948717949,4201.538461538462,4009.7435897435903,4341.538461538462,4030.7692307692314,4268.205128205129,4231.794871794872,4365.641025641026,4330.769230769231,1681.0,1683.0,1397.72,1284.345947265625,0.0,0.0,0.0,0.0
1396096,67.0,0.0,524.0,4387.179487179487,4124.102564102564,4276.410256410257,4816.410256410257,3773.333333333334,4184.615384615385,4201.538461538462,4013.8461538461543,4343.589743589744,4035.8974358974365,4267.6923076923085,4232.820512820514,4368.717948717949,4333.333333333334,1681.0,1683.0,1397.727,1284.345947265625,0.0,0.0,0.0,0.0
1396096,68.0,0.0,494.0,4386.153846153847,4115.8974358974365,4275.8974358974365,4814.358974358975,3771.794871794872,4186.153846153847,4203.589743589744,4018.461538461539,4341.025641025642,4037.435897435898,4267.179487179487,4234.358974358975,4364.102564102564,4328.717948717949,1680.0,1684.0,1397.735,1284.345947265625,0.0,0.0,0.0,0.0
1396096,69.0,0.0,546.0,4379.48717948718,4107.6923076923085,4274.358974358975,4818.461538461539,3771.794871794872,4187.6923076923085,4206.153846153847,4016.410256410257,4334.871794871796,4032.820512820513,4268.717948717949,4234.871794871796,4360.512820512821,4323.076923076924,1680.0,1684.0,1397.743,1284.345947265625,0.0,0.0,0.0,0.0
1396096,70.0,0.0,541.0,4375.384615384616,4111.794871794872,4271.282051282052,4818.974358974359,3771.794871794872,4183.076923076924,4204.102564102564,3988.205128205129,4327.6923076923085,4023.076923076924,4268.717948717949,4233.846153846154,4361.538461538462,4326.666666666667,1680.0,1684.0,1397.75,1284.345947265625,0.0,0.0,0.0,0.0
1396097,71.0,0.0,286.0,4378.974358974359,4115.384615384616,4269.74358974359,4817.435897435898,3768.717948717949,4177.948717948719,4199.48717948718,3953.333333333334,4327.6923076923085,4023.076923076924,4268.205128205129,4233.846153846154,4364.615384615385,4333.846153846154,1680.0,1684.0,1397.759,1284.345947265625,0.0,0.0,0.0,0.0
1396097,72.0,0.0,450.0,4387.179487179487,4117.435897435898,4276.410256410257,4817.435897435898,3769.7435897435903,4177.948717948719,4201.538461538462,3948.205128205129,4334.358974358975,4030.7692307692314,4270.256410256411,4235.8974358974365,4368.717948717949,4338.974358974359,1680.0,1685.0,1397.766,1284.345947265625,0.0,0.0,0.0,0.0
1396097,73.0,0.0,469.0,4389.2307692307695,4118.974358974359,4281.538461538462,4813.333333333334,3774.8717948717954,4181.538461538462,4209.2307692307695,3969.2307692307695,4340.000000000001,4029.7435897435903,4270.256410256411,4234.871794871796,4368.717948717949,4340.000000000001,1681.0,1684.0,1397.774,1284.345947265625,0.0,0.0,0.0,0.0
1396098,74.0,0.0,491.0,4376.923076923077,4110.769230769231,4271.282051282052,4816.410256410257,3778.461538461539,4183.589743589744,4209.74358974359,3983.589743589744,4344.102564102564,4023.076923076924,4268.205128205129,4229.2307692307695,4359.48717948718,4328.205128205129,1681.0,1683.0,1397.783,1284.345947265625,0.0,0.0,0.0,0.0
1396098,75.0,0.0,483.0,4369.2307692307695,4105.128205128206,4265.641025641026,4817.435897435898,3774.8717948717954,4180.512820512821,4206.153846153847,3969.7435897435903,4349.2307692307695,4027.692307692308,4267.179487179487,4229.74358974359,4357.435897435898,4325.641025641026,1681.0,1682.0,1397.79,1284.345947265625,0.0,0.0,0.0,0.0
1396098,76.0,0.0,0.0,4381.025641025642,4115.8974358974365,4275.384615384616,4813.333333333334,3769.2307692307695,4173.846153846154,4203.589743589744,3956.410256410257,4352.820512820514,4037.435897435898,4269.74358974359,4238.974358974359,4371.794871794872,4338.461538461539,1682.0,1684.0,1397.798,1284.345947265625,0.0,0.0,0.0,0.0
1396098,77.0,0.0,271.0,4390.256410256411,4120.512820512821,4280.512820512821,4814.358974358975,3769.7435897435903,4170.256410256411,4200.000000000001,3971.2820512820517,4346.153846153847,4034.358974358975,4272.820512820514,4242.564102564103,4376.410256410257,4330.256410256411,1682.0,1683.0,1397.805,1284.345947265625,0.0,0.0,0.0,0.0
1396098,78.0,0.0,491.0,4386.153846153847,4116.410256410257,4278.974358974359,4814.358974358975,3772.820512820513,4175.384615384616,4200.512820512821,3984.1025641025644,4336.923076923077,4028.205128205129,4269.74358974359,4234.871794871796,4367.179487179487,4301.538461538462,1682.0,1683.0,1397.813,1284.345947265625,0.0,0.0,0.0,0.0
1396099,79.0,0.0,483.0,4383.076923076924,4117.948717948719,4278.974358974359,4815.384615384616,3773.8461538461543,4182.051282051282,4203.589743589744,3983.589743589744,4340.000000000001,4030.2564102564106,4267.179487179487,4231.282051282052,4367.179487179487,4290.769230769231,1683.0,1683.0,1397.822,1284.345947265625,0.0,0.0,0.0,0.0
1396099,80.0,0.0,0.0,4383.589743589744,4117.948717948719,4276.410256410257,4816.410256410257,3773.333333333334,4186.153846153847,4207.6923076923085,3990.2564102564106,4353.846153846154,4032.307692307693,4267.6923076923085,4235.384615384616,4369.743589743591,4295.384615384616,1682.0,1684.0,1397.829,1284.345947265625,0.0,0.0,0.0,0.0
1396099,81.0,0.0,271.0,4384.102564102564,4117.948717948719,4276.923076923077,4814.871794871796,3775.8974358974365,4188.717948717949,4209.74358974359,3982.564102564103,4360.512820512821,4028.205128205129,4270.256410256411,4235.8974358974365,4364.102564102564,4292.307692307693,1683.0,1684.0,1397.837,1284.345947265625,0.0,0.0,0.0,0.0
1396216,82.0,0.0,491.0,4387.179487179487,4125.128205128206,4282.564102564103,4814.358974358975,3778.461538461539,4188.205128205129,4204.615384615385,3950.7692307692314,4348.205128205129,4024.615384615385,4270.769230769231,4234.871794871796,4364.102564102564,4289.2307692307695,1682.0,1683.0,1397.844,1284.4710693359375,0.0,0.0,0.0,0.0
1396216,83.0,0.0,483.0,4390.256410256411,4130.769230769231,4285.128205128206,4814.358974358975,3778.9743589743593,4189.74358974359,4202.051282051282,3945.6410256410263,4341.538461538462,4026.1538461538466,4269.74358974359,4235.384615384616,4370.769230769231,4291.282051282052,1682.0,1685.0,1397.852,1284.4710693359375,0.0,0.0,0.0,0.0
1396217,84.0,0.0,0.0,4392.307692307693,4127.179487179487,4286.666666666667,4815.8974358974365,3783.076923076924,4192.820512820514,4210.256410256411,3964.1025641025644,4351.282051282052,4031.2820512820517,4271.282051282052,4235.8974358974365,4371.282051282052,4292.820512820514,1682.0,1685.0,1397.86,1284.4710693359375,0.0,0.0,0.0,0.0
1396217,85.0,0.0,271.0,4394.871794871796,4127.179487179487,4288.205128205129,4815.8974358974365,3783.589743589744,4192.307692307693,4213.333333333334,3957.9487179487182,4357.948717948719,4034.358974358975,4270.769230769231,4235.8974358974365,4369.743589743591,4293.333333333334,1681.0,1686.0,1397.869,1284.4710693359375,0.0,0.0,0.0,0.0
1396217,86.0,0.0,491.0,4393.333333333334,4134.358974358975,4287.179487179487,4813.333333333334,3780.0000000000005,4187.179487179487,4208.205128205129,3951.7948717948725,4358.461538461539,4036.410256410257,4269.74358974359,4234.871794871796,4374.871794871796,4297.435897435898,1681.0,1685.0,1397.875,1284.4710693359375,0.0,0.0,0.0,0.0
1396217,87.0,0.0,483.0,4390.256410256411,4136.410256410257,4287.179487179487,4815.8974358974365,3779.48717948718,4180.512820512821,4206.666666666667,3964.615384615385,4353.846153846154,4037.9487179487182,4271.794871794872,4237.435897435898,4381.025641025642,4300.512820512821,1680.0,1685.0,1397.883,1284.4710693359375,0.0,0.0,0.0,0.0
1396217,88.0,0.0,0.0,4386.666666666667,4126.666666666667,4282.564102564103,4816.410256410257,3780.0000000000005,4182.564102564103,4208.717948717949,3968.717948717949,4343.076923076924,4030.2564102564106,4268.717948717949,4234.358974358975,4375.8974358974365,4291.282051282052,1680.0,1683.0,1397.891,1284.4710693359375,0.0,0.0,0.0,0.0
1396217,89.0,0.0,271.0,4381.025641025642,4117.435897435898,4275.384615384616,4815.8974358974365,3776.410256410257,4190.256410256411,4207.179487179487,3963.589743589744,4332.307692307693,4014.358974358975,4265.128205128206,4229.2307692307695,4363.076923076924,4280.000000000001,1679.0,1683.0,1397.9,1284.4710693359375,0.0,0.0,0.0,0.0
1396217,90.0,0.0,491.0,4386.153846153847,4125.128205128206,4281.025641025642,4815.384615384616,3774.358974358975,4185.128205128206,4206.153846153847,3967.1794871794878,4333.846153846154,4015.8974358974365,4267.6923076923085,4236.410256410257,4369.2307692307695,4288.717948717949,1681.0,1684.0,1397.907,1284.4710693359375,0.0,0.0,0.0,0.0
1396218,91.0,0.0,483.0,4400.512820512821,4135.384615384616,4291.794871794872,4812.820512820514,3777.9487179487182,4172.820512820514,4207.179487179487,3972.820512820513,4348.205128205129,4034.358974358975,4269.74358974359,4244.615384615385,4387.179487179487,4304.102564102564,1680.0,1684.0,1397.914,1284.4710693359375,0.0,0.0,0.0,0.0
1396218,92.0,0.0,0.0,4395.384615384616,4130.256410256411,4288.717948717949,4817.948717948719,3780.512820512821,4169.2307692307695,4204.615384615385,3967.692307692308,4347.179487179487,4033.333333333334,4267.6923076923085,4239.48717948718,4382.564102564103,4297.948717948719,1681.0,1685.0,1397.922,1284.4710693359375,0.0,0.0,0.0,0.0
1396218,93.0,0.0,271.0,4379.48717948718,4120.512820512821,4278.461538461539,4817.948717948719,3778.9743589743593,4175.384615384616,4201.538461538462,3962.564102564103,4330.256410256411,4015.8974358974365,4267.179487179487,4230.769230769231,4367.179487179487,4283.076923076924,1681.0,1684.0,1397.93,1284.4710693359375,0.0,0.0,0.0,0.0
1396218,94.0,0.0,491.0,4380.000000000001,4117.948717948719,4273.333333333334,4812.307692307693,3776.9230769230776,4187.179487179487,4205.641025641026,3964.1025641025644,4332.820512820514,4012.820512820513,4268.205128205129,4232.307692307693,4363.589743589744,4277.948717948719,1681.0,1685.0,1397.938,1284.4710693359375,0.0,0.0,0.0,0.0
1396218,95.0,0.0,483.0,4385.128205128206,4114.871794871796,4272.307692307693,4813.333333333334,3777.9487179487182,4192.307692307693,4209.74358974359,3973.333333333334,4351.794871794872,4022.0512820512827,4268.205128205129,4234.358974358975,4364.102564102564,4277.948717948719,1682.0,1684.0,1397.946,1284.4710693359375,0.0,0.0,0.0,0.0
1396218,96.0,0.0,0.0,4382.564102564103,4115.8974358974365,4273.846153846154,4814.871794871796,3779.48717948718,4186.153846153847,4207.6923076923085,3983.076923076924,4350.256410256411,4023.076923076924,4269.2307692307695,4232.820512820514,4365.128205128206,4280.512820512821,1681.0,1685.0,1397.954,1284.4710693359375,0.0,0.0,0.0,0.0
1396218,97.0,0.0,271.0,4377.948717948719,4116.410256410257,4269.74358974359,4818.974358974359,3775.3846153846157,4181.538461538462,4202.051282051282,3991.2820512820517,4335.8974358974365,4017.9487179487182,4268.205128205129,4231.794871794872,4366.666666666667,4282.051282051282,1681.0,1684.0,1397.977,1284.4710693359375,0.0,0.0,0.0,0.0
1396250,98.0,0.0,491.0,4372.820512820514,4111.282051282052,4265.128205128206,4816.410256410257,3773.8461538461543,4184.102564102564,4205.641025641026,4002.564102564103,4344.615384615385,4023.076923076924,4266.153846153847,4231.794871794872,4364.615384615385,4277.435897435898,1681.0,1685.0,1397.978,1284.59619140625,0.0,0.0,0.0,0.0
1396250,99.0,0.0,483.0,4378.974358974359,4115.8974358974365,4273.333333333334,4811.794871794872,3778.9743589743593,4187.179487179487,4212.820512820514,4008.205128205129,4357.435897435898,4037.435897435898,4268.717948717949,4236.923076923077,4372.820512820514,4278.461538461539,1681.0,1686.0,1397.978,1284.59619140625,0.0,0.0,0.0,0.0
1396250,100.0,0.0,0.0,4393.846153846154,4130.769230769231,4285.128205128206,4816.923076923077,3783.589743589744,4187.6923076923085,4212.307692307693,4003.076923076924,4349.743589743591,4042.0512820512827,4274.871794871796,4243.076923076924,4388.205128205129,4291.794871794872,1680.0,1686.0,1397.986,1284.59619140625,0.0,0.0,0.0,0.0
1396251,101.0,0.0,271.0,4396.923076923077,4135.8974358974365,4288.717948717949,4817.435897435898,3784.1025641025644,4187.6923076923085,4213.846153846154,3998.9743589743593,4347.179487179487,4042.0512820512827,4274.358974358975,4239.48717948718,4389.2307692307695,4297.435897435898,1681.0,1686.0,1397.993,1284.59619140625,0.0,0.0,0.0,0.0
1396338,102.0,0.0,491.0,4390.256410256411,4128.205128205129,4286.666666666667,4814.871794871796,3789.7435897435903,4191.794871794872,4219.48717948718,4002.564102564103,4358.461538461539,4046.1538461538466,4273.333333333334,4237.435897435898,4383.589743589744,4291.794871794872,1679.0,1686.0,1398.0,1284.62744140625,0.0,0.0,0.0,0.0
1396338,103.0,0.0,483.0,4384.615384615385,4123.076923076924,4282.051282051282,4814.871794871796,3793.8461538461543,4201.025641025642,4218.974358974359,4001.0256410256416,4354.358974358975,4040.5128205128212,4271.794871794872,4238.461538461539,4382.051282051282,4287.179487179487,1679.0,1686.0,1398.008,1284.62744140625,0.0,0.0,0.0,0.0
1396338,104.0,0.0,0.0,4379.48717948718,4123.589743589744,4276.410256410257,4814.358974358975,3789.2307692307695,4199.48717948718,4211.794871794872,3998.9743589743593,4341.538461538462,4028.205128205129,4269.2307692307695,4233.846153846154,4377.948717948719,4282.564102564103,1679.0,1684.0,1398.016,1284.62744140625,0.0,0.0,0.0,0.0
1396338,105.0,0.0,271.0,4377.435897435898,4122.051282051282,4275.8974358974365,4815.8974358974365,3782.0512820512827,4189.2307692307695,4210.256410256411,4009.23076923077,4344.102564102564,4029.7435897435903,4271.794871794872,4231.282051282052,4371.794871794872,4280.000000000001,1678.0,1686.0,1398.024,1284.62744140625,0.0,0.0,0.0,0.0
1396339,106.0,0.0,491.0,4376.923076923077,4120.000000000001,4278.461538461539,4813.846153846154,3779.48717948718,4188.717948717949,4212.307692307693,4017.9487179487182,4349.743589743591,4032.820512820513,4272.307692307693,4231.282051282052,4368.717948717949,4280.000000000001,1679.0,1685.0,1398.032,1284.62744140625,0.0,0.0,0.0,0.0
1396339,107.0,0.0,483.0,4368.717948717949,4119.48717948718,4271.282051282052,4812.307692307693,3778.461538461539,4192.307692307693,4208.205128205129,4014.358974358975,4348.717948717949,4026.666666666667,4268.205128205129,4231.282051282052,4364.102564102564,4276.410256410257,1678.0,1685.0,1398.04,1284.62744140625,0.0,0.0,0.0,0.0
1396339,108.0,0.0,0.0,4368.717948717949,4117.435897435898,4269.2307692307695,4815.8974358974365,3776.9230769230776,4186.153846153847,4205.128205128206,4014.358974358975,4352.820512820514,4027.1794871794878,4267.179487179487,4232.820512820514,4361.538461538462,4276.410256410257,1679.0,1684.0,1398.047,1284.62744140625,0.0,0.0,0.0,0.0
1396339,109.0,0.0,271.0,4377.435897435898,4117.435897435898,4276.410256410257,4815.384615384616,3778.461538461539,4182.051282051282,4208.205128205129,4011.7948717948725,4352.820512820514,4034.358974358975,4269.74358974359,4232.820512820514,4363.589743589744,4280.512820512821,1678.0,1683.0,1398.056,1284.62744140625,0.0,0.0,0.0,0.0
1396339,110.0,0.0,491.0,4373.333333333334,4120.512820512821,4275.384615384616,4814.871794871796,3781.538461538462,4187.179487179487,4206.666666666667,3990.2564102564106,4346.153846153847,4034.8717948717954,4270.256410256411,4232.307692307693,4362.051282051282,4273.846153846154,1678.0,1683.0,1398.063,1284.62744140625,0.0,0.0,0.0,0.0
1396339,111.0,0.0,483.0,4368.205128205129,4123.076923076924,4272.307692307693,4814.871794871796,3779.48717948718,4192.307692307693,4204.615384615385,3975.3846153846157,4342.051282051282,4031.2820512820517,4267.6923076923085,4234.358974358975,4362.051282051282,4266.666666666667,1678.0,1683.0,1398.072,1284.62744140625,0.0,0.0,0.0,0.0
1396340,112.0,0.0,0.0,4377.948717948719,4128.205128205129,4283.076923076924,4816.410256410257,3778.9743589743593,4190.769230769231,4207.179487179487,3986.666666666667,4338.461538461539,4034.358974358975,4268.205128205129,4237.948717948719,4371.282051282052,4278.461538461539,1679.0,1684.0,1398.079,1284.62744140625,0.0,0.0,0.0,0.0
1396340,113.0,0.0,271.0,4390.256410256411,4143.589743589744,4293.846153846154,4815.384615384616,3783.076923076924,4188.717948717949,4208.717948717949,3998.9743589743593,4338.974358974359,4043.076923076924,4270.256410256411,4240.512820512821,4381.025641025642,4293.846153846154,1679.0,1685.0,1398.087,1284.62744140625,0.0,0.0,0.0,0.0
1396467,114.0,0.0,491.0,4388.205128205129,4147.179487179487,4291.282051282052,4813.333333333334,3783.076923076924,4189.74358974359,4206.666666666667,3997.435897435898,4344.102564102564,4046.666666666667,4272.820512820514,4238.974358974359,4386.153846153847,4291.282051282052,1679.0,1686.0,1398.094,1284.72119140625,0.0,0.0,0.0,0.0
1396467,115.0,0.0,483.0,4381.025641025642,4136.923076923077,4285.641025641026,4818.974358974359,3782.0512820512827,4190.256410256411,4207.179487179487,3995.3846153846157,4345.641025641026,4042.0512820512827,4273.846153846154,4237.435897435898,4384.102564102564,4282.564102564103,1680.0,1686.0,1398.103,1284.72119140625,0.0,0.0,0.0,0.0
1396467,116.0,0.0,0.0,4382.564102564103,4138.974358974359,4285.641025641026,4818.974358974359,3787.1794871794878,4194.358974358975,4210.769230769231,3998.461538461539,4347.179487179487,4040.5128205128212,4272.820512820514,4237.948717948719,4384.102564102564,4283.589743589744,1680.0,1687.0,1398.11,1284.72119140625,0.0,0.0,0.0,0.0
1396468,117.0,0.0,271.0,4385.128205128206,4144.102564102564,4284.615384615385,4813.846153846154,3790.2564102564106,4200.000000000001,4213.846153846154,4002.564102564103,4350.256410256411,4039.48717948718,4272.820512820514,4237.948717948719,4383.589743589744,4281.025641025642,1682.0,1685.0,1398.118,1284.72119140625,0.0,0.0,0.0,0.0
1396468,118.0,0.0,491.0,4380.000000000001,4135.8974358974365,4279.48717948718,4815.384615384616,3790.7692307692314,4197.948717948719,4211.282051282052,4001.0256410256416,4342.564102564103,4030.7692307692314,4273.333333333334,4236.410256410257,4375.384615384616,4274.871794871796,1682.0,1685.0,1398.126,1284.72119140625,0.0,0.0,0.0,0.0
1396468,119.0,0.0,483.0,4375.8974358974365,4131.282051282052,4280.512820512821,4814.358974358975,3790.7692307692314,4191.794871794872,4210.769230769231,3997.9487179487182,4339.48717948718,4031.2820512820517,4271.794871794872,4237.435897435898,4374.871794871796,4281.025641025642,1683.0,1685.0,1398.133,1284.72119140625,0.0,0.0,0.0,0.0
1396468,120.0,0.0,0.0,4376.923076923077,4135.384615384616,4284.102564102564,4816.410256410257,3790.7692307692314,4188.205128205129,4212.307692307693,4003.076923076924,4353.333333333334,4041.538461538462,4272.307692307693,4237.435897435898,4381.025641025642,4283.589743589744,1683.0,1684.0,1398.141,1284.72119140625,0.0,0.0,0.0,0.0
1396469,121.0,0.0,271.0,4374.871794871796,4133.333333333334,4282.564102564103,4815.8974358974365,3790.2564102564106,4186.153846153847,4213.333333333334,4003.076923076924,4363.589743589744,4042.564102564103,4273.846153846154,4236.410256410257,4378.974358974359,4273.846153846154,1684.0,1684.0,1398.15,1284.72119140625,0.0,0.0,0.0,0.0
1396469,122.0,0.0,491.0,4370.256410256411,4126.153846153847,4279.48717948718,4811.794871794872,3790.2564102564106,4187.179487179487,4215.384615384616,4000.5128205128212,4356.410256410257,4035.8974358974365,4272.307692307693,4234.358974358975,4371.794871794872,4269.2307692307695,1684.0,1683.0,1398.157,1284.72119140625,0.0,0.0,0.0,0.0
1396469,123.0,0.0,483.0,4365.641025641026,4120.000000000001,4274.358974358975,4814.871794871796,3792.307692307693,4190.256410256411,4215.8974358974365,4006.1538461538466,4342.564102564103,4026.1538461538466,4271.794871794872,4230.256410256411,4364.102564102564,4268.205128205129,1684.0,1683.0,1398.165,1284.72119140625,0.0,0.0,0.0,0.0
1396469,124.0,0.0,0.0,4366.153846153847,4124.102564102564,4272.307692307693,4815.384615384616,3794.358974358975,4190.769230769231,4214.358974358975,3987.692307692308,4336.410256410257,4021.0256410256416,4271.794871794872,4229.2307692307695,4362.051282051282,4265.128205128206,1683.0,1681.0,1398.173,1284.72119140625,0.0,0.0,0.0,0.0
1396469,125.0,0.0,271.0,4369.2307692307695,4129.74358974359,4272.307692307693,4812.307692307693,3793.8461538461543,4189.74358974359,4213.846153846154,3945.6410256410263,4333.846153846154,4023.589743589744,4271.794871794872,4231.282051282052,4367.179487179487,4264.102564102564,1682.0,1682.0,1398.18,1284.72119140625,0.0,0.0,0.0,0.0
1396470,126.0,0.0,491.0,4365.641025641026,4125.128205128206,4271.282051282052,4813.333333333334,3793.333333333334,4191.282051282052,4212.820512820514,3945.6410256410263,4332.307692307693,4024.615384615385,4270.769230769231,4233.333333333334,4369.2307692307695,4265.128205128206,1682.0,1684.0,1398.189,1284.72119140625,0.0,0.0,0.0,0.0
1396470,127.0,0.0,483.0,4366.153846153847,4124.615384615385,4274.871794871796,4814.358974358975,3792.820512820513,4189.2307692307695,4208.717948717949,3988.205128205129,4337.435897435898,4024.615384615385,4271.282051282052,4234.871794871796,4367.179487179487,4268.205128205129,1681.0,1684.0,1398.196,1284.72119140625,0.0,0.0,0.0,0.0
1396471,128.0,0.0,0.0,4368.717948717949,4126.666666666667,4277.435897435898,4816.410256410257,3791.7948717948725,4182.564102564103,4206.666666666667,4013.8461538461543,4344.615384615385,4027.1794871794878,4271.282051282052,4236.923076923077,4367.179487179487,4272.307692307693,1680.0,1684.0,1398.204,1284.72119140625,0.0,0.0,0.0,0.0
1396471,0.0,0.0,507.0,4364.615384615385,4122.051282051282,4272.820512820514,4816.410256410257,3790.7692307692314,4184.102564102564,4208.717948717949,4022.564102564103,4347.179487179487,4025.1282051282055,4271.282051282052,4235.384615384616,4365.128205128206,4267.6923076923085,1681.0,1684.0,1398.212,1284.72119140625,0.0,0.0,0.0,0.0
1396596,1.0,0.0,0.0,4357.435897435898,4116.410256410257,4268.205128205129,4817.435897435898,3790.2564102564106,4189.74358974359,4211.282051282052,4027.692307692308,4347.179487179487,4023.589743589744,4273.333333333334,4232.820512820514,4360.512820512821,4259.48717948718,1680.0,1683.0,1398.219,1284.8463134765625,0.0,0.0,0.0,0.0
1396596,2.0,0.0,500.0,4358.974358974359,4117.948717948719,4267.179487179487,4815.384615384616,3790.2564102564106,4190.256410256411,4213.333333333334,4019.48717948718,4349.2307692307695,4027.692307692308,4271.794871794872,4234.358974358975,4362.051282051282,4260.000000000001,1681.0,1683.0,1398.227,1284.8463134765625,0.0,0.0,0.0,0.0
1396596,3.0,0.0,524.0,4360.000000000001,4121.025641025642,4266.666666666667,4811.794871794872,3789.7435897435903,4189.2307692307695,4213.846153846154,4007.1794871794878,4346.666666666667,4023.589743589744,4266.666666666667,4231.794871794872,4364.102564102564,4252.820512820514,1681.0,1683.0,1398.235,1284.8463134765625,0.0,0.0,0.0,0.0
1396596,4.0,0.0,494.0,4351.794871794872,4120.000000000001,4266.666666666667,4816.410256410257,3787.692307692308,4189.74358974359,4211.794871794872,4010.2564102564106,4338.461538461539,4014.8717948717954,4270.256410256411,4232.820512820514,4361.025641025642,4235.384615384616,1681.0,1684.0,1398.244,1284.8463134765625,0.0,0.0,0.0,0.0
1396596,5.0,0.0,546.0,4345.641025641026,4121.538461538462,4269.2307692307695,4816.923076923077,3790.2564102564106,4193.846153846154,4212.307692307693,4011.7948717948725,4338.461538461539,4020.0000000000005,4274.871794871796,4236.410256410257,4362.564102564103,4229.2307692307695,1682.0,1682.0,1398.251,1284.8463134765625,0.0,0.0,0.0,0.0
1396597,6.0,0.0,540.0,4349.743589743591,4126.153846153847,4274.871794871796,4812.820512820514,3796.9230769230776,4195.384615384616,4215.8974358974365,3998.9743589743593,4341.025641025642,4028.717948717949,4274.871794871796,4238.461538461539,4367.179487179487,4235.384615384616,1681.0,1684.0,1398.258,1284.8463134765625,0.0,0.0,0.0,0.0
1396597,7.0,0.0,288.0,4361.538461538462,4135.8974358974365,4285.641025641026,4812.820512820514,3796.9230769230776,4193.846153846154,4218.461538461539,3995.8974358974365,4338.461538461539,4031.2820512820517,4274.871794871796,4242.051282051282,4375.384615384616,4244.615384615385,1683.0,1682.0,1398.266,1284.8463134765625,0.0,0.0,0.0,0.0
1396597,8.0,0.0,450.0,4363.589743589744,4141.538461538462,4292.307692307693,4813.333333333334,3795.8974358974365,4196.923076923077,4222.051282051282,4010.2564102564106,4347.179487179487,4039.48717948718,4274.358974358975,4243.076923076924,4384.615384615385,4252.820512820514,1682.0,1683.0,1398.274,1284.8463134765625,0.0,0.0,0.0,0.0
1396597,9.0,0.0,469.0,4352.307692307693,4137.435897435898,4287.179487179487,4815.8974358974365,3800.512820512821,4200.512820512821,4226.153846153847,4018.9743589743593,4361.025641025642,4045.1282051282055,4274.358974358975,4238.974358974359,4382.051282051282,4253.846153846154,1683.0,1683.0,1398.282,1284.8463134765625,0.0,0.0,0.0,0.0
1396597,10.0,0.0,491.0,4351.282051282052,4134.358974358975,4285.128205128206,4814.358974358975,3801.538461538462,4203.076923076924,4225.128205128206,4014.8717948717954,4358.461538461539,4040.5128205128212,4275.8974358974365,4237.435897435898,4376.410256410257,4257.435897435898,1682.0,1682.0,1398.29,1284.8463134765625,0.0,0.0,0.0,0.0
1396597,11.0,0.0,483.0,4357.948717948719,4137.435897435898,4290.256410256411,4811.794871794872,3800.0000000000005,4206.666666666667,4221.025641025642,4008.205128205129,4351.794871794872,4040.0000000000005,4275.384615384616,4240.512820512821,4383.589743589744,4275.384615384616,1683.0,1684.0,1398.298,1284.8463134765625,0.0,0.0,0.0,0.0
1396597,12.0,0.0,0.0,4355.384615384616,4136.410256410257,4289.2307692307695,4814.871794871796,3799.48717948718,4204.615384615385,4222.051282051282,4002.564102564103,4355.384615384616,4045.1282051282055,4274.358974358975,4241.025641025642,4388.205128205129,4286.666666666667,1683.0,1683.0,1398.305,1284.8463134765625,0.0,0.0,0.0,0.0
1396598,13.0,0.0,271.0,4343.589743589744,4132.307692307693,4281.025641025642,4813.846153846154,3795.3846153846157,4196.923076923077,4224.615384615385,3997.435897435898,4355.8974358974365,4046.1538461538466,4274.871794871796,4235.8974358974365,4381.538461538462,4276.923076923077,1683.0,1684.0,1398.313,1284.8463134765625,0.0,0.0,0.0,0.0
1396599,14.0,0.0,491.0,4333.846153846154,4130.256410256411,4276.410256410257,4815.384615384616,3793.333333333334,4195.384615384616,4220.000000000001,3993.333333333334,4344.102564102564,4037.9487179487182,4275.384615384616,4232.820512820514,4377.948717948719,4265.641025641026,1683.0,1684.0,1398.321,1284.8463134765625,0.0,0.0,0.0,0.0
1396599,15.0,0.0,483.0,4330.256410256411,4132.820512820514,4278.461538461539,4816.410256410257,3794.8717948717954,4200.512820512821,4216.410256410257,3992.820512820513,4341.538461538462,4031.7948717948725,4273.333333333334,4232.820512820514,4380.000000000001,4272.820512820514,1682.0,1685.0,1398.33,1284.8463134765625,0.0,0.0,0.0,0.0
1396599,16.0,0.0,0.0,4331.282051282052,4136.410256410257,4282.564102564103,4812.820512820514,3796.410256410257,4201.538461538462,4220.000000000001,4000.5128205128212,4359.48717948718,4037.435897435898,4272.307692307693,4236.410256410257,4379.48717948718,4284.615384615385,1683.0,1684.0,1398.338,1284.8463134765625,0.0,0.0,0.0,0.0
1396718,17.0,0.0,0.0,4330.256410256411,4136.410256410257,4281.538461538462,4812.820512820514,3797.435897435898,4197.435897435898,4220.512820512821,4005.1282051282055,4365.641025641026,4044.1025641025644,4275.384615384616,4237.435897435898,4376.923076923077,4282.564102564103,1682.0,1686.0,1398.344,1284.971435546875,0.0,0.0,0.0,0.0
1396718,18.0,0.0,0.0,4326.666666666667,4136.410256410257,4280.512820512821,4812.820512820514,3795.3846153846157,4193.333333333334,4216.410256410257,4000.5128205128212,4353.846153846154,4040.0000000000005,4276.410256410257,4235.384615384616,4379.48717948718,4276.923076923077,1682.0,1685.0,1398.353,1284.971435546875,0.0,0.0,0.0,0.0
1396718,19.0,0.0,0.0,4328.205128205129,4138.974358974359,4282.051282051282,4814.871794871796,3790.7692307692314,4191.282051282052,4213.846153846154,3996.9230769230776,4350.769230769231,4037.9487179487182,4275.384615384616,4236.923076923077,4384.102564102564,4280.000000000001,1681.0,1686.0,1398.36,1284.971435546875,0.0,0.0,0.0,0.0
1396718,20.0,0.0,0.0,4328.205128205129,4135.8974358974365,4283.076923076924,4813.846153846154,3790.2564102564106,4190.256410256411,4212.307692307693,3996.410256410257,4357.435897435898,4042.564102564103,4276.410256410257,4237.948717948719,4384.615384615385,4283.589743589744,1681.0,1686.0,1398.369,1284.971435546875,0.0,0.0,0.0,0.0
1396718,21.0,0.0,0.0,4322.564102564103,4129.74358974359,4279.48717948718,4811.282051282052,3789.2307692307695,4192.820512820514,4210.769230769231,3991.2820512820517,4355.384615384616,4041.538461538462,4275.384615384616,4235.8974358974365,4383.076923076924,4282.564102564103,1681.0,1684.0,1398.376,1284.971435546875,0.0,0.0,0.0,0.0
1396718,22.0,0.0,0.0,4319.48717948718,4128.717948717949,4276.410256410257,4817.435897435898,3786.1538461538466,4193.333333333334,4209.74358974359,3986.1538461538466,4353.333333333334,4038.461538461539,4275.384615384616,4236.923076923077,4382.564102564103,4281.025641025642,1681.0,1684.0,1398.384,1284.971435546875,0.0,0.0,0.0,0.0
1396719,23.0,0.0,0.0,4321.538461538462,4130.256410256411,4275.8974358974365,4818.974358974359,3787.1794871794878,4191.794871794872,4212.820512820514,3988.717948717949,4361.538461538462,4042.0512820512827,4275.384615384616,4238.461538461539,4383.076923076924,4280.000000000001,1681.0,1682.0,1398.391,1284.971435546875,0.0,0.0,0.0,0.0
1396719,24.0,0.0,0.0,4322.051282051282,4130.769230769231,4274.871794871796,4814.871794871796,3790.2564102564106,4192.820512820514,4215.8974358974365,3992.820512820513,4365.641025641026,4044.615384615385,4274.358974358975,4235.8974358974365,4381.538461538462,4281.025641025642,1681.0,1683.0,1398.399,1284.971435546875,0.0,0.0,0.0,0.0
1396719,25.0,0.0,0.0,4314.871794871796,4132.820512820514,4271.794871794872,4812.307692307693,3791.7948717948725,4192.307692307693,4216.410256410257,3994.8717948717954,4365.641025641026,4043.076923076924,4274.871794871796,4232.307692307693,4378.974358974359,4283.589743589744,1680.0,1682.0,1398.407,1284.971435546875,0.0,0.0,0.0,0.0
1396719,26.0,0.0,0.0,4305.128205128206,4130.769230769231,4263.076923076924,4812.307692307693,3790.2564102564106,4187.179487179487,4214.871794871796,3994.358974358975,4362.564102564103,4036.410256410257,4275.384615384616,4228.717948717949,4370.769230769231,4276.923076923077,1681.0,1684.0,1398.415,1284.971435546875,0.0,0.0,0.0,0.0
1396719,27.0,0.0,0.0,4300.512820512821,4124.102564102564,4253.846153846154,4818.461538461539,3785.1282051282055,4183.076923076924,4209.74358974359,3988.205128205129,4344.615384615385,4023.589743589744,4274.871794871796,4227.179487179487,4362.051282051282,4268.205128205129,1681.0,1683.0,1398.423,1284.971435546875,0.0,0.0,0.0,0.0
1396719,28.0,0.0,0.0,4306.666666666667,4127.6923076923085,4264.102564102564,4815.8974358974365,3783.076923076924,4185.641025641026,4210.769230769231,3986.666666666667,4335.384615384616,4023.589743589744,4275.384615384616,4233.846153846154,4371.794871794872,4278.974358974359,1679.0,1683.0,1398.431,1284.971435546875,0.0,0.0,0.0,0.0
1396719,29.0,0.0,0.0,4315.384615384616,4139.48717948718,4278.461538461539,4811.794871794872,3787.692307692308,4185.641025641026,4215.8974358974365,3995.3846153846157,4350.769230769231,4039.48717948718,4276.923076923077,4241.538461538462,4388.205128205129,4297.435897435898,1681.0,1683.0,1398.438,1284.971435546875,0.0,0.0,0.0,0.0
1396719,30.0,0.0,0.0,4314.871794871796,4139.48717948718,4273.846153846154,4815.8974358974365,3789.2307692307695,4178.974358974359,4213.846153846154,3995.8974358974365,4362.564102564103,4043.589743589744,4276.923076923077,4241.025641025642,4386.666666666667,4299.48717948718,1680.0,1683.0,1398.446,1284.971435546875,0.0,0.0,0.0,0.0
1396720,31.0,0.0,0.0,4311.282051282052,4134.358974358975,4270.769230769231,4813.333333333334,3784.615384615385,4178.461538461539,4211.282051282052,3983.589743589744,4353.333333333334,4038.461538461539,4276.410256410257,4237.435897435898,4382.564102564103,4296.410256410257,1681.0,1685.0,1398.455,1284.971435546875,0.0,0.0,0.0,0.0
1396720,32.0,0.0,0.0,4306.153846153847,4130.256410256411,4272.820512820514,4812.820512820514,3782.0512820512827,4180.512820512821,4210.769230769231,3978.461538461539,4337.435897435898,4031.7948717948725,4276.410256410257,4237.435897435898,4381.538461538462,4296.923076923077,1681.0,1685.0,1398.462,1284.971435546875,0.0,0.0,0.0,0.0
1396752,33.0,0.0,0.0,4298.974358974359,4125.128205128206,4264.102564102564,4816.923076923077,3778.9743589743593,4180.000000000001,4209.2307692307695,3991.7948717948725,4336.923076923077,4023.589743589744,4273.333333333334,4234.358974358975,4372.820512820514,4290.769230769231,1680.0,1687.0,1398.47,1285.0965576171875,0.0,0.0,0.0,0.0
1396752,34.0,0.0,0.0,4303.076923076924,4128.205128205129,4261.538461538462,4815.384615384616,3783.076923076924,4186.666666666667,4212.820512820514,4016.9230769230776,4354.358974358975,4027.1794871794878,4273.846153846154,4233.846153846154,4371.282051282052,4286.666666666667,1681.0,1687.0,1398.477,1285.0965576171875,0.0,0.0,0.0,0.0
1396752,35.0,0.0,0.0,4314.871794871796,4138.461538461539,4273.333333333334,4812.820512820514,3790.2564102564106,4194.358974358975,4220.512820512821,4036.410256410257,4370.256410256411,4041.538461538462,4276.410256410257,4241.538461538462,4384.615384615385,4295.384615384616,1680.0,1686.0,1398.486,1285.0965576171875,0.0,0.0,0.0,0.0
1396752,36.0,0.0,0.0,4312.820512820514,4137.948717948719,4277.435897435898,4811.282051282052,3784.615384615385,4188.717948717949,4218.974358974359,4040.5128205128212,4374.871794871796,4048.205128205129,4274.871794871796,4243.076923076924,4389.2307692307695,4300.000000000001,1681.0,1684.0,1398.493,1285.0965576171875,0.0,0.0,0.0,0.0
1396846,37.0,0.0,0.0,4303.589743589744,4128.205128205129,4269.74358974359,4816.410256410257,3778.9743589743593,4179.48717948718,4211.282051282052,4029.7435897435903,4366.666666666667,4038.461538461539,4274.871794871796,4236.923076923077,4379.48717948718,4292.820512820514,1681.0,1685.0,1398.502,1285.1278076171875,0.0,0.0,0.0,0.0
1396846,38.0,0.0,0.0,4306.153846153847,4128.717948717949,4267.6923076923085,4817.435897435898,3783.076923076924,4183.076923076924,4206.666666666667,4015.3846153846157,4348.717948717949,4028.205128205129,4275.384615384616,4232.820512820514,4374.358974358975,4289.2307692307695,1682.0,1685.0,1398.509,1285.1278076171875,0.0,0.0,0.0,0.0
1396846,39.0,0.0,0.0,4306.666666666667,4131.794871794872,4270.256410256411,4811.794871794872,3783.589743589744,4189.74358974359,4205.641025641026,4013.333333333334,4337.948717948719,4027.1794871794878,4273.333333333334,4231.282051282052,4374.358974358975,4291.794871794872,1681.0,1685.0,1398.517,1285.1278076171875,0.0,0.0,0.0,0.0
1396846,40.0,0.0,0.0,4300.512820512821,4130.256410256411,4268.205128205129,4813.846153846154,3780.0000000000005,4189.74358974359,4208.717948717949,4021.0256410256416,4343.076923076924,4030.7692307692314,4273.333333333334,4231.794871794872,4371.794871794872,4288.205128205129,1683.0,1685.0,1398.525,1285.1278076171875,0.0,0.0,0.0,0.0
1396846,41.0,0.0,0.0,4300.512820512821,4130.256410256411,4266.666666666667,4817.435897435898,3783.076923076924,4191.282051282052,4214.358974358975,4018.9743589743593,4350.256410256411,4032.307692307693,4273.846153846154,4232.307692307693,4369.743589743591,4281.538461538462,1682.0,1685.0,1398.532,1285.1278076171875,0.0,0.0,0.0,0.0
1396847,42.0,0.0,0.0,4301.538461538462,4128.205128205129,4266.666666666667,4815.384615384616,3785.6410256410263,4193.333333333334,4214.871794871796,4014.358974358975,4351.282051282052,4029.7435897435903,4273.333333333334,4231.282051282052,4368.717948717949,4277.435897435898,1683.0,1685.0,1398.54,1285.1278076171875,0.0,0.0,0.0,0.0
1396847,43.0,0.0,0.0,4302.051282051282,4126.666666666667,4270.256410256411,4812.820512820514,3782.0512820512827,4187.6923076923085,4211.282051282052,4018.9743589743593,4356.410256410257,4030.7692307692314,4273.333333333334,4233.333333333334,4369.2307692307695,4283.589743589744,1682.0,1683.0,1398.548,1285.1278076171875,0.0,0.0,0.0,0.0
1396847,44.0,0.0,0.0,4308.205128205129,4132.820512820514,4276.923076923077,4814.358974358975,3781.538461538462,4180.000000000001,4210.256410256411,4013.8461538461543,4354.871794871796,4034.358974358975,4276.410256410257,4236.410256410257,4376.410256410257,4297.435897435898,1681.0,1685.0,1398.556,1285.1278076171875,0.0,0.0,0.0,0.0
1396847,45.0,0.0,0.0,4308.205128205129,4133.846153846154,4277.435897435898,4816.410256410257,3783.589743589744,4180.000000000001,4207.179487179487,3998.9743589743593,4339.48717948718,4030.7692307692314,4278.461538461539,4235.8974358974365,4378.974358974359,4298.974358974359,1681.0,1685.0,1398.563,1285.1278076171875,0.0,0.0,0.0,0.0
1396847,46.0,0.0,0.0,4299.48717948718,4127.6923076923085,4268.717948717949,4813.846153846154,3782.0512820512827,4185.128205128206,4204.102564102564,3996.9230769230776,4332.307692307693,4022.564102564103,4273.333333333334,4230.769230769231,4373.846153846154,4287.179487179487,1680.0,1688.0,1398.572,1285.1278076171875,0.0,0.0,0.0,0.0
1396847,47.0,0.0,0.0,4301.025641025642,4128.205128205129,4268.717948717949,4814.871794871796,3777.9487179487182,4182.051282051282,4205.128205128206,4004.1025641025644,4343.589743589744,4023.076923076924,4270.769230769231,4230.769230769231,4371.794871794872,4285.128205128206,1679.0,1688.0,1398.579,1285.1278076171875,0.0,0.0,0.0,0.0
1396847,48.0,0.0,0.0,4304.615384615385,4130.256410256411,4273.333333333334,4816.410256410257,3778.461538461539,4182.564102564103,4206.666666666667,4006.1538461538466,4352.820512820514,4027.1794871794878,4273.333333333334,4233.333333333334,4367.179487179487,4286.153846153847,1678.0,1688.0,1398.588,1285.1278076171875,0.0,0.0,0.0,0.0
1396973,49.0,0.0,0.0,4290.256410256411,4118.974358974359,4263.076923076924,4813.333333333334,3778.461538461539,4187.6923076923085,4204.102564102564,4008.717948717949,4354.871794871796,4019.48717948718,4270.769230769231,4228.205128205129,4352.820512820514,4273.846153846154,1678.0,1687.0,1398.595,1285.2216796875,0.0,0.0,0.0,0.0
1396974,50.0,0.0,0.0,4276.410256410257,4108.205128205129,4250.769230769231,4817.435897435898,3771.794871794872,4180.000000000001,4195.8974358974365,4009.23076923077,4346.153846153847,4005.6410256410263,4269.74358974359,4225.128205128206,4345.641025641026,4265.641025641026,1678.0,1686.0,1398.604,1285.2216796875,0.0,0.0,0.0,0.0
1396974,51.0,0.0,0.0,4285.641025641026,4116.410256410257,4257.435897435898,4816.410256410257,3767.692307692308,4172.307692307693,4192.820512820514,4000.0000000000005,4328.717948717949,4004.1025641025644,4272.820512820514,4231.794871794872,4353.846153846154,4274.358974358975,1678.0,1685.0,1398.61,1285.2216796875,0.0,0.0,0.0,0.0
1396975,52.0,0.0,0.0,4297.435897435898,4129.2307692307695,4270.256410256411,4811.282051282052,3770.2564102564106,4178.461538461539,4197.435897435898,4000.0000000000005,4330.256410256411,4011.7948717948725,4272.307692307693,4237.435897435898,4362.564102564103,4283.589743589744,1678.0,1684.0,1398.619,1285.2216796875,0.0,0.0,0.0,0.0
1396975,53.0,0.0,0.0,4297.948717948719,4131.282051282052,4271.794871794872,4815.8974358974365,3776.410256410257,4180.000000000001,4201.538461538462,4015.8974358974365,4341.538461538462,4014.8717948717954,4270.769230769231,4235.8974358974365,4366.153846153847,4286.666666666667,1679.0,1683.0,1398.626,1285.2216796875,0.0,0.0,0.0,0.0
1396975,54.0,0.0,0.0,4296.923076923077,4130.256410256411,4271.282051282052,4814.871794871796,3778.9743589743593,4175.384615384616,4204.615384615385,4032.307692307693,4344.615384615385,4018.461538461539,4271.282051282052,4235.384615384616,4368.717948717949,4292.307692307693,1679.0,1683.0,1398.634,1285.2216796875,0.0,0.0,0.0,0.0
1396976,55.0,0.0,0.0,4291.282051282052,4127.179487179487,4271.794871794872,4811.794871794872,3776.9230769230776,4178.461538461539,4205.128205128206,4039.48717948718,4347.179487179487,4020.0000000000005,4272.820512820514,4239.48717948718,4366.153846153847,4293.846153846154,1680.0,1683.0,1398.642,1285.2216796875,0.0,0.0,0.0,0.0
1396977,56.0,0.0,0.0,4288.205128205129,4125.641025641026,4273.333333333334,4812.820512820514,3775.3846153846157,4182.564102564103,4204.102564102564,4038.9743589743593,4340.512820512821,4014.8717948717954,4270.769230769231,4237.948717948719,4363.589743589744,4291.282051282052,1681.0,1684.0,1398.649,1285.2216796875,0.0,0.0,0.0,0.0
1396977,57.0,0.0,0.0,4296.410256410257,4133.333333333334,4277.948717948719,4812.307692307693,3776.410256410257,4180.512820512821,4203.589743589744,4036.410256410257,4326.153846153847,4017.435897435898,4271.282051282052,4236.410256410257,4368.205128205129,4296.410256410257,1682.0,1683.0,1398.657,1285.2216796875,0.0,0.0,0.0,0.0
1396977,58.0,0.0,0.0,4301.025641025642,4135.8974358974365,4280.512820512821,4813.846153846154,3779.48717948718,4178.974358974359,4205.641025641026,4037.435897435898,4334.871794871796,4027.1794871794878,4274.871794871796,4241.538461538462,4371.794871794872,4302.564102564103,1682.0,1684.0,1398.665,1285.2216796875,0.0,0.0,0.0,0.0
1396977,59.0,0.0,0.0,4295.8974358974365,4131.282051282052,4277.948717948719,4814.358974358975,3780.512820512821,4183.076923076924,4210.256410256411,4041.538461538462,4354.358974358975,4029.23076923077,4274.871794871796,4241.538461538462,4370.769230769231,4301.025641025642,1684.0,1684.0,1398.673,1285.2216796875,0.0,0.0,0.0,0.0
1396978,60.0,0.0,0.0,4291.282051282052,4128.205128205129,4272.307692307693,4817.435897435898,3777.9487179487182,4183.076923076924,4211.282051282052,4031.2820512820517,4351.282051282052,4026.666666666667,4272.820512820514,4235.8974358974365,4367.6923076923085,4296.410256410257,1683.0,1684.0,1398.681,1285.2216796875,0.0,0.0,0.0,0.0
1396978,61.0,0.0,0.0,4290.256410256411,4128.717948717949,4270.256410256411,4816.410256410257,3778.9743589743593,4182.564102564103,4209.2307692307695,4017.435897435898,4351.282051282052,4028.717948717949,4272.820512820514,4235.384615384616,4364.615384615385,4292.820512820514,1684.0,1685.0,1398.689,1285.2216796875,0.0,0.0,0.0,0.0
1396978,62.0,0.0,0.0,4290.769230769231,4128.205128205129,4273.333333333334,4812.820512820514,3781.0256410256416,4187.179487179487,4208.205128205129,4019.48717948718,4360.000000000001,4029.23076923077,4270.769230769231,4236.923076923077,4365.128205128206,4289.74358974359,1683.0,1683.0,1398.696,1285.2216796875,0.0,0.0,0.0,0.0
1396978,63.0,0.0,0.0,4288.205128205129,4124.102564102564,4271.282051282052,4816.410256410257,3779.48717948718,4186.153846153847,4205.641025641026,4030.7692307692314,4351.794871794872,4025.1282051282055,4269.74358974359,4235.384615384616,4363.589743589744,4289.74358974359,1683.0,1684.0,1398.705,1285.2216796875,0.0,0.0,0.0,0.0
1396978,64.0,0.0,507.0,4284.615384615385,4120.000000000001,4265.641025641026,4813.846153846154,3775.3846153846157,4180.000000000001,4201.538461538462,4034.8717948717954,4344.615384615385,4019.48717948718,4272.820512820514,4233.333333333334,4360.512820512821,4292.307692307693,1683.0,1682.0,1398.712,1285.2216796875,0.0,0.0,0.0,0.0
1397096,65.0,0.0,0.0,4279.48717948718,4115.8974358974365,4260.512820512821,4810.769230769231,3772.820512820513,4180.000000000001,4196.410256410257,4020.0000000000005,4337.435897435898,4005.6410256410263,4273.333333333334,4230.256410256411,4353.333333333334,4285.128205128206,1682.0,1683.0,1398.721,1285.3468017578125,0.0,0.0,0.0,0.0
1397096,66.0,0.0,501.0,4277.948717948719,4116.923076923077,4262.051282051282,4813.846153846154,3773.333333333334,4187.179487179487,4194.871794871796,4005.6410256410263,4320.000000000001,4000.5128205128212,4270.769230769231,4232.307692307693,4353.846153846154,4282.051282051282,1683.0,1684.0,1398.728,1285.3468017578125,0.0,0.0,0.0,0.0
1397096,67.0,0.0,525.0,4285.641025641026,4123.076923076924,4269.2307692307695,4814.871794871796,3775.3846153846157,4190.256410256411,4198.974358974359,4021.538461538462,4318.461538461539,4015.3846153846157,4270.769230769231,4235.8974358974365,4367.179487179487,4296.410256410257,1683.0,1684.0,1398.736,1285.3468017578125,0.0,0.0,0.0,0.0
1397096,68.0,0.0,494.0,4287.6923076923085,4122.564102564103,4269.74358974359,4816.410256410257,3776.410256410257,4181.538461538462,4203.076923076924,4047.692307692308,4337.435897435898,4023.589743589744,4273.846153846154,4235.8974358974365,4370.256410256411,4301.025641025642,1682.0,1684.0,1398.743,1285.3468017578125,0.0,0.0,0.0,0.0
1397096,69.0,0.0,546.0,4282.051282051282,4120.512820512821,4267.6923076923085,4814.871794871796,3776.410256410257,4172.307692307693,4202.051282051282,4052.820512820513,4345.128205128206,4019.48717948718,4273.846153846154,4237.948717948719,4365.641025641026,4293.846153846154,1682.0,1684.0,1398.751,1285.3468017578125,0.0,0.0,0.0,0.0
1397097,70.0,0.0,540.0,4284.102564102564,4125.641025641026,4271.794871794872,4815.384615384616,3776.410256410257,4171.794871794872,4203.589743589744,4050.2564102564106,4342.564102564103,4024.1025641025644,4275.8974358974365,4243.076923076924,4370.256410256411,4296.410256410257,1683.0,1684.0,1398.759,1285.3468017578125,0.0,0.0,0.0,0.0
1397097,71.0,0.0,289.0,4286.666666666667,4127.179487179487,4273.333333333334,4814.358974358975,3776.9230769230776,4178.461538461539,4209.2307692307695,4053.333333333334,4348.717948717949,4031.7948717948725,4277.435897435898,4242.051282051282,4374.871794871796,4302.051282051282,1681.0,1684.0,1398.767,1285.3468017578125,0.0,0.0,0.0,0.0
1397097,72.0,0.0,450.0,4276.923076923077,4124.615384615385,4271.282051282052,4809.2307692307695,3780.512820512821,4185.128205128206,4212.820512820514,4055.8974358974365,4355.384615384616,4034.8717948717954,4275.8974358974365,4237.948717948719,4373.846153846154,4300.512820512821,1682.0,1685.0,1398.775,1285.3468017578125,0.0,0.0,0.0,0.0
1397097,73.0,0.0,469.0,4268.717948717949,4125.641025641026,4273.333333333334,4813.846153846154,3783.076923076924,4183.076923076924,4209.74358974359,4062.0512820512827,4352.820512820514,4037.9487179487182,4274.871794871796,4240.512820512821,4378.974358974359,4302.564102564103,1682.0,1684.0,1398.782,1285.3468017578125,0.0,0.0,0.0,0.0
1397097,74.0,0.0,491.0,4271.282051282052,4126.153846153847,4274.871794871796,4815.8974358974365,3780.0000000000005,4182.564102564103,4211.282051282052,4048.205128205129,4363.589743589744,4043.076923076924,4273.846153846154,4242.051282051282,4384.102564102564,4306.153846153847,1681.0,1686.0,1398.79,1285.3468017578125,0.0,0.0,0.0,0.0
1397097,75.0,0.0,483.0,4272.820512820514,4125.128205128206,4273.333333333334,4810.256410256411,3777.435897435898,4185.128205128206,4214.871794871796,3994.358974358975,4378.461538461539,4044.1025641025644,4275.384615384616,4240.000000000001,4381.025641025642,4303.589743589744,1682.0,1684.0,1398.798,1285.3468017578125,0.0,0.0,0.0,0.0
1397097,76.0,0.0,0.0,4270.256410256411,4124.102564102564,4274.358974358975,4811.794871794872,3776.410256410257,4179.48717948718,4203.589743589744,3943.589743589744,4357.948717948719,4032.307692307693,4277.948717948719,4241.538461538462,4376.923076923077,4301.025641025642,1680.0,1685.0,1398.806,1285.3468017578125,0.0,0.0,0.0,0.0
1397097,77.0,0.0,271.0,4264.615384615385,4120.000000000001,4271.794871794872,4814.358974358975,3771.2820512820517,4172.307692307693,4191.794871794872,3935.3846153846157,4333.846153846154,4019.48717948718,4272.820512820514,4241.025641025642,4373.846153846154,4297.948717948719,1682.0,1684.0,1398.814,1285.3468017578125,0.0,0.0,0.0,0.0
1397098,78.0,0.0,491.0,4263.076923076924,4119.48717948718,4268.717948717949,4815.8974358974365,3769.2307692307695,4175.384615384616,4194.358974358975,3943.076923076924,4346.153846153847,4022.0512820512827,4271.794871794872,4237.948717948719,4372.820512820514,4294.871794871796,1681.0,1683.0,1398.823,1285.3468017578125,0.0,0.0,0.0,0.0
1397098,79.0,0.0,483.0,4268.717948717949,4127.179487179487,4271.794871794872,4815.8974358974365,3774.358974358975,4181.538461538462,4199.48717948718,3931.2820512820517,4359.48717948718,4032.307692307693,4276.923076923077,4237.948717948719,4377.948717948719,4297.948717948719,1682.0,1684.0,1398.829,1285.3468017578125,0.0,0.0,0.0,0.0
1397098,80.0,0.0,0.0,4267.179487179487,4127.179487179487,4272.307692307693,4812.820512820514,3775.8974358974365,4184.102564102564,4200.000000000001,3916.9230769230776,4349.2307692307695,4028.205128205129,4276.923076923077,4236.923076923077,4377.948717948719,4295.384615384616,1682.0,1684.0,1398.838,1285.3468017578125,0.0,0.0,0.0,0.0
1397223,81.0,0.0,271.0,4260.000000000001,4120.000000000001,4267.179487179487,4815.384615384616,3774.8717948717954,4184.615384615385,4202.564102564103,3919.48717948718,4346.153846153847,4018.9743589743593,4271.794871794872,4234.358974358975,4369.2307692307695,4287.6923076923085,1682.0,1684.0,1398.845,1285.471923828125,0.0,0.0,0.0,0.0
1397224,82.0,0.0,491.0,4262.051282051282,4123.589743589744,4267.179487179487,4814.358974358975,3776.9230769230776,4181.538461538462,4205.128205128206,3913.333333333334,4356.410256410257,4024.1025641025644,4271.282051282052,4235.8974358974365,4368.717948717949,4293.846153846154,1682.0,1684.0,1398.853,1285.471923828125,0.0,0.0,0.0,0.0
1397224,83.0,0.0,483.0,4271.282051282052,4135.384615384616,4274.871794871796,4812.307692307693,3776.410256410257,4178.974358974359,4203.076923076924,3888.205128205129,4357.435897435898,4032.307692307693,4273.846153846154,4242.564102564103,4379.48717948718,4304.102564102564,1682.0,1686.0,1398.861,1285.471923828125,0.0,0.0,0.0,0.0
1397224,84.0,0.0,0.0,4277.435897435898,4140.000000000001,4283.589743589744,4814.871794871796,3775.3846153846157,4183.076923076924,4204.102564102564,3878.9743589743593,4353.333333333334,4031.2820512820517,4275.8974358974365,4244.102564102564,4386.153846153847,4305.641025641026,1683.0,1685.0,1398.869,1285.471923828125,0.0,0.0,0.0,0.0
1397224,85.0,0.0,271.0,4274.871794871796,4134.871794871796,4282.564102564103,4814.358974358975,3777.435897435898,4190.256410256411,4208.717948717949,3884.615384615385,4356.410256410257,4028.205128205129,4275.8974358974365,4240.000000000001,4380.000000000001,4305.128205128206,1682.0,1686.0,1398.876,1285.471923828125,0.0,0.0,0.0,0.0
1397225,86.0,0.0,491.0,4270.769230769231,4130.256410256411,4276.923076923077,4813.846153846154,3779.48717948718,4191.794871794872,4209.2307692307695,3877.9487179487182,4366.666666666667,4031.7948717948725,4277.948717948719,4239.48717948718,4375.384615384616,4302.051282051282,1684.0,1685.0,1398.885,1285.471923828125,0.0,0.0,0.0,0.0
1397225,87.0,0.0,483.0,4274.358974358975,4135.8974358974365,4281.538461538462,4813.333333333334,3776.9230769230776,4186.153846153847,4206.666666666667,3867.692307692308,4370.256410256411,4035.8974358974365,4279.48717948718,4241.538461538462,4382.564102564103,4301.538461538462,1682.0,1685.0,1398.892,1285.471923828125,0.0,0.0,0.0,0.0
1397225,88.0,0.0,0.0,4277.948717948719,4139.48717948718,4284.615384615385,4815.384615384616,3773.333333333334,4182.051282051282,4206.153846153847,3858.9743589743593,4357.948717948719,4031.7948717948725,4275.8974358974365,4242.051282051282,4383.076923076924,4305.641025641026,1683.0,1685.0,1398.9,1285.471923828125,0.0,0.0,0.0,0.0
1397225,89.0,0.0,271.0,4271.282051282052,4132.307692307693,4277.435897435898,4812.820512820514,3773.333333333334,4183.076923076924,4206.153846153847,3848.205128205129,4352.820512820514,4021.0256410256416,4273.333333333334,4239.48717948718,4371.282051282052,4304.102564102564,1682.0,1685.0,1398.908,1285.471923828125,0.0,0.0,0.0,0.0
1397226,90.0,0.0,491.0,4262.051282051282,4128.205128205129,4275.8974358974365,4809.743589743591,3773.333333333334,4185.641025641026,4205.641025641026,3836.410256410257,4360.000000000001,4018.461538461539,4274.871794871796,4235.384615384616,4367.179487179487,4299.48717948718,1682.0,1686.0,1398.915,1285.471923828125,0.0,0.0,0.0,0.0
1397226,91.0,0.0,483.0,4256.410256410257,4134.871794871796,4280.512820512821,4815.8974358974365,3769.2307692307695,4180.000000000001,4202.051282051282,3835.3846153846157,4346.666666666667,4020.5128205128212,4277.435897435898,4236.923076923077,4373.333333333334,4301.538461538462,1681.0,1686.0,1398.924,1285.471923828125,0.0,0.0,0.0,0.0
1397226,92.0,0.0,0.0,4251.282051282052,4137.435897435898,4278.461538461539,4814.358974358975,3765.1282051282055,4174.871794871796,4198.461538461539,3850.7692307692314,4327.6923076923085,4017.435897435898,4276.923076923077,4235.8974358974365,4375.384615384616,4299.48717948718,1681.0,1687.0,1398.931,1285.471923828125,0.0,0.0,0.0,0.0
1397226,93.0,0.0,271.0,4242.564102564103,4127.6923076923085,4270.256410256411,4809.2307692307695,3767.1794871794878,4180.000000000001,4196.410256410257,3854.358974358975,4328.717948717949,4012.820512820513,4275.8974358974365,4228.717948717949,4367.179487179487,4292.820512820514,1681.0,1688.0,1398.94,1285.471923828125,0.0,0.0,0.0,0.0
1397227,94.0,0.0,491.0,4235.8974358974365,4118.974358974359,4267.6923076923085,4811.794871794872,3767.1794871794878,4180.512820512821,4194.358974358975,3836.9230769230776,4331.794871794872,4009.7435897435903,4274.358974358975,4229.2307692307695,4361.538461538462,4292.307692307693,1680.0,1688.0,1398.947,1285.471923828125,0.0,0.0,0.0,0.0
1397227,95.0,0.0,483.0,4239.48717948718,4124.102564102564,4276.410256410257,4811.282051282052,3763.589743589744,4173.846153846154,4197.948717948719,3830.2564102564106,4335.8974358974365,4015.8974358974365,4273.846153846154,4237.948717948719,4371.794871794872,4297.435897435898,1681.0,1686.0,1398.955,1285.471923828125,0.0,0.0,0.0,0.0
1397227,96.0,0.0,0.0,4241.025641025642,4129.2307692307695,4284.102564102564,4811.282051282052,3766.1538461538466,4170.769230769231,4200.512820512821,3819.48717948718,4346.666666666667,4024.1025641025644,4277.435897435898,4241.025641025642,4380.000000000001,4301.538461538462,1679.0,1687.0,1398.962,1285.471923828125,0.0,0.0,0.0,0.0
1397248,97.0,0.0,271.0,4230.256410256411,4124.102564102564,4277.948717948719,4812.820512820514,3767.692307692308,4172.820512820514,4197.948717948719,3801.0256410256416,4344.102564102564,4018.9743589743593,4277.435897435898,4235.8974358974365,4372.307692307693,4299.48717948718,1680.0,1686.0,1398.971,1285.5970458984375,0.0,0.0,0.0,0.0
1397248,98.0,0.0,491.0,4219.48717948718,4117.948717948719,4269.2307692307695,4812.820512820514,3766.666666666667,4173.333333333334,4199.48717948718,3820.512820512821,4338.461538461539,4012.307692307693,4275.384615384616,4233.333333333334,4363.589743589744,4292.307692307693,1679.0,1686.0,1398.979,1285.5970458984375,0.0,0.0,0.0,0.0
1397248,99.0,0.0,483.0,4218.461538461539,4115.384615384616,4266.153846153847,4814.871794871796,3765.1282051282055,4175.384615384616,4198.461538461539,3847.692307692308,4345.641025641026,4018.461538461539,4275.8974358974365,4233.846153846154,4362.564102564103,4290.256410256411,1679.0,1686.0,1398.987,1285.5970458984375,0.0,0.0,0.0,0.0
1397248,100.0,0.0,0.0,4214.358974358975,4113.333333333334,4263.589743589744,4813.333333333334,3762.564102564103,4181.025641025642,4191.282051282052,3835.3846153846157,4339.48717948718,4017.435897435898,4275.384615384616,4231.794871794872,4359.48717948718,4292.307692307693,1679.0,1685.0,1398.994,1285.5970458984375,0.0,0.0,0.0,0.0
1397340,101.0,0.0,271.0,4209.2307692307695,4112.307692307693,4264.102564102564,4813.333333333334,3760.0000000000005,4181.025641025642,4191.282051282052,3827.1794871794878,4323.076923076924,4008.205128205129,4275.384615384616,4232.307692307693,4358.974358974359,4291.794871794872,1678.0,1686.0,1399.002,1285.6282958984375,0.0,0.0,0.0,0.0
1397340,102.0,0.0,491.0,4217.948717948719,4121.538461538462,4272.307692307693,4813.333333333334,3762.0512820512827,4177.435897435898,4196.923076923077,3837.9487179487182,4331.282051282052,4015.3846153846157,4274.358974358975,4236.410256410257,4368.717948717949,4296.410256410257,1679.0,1684.0,1399.01,1285.6282958984375,0.0,0.0,0.0,0.0
1397340,103.0,0.0,483.0,4227.6923076923085,4130.769230769231,4277.948717948719,4811.794871794872,3766.1538461538466,4180.512820512821,4195.8974358974365,3826.666666666667,4341.025641025642,4024.1025641025644,4274.358974358975,4236.923076923077,4376.923076923077,4306.153846153847,1678.0,1685.0,1399.018,1285.6282958984375,0.0,0.0,0.0,0.0
1397341,104.0,0.0,0.0,4225.641025641026,4128.205128205129,4278.974358974359,4812.820512820514,3763.589743589744,4181.538461538462,4193.846153846154,3819.48717948718,4327.6923076923085,4017.435897435898,4275.8974358974365,4236.410256410257,4373.846153846154,4308.717948717949,1678.0,1684.0,1399.025,1285.6282958984375,0.0,0.0,0.0,0.0
1397342,105.0,0.0,271.0,4226.666666666667,4127.179487179487,4283.076923076924,4813.333333333334,3761.538461538462,4179.48717948718,4196.923076923077,3836.9230769230776,4330.256410256411,4018.9743589743593,4275.384615384616,4239.48717948718,4373.846153846154,4309.743589743591,1679.0,1684.0,1399.034,1285.6282958984375,0.0,0.0,0.0,0.0
1397342,106.0,0.0,491.0,4238.974358974359,4139.48717948718,4289.74358974359,4814.871794871796,3767.1794871794878,4179.48717948718,4197.435897435898,3848.205128205129,4346.153846153847,4027.692307692308,4277.435897435898,4243.076923076924,4383.589743589744,4321.538461538462,1679.0,1684.0,1399.04,1285.6282958984375,0.0,0.0,0.0,0.0
1397342,107.0,0.0,483.0,4250.769230769231,4151.794871794872,4298.974358974359,4813.333333333334,3769.7435897435903,4179.48717948718,4199.48717948718,3847.1794871794878,4341.538461538462,4022.0512820512827,4279.48717948718,4244.102564102564,4391.282051282052,4335.8974358974365,1680.0,1684.0,1399.048,1285.6282958984375,0.0,0.0,0.0,0.0
1397342,108.0,0.0,0.0,4250.256410256411,4144.615384615385,4303.589743589744,4810.256410256411,3765.6410256410263,4176.923076923077,4202.564102564103,3834.8717948717954,4331.282051282052,4014.358974358975,4277.948717948719,4241.025641025642,4385.641025641026,4337.948717948719,1680.0,1685.0,1399.056,1285.6282958984375,0.0,0.0,0.0,0.0
1397342,109.0,0.0,271.0,4252.820512820514,4136.923076923077,4298.974358974359,4814.871794871796,3765.6410256410263,4173.846153846154,4198.974358974359,3838.9743589743593,4329.2307692307695,4015.3846153846157,4276.410256410257,4240.000000000001,4381.025641025642,4335.384615384616,1680.0,1687.0,1399.065,1285.6282958984375,0.0,0.0,0.0,0.0
1397343,110.0,0.0,491.0,4269.74358974359,4153.846153846154,4305.128205128206,4816.410256410257,3767.692307692308,4171.282051282052,4196.923076923077,3904.615384615385,4331.282051282052,4021.0256410256416,4276.923076923077,4246.153846153847,4394.871794871796,4347.6923076923085,1680.0,1687.0,1399.072,1285.6282958984375,0.0,0.0,0.0,0.0
1397343,111.0,0.0,483.0,4280.512820512821,4170.256410256411,4317.948717948719,4814.358974358975,3767.692307692308,4168.205128205129,4201.538461538462,3983.076923076924,4338.461538461539,4027.1794871794878,4278.461538461539,4250.769230769231,4404.615384615385,4357.948717948719,1680.0,1686.0,1399.08,1285.6282958984375,0.0,0.0,0.0,0.0
1397343,112.0,0.0,0.0,4271.794871794872,4165.641025641026,4312.820512820514,4813.333333333334,3771.2820512820517,4168.717948717949,4202.564102564103,3998.461538461539,4344.615384615385,4031.7948717948725,4280.000000000001,4244.102564102564,4396.410256410257,4341.538461538462,1680.0,1685.0,1399.088,1285.6282958984375,0.0,0.0,0.0,0.0
1397405,113.0,0.0,271.0,4259.48717948718,4160.512820512821,4302.564102564103,4811.282051282052,3775.8974358974365,4176.410256410257,4200.512820512821,3990.2564102564106,4351.794871794872,4035.8974358974365,4279.48717948718,4238.461538461539,4395.384615384616,4323.589743589744,1681.0,1684.0,1399.095,1285.72216796875,0.0,0.0,0.0,0.0
1397405,114.0,0.0,491.0,4249.2307692307695,4157.435897435898,4299.48717948718,4815.384615384616,3775.8974358974365,4186.153846153847,4203.589743589744,3998.9743589743593,4356.923076923077,4035.3846153846157,4278.974358974359,4239.48717948718,4396.410256410257,4321.538461538462,1681.0,1683.0,1399.103,1285.72216796875,0.0,0.0,0.0,0.0
1397405,115.0,0.0,483.0,4241.025641025642,4150.769230769231,4294.358974358975,4816.410256410257,3776.410256410257,4189.74358974359,4204.102564102564,3991.7948717948725,4345.641025641026,4028.205128205129,4276.923076923077,4237.435897435898,4386.153846153847,4316.923076923077,1681.0,1685.0,1399.111,1285.72216796875,0.0,0.0,0.0,0.0
1397405,116.0,0.0,0.0,4242.564102564103,4150.256410256411,4292.307692307693,4810.769230769231,3779.48717948718,4186.666666666667,4200.000000000001,3984.1025641025644,4341.025641025642,4030.7692307692314,4277.435897435898,4237.435897435898,4384.102564102564,4311.794871794872,1684.0,1684.0,1399.119,1285.72216796875,0.0,0.0,0.0,0.0
1397406,117.0,0.0,271.0,4245.128205128206,4152.307692307693,4296.923076923077,4810.256410256411,3781.0256410256416,4185.128205128206,4203.076923076924,3994.8717948717954,4364.615384615385,4046.666666666667,4279.48717948718,4242.564102564103,4397.435897435898,4318.974358974359,1682.0,1685.0,1399.126,1285.72216796875,0.0,0.0,0.0,0.0
1397406,118.0,0.0,491.0,4246.153846153847,4151.282051282052,4298.974358974359,4812.820512820514,3780.512820512821,4186.666666666667,4209.2307692307695,3991.7948717948725,4371.282051282052,4051.2820512820517,4278.461538461539,4245.128205128206,4403.076923076924,4328.717948717949,1684.0,1686.0,1399.134,1285.72216796875,0.0,0.0,0.0,0.0
1397406,119.0,0.0,483.0,4250.256410256411,4154.871794871796,4301.025641025642,4817.435897435898,3782.564102564103,4184.615384615385,4207.6923076923085,3972.820512820513,4350.256410256411,4047.692307692308,4278.974358974359,4244.102564102564,4401.025641025642,4332.307692307693,1684.0,1685.0,1399.142,1285.72216796875,0.0,0.0,0.0,0.0
1397406,120.0,0.0,0.0,4250.256410256411,4159.48717948718,4304.102564102564,4816.410256410257,3784.615384615385,4184.102564102564,4205.641025641026,3963.076923076924,4348.205128205129,4052.307692307693,4280.512820512821,4241.538461538462,4402.564102564103,4332.820512820514,1683.0,1686.0,1399.15,1285.72216796875,0.0,0.0,0.0,0.0
1397471,121.0,0.0,271.0,4243.076923076924,4155.384615384616,4298.461538461539,4811.794871794872,3784.615384615385,4184.102564102564,4205.128205128206,3965.6410256410263,4360.512820512821,4054.8717948717954,4280.000000000001,4238.974358974359,4401.025641025642,4326.153846153847,1683.0,1686.0,1399.158,1285.78466796875,0.0,0.0,0.0,0.0
1397471,122.0,0.0,491.0,4239.48717948718,4146.153846153847,4290.769230769231,4814.358974358975,3781.0256410256416,4185.641025641026,4203.076923076924,3969.7435897435903,4361.025641025642,4048.205128205129,4280.512820512821,4241.025641025642,4395.8974358974365,4316.923076923077,1682.0,1687.0,1399.166,1285.78466796875,0.0,0.0,0.0,0.0
1397471,123.0,0.0,483.0,4243.589743589744,4146.153846153847,4291.794871794872,4813.333333333334,3781.0256410256416,4191.794871794872,4207.179487179487,3970.2564102564106,4358.974358974359,4044.615384615385,4280.512820512821,4242.051282051282,4395.8974358974365,4316.923076923077,1682.0,1687.0,1399.173,1285.78466796875,0.0,0.0,0.0,0.0
1397471,124.0,0.0,0.0,4243.589743589744,4147.179487179487,4291.794871794872,4813.333333333334,3784.1025641025644,4195.8974358974365,4210.769230769231,3968.717948717949,4356.923076923077,4041.0256410256416,4280.000000000001,4237.435897435898,4392.307692307693,4315.384615384616,1681.0,1688.0,1399.181,1285.78466796875,0.0,0.0,0.0,0.0
1397471,125.0,0.0,271.0,4237.435897435898,4140.512820512821,4285.641025641026,4814.871794871796,3784.1025641025644,4193.846153846154,4209.74358974359,3968.717948717949,4354.358974358975,4030.7692307692314,4279.48717948718,4233.333333333334,4381.538461538462,4306.153846153847,1681.0,1687.0,1399.189,1285.78466796875,0.0,0.0,0.0,0.0
1397471,126.0,0.0,491.0,4236.923076923077,4138.461538461539,4284.615384615385,4812.820512820514,3783.076923076924,4189.2307692307695,4209.2307692307695,3966.666666666667,4364.615384615385,4032.820512820513,4278.461538461539,4234.871794871796,4381.538461538462,4301.538461538462,1680.0,1687.0,1399.197,1285.78466796875,0.0,0.0,0.0,0.0
1397471,127.0,0.0,483.0,4242.051282051282,4137.948717948719,4287.179487179487,4813.846153846154,3782.0512820512827,4186.666666666667,4209.74358974359,3956.410256410257,4367.179487179487,4040.0000000000005,4277.435897435898,4239.48717948718,4384.615384615385,4304.102564102564,1680.0,1686.0,1399.205,1285.78466796875,0.0,0.0,0.0,0.0
1397472,128.0,0.0,0.0,4241.538461538462,4132.820512820514,4288.205128205129,4812.820512820514,3783.589743589744,4193.846153846154,4211.282051282052,3943.589743589744,4352.820512820514,4032.307692307693,4276.410256410257,4237.435897435898,4378.461538461539,4303.589743589744,1679.0,1685.0,1399.213,1285.78466796875,0.0,0.0,0.0,0.0
1397569,0.0,0.0,507.0,4240.512820512821,4133.333333333334,4288.205128205129,4813.846153846154,3788.205128205129,4204.615384615385,4215.8974358974365,3930.7692307692314,4345.641025641026,4024.615384615385,4276.923076923077,4233.333333333334,4373.333333333334,4301.538461538462,1680.0,1684.0,1399.22,1285.84716796875,0.0,0.0,0.0,0.0
1397569,1.0,0.0,0.0,4244.615384615385,4137.435897435898,4288.717948717949,4813.846153846154,3792.820512820513,4203.076923076924,4217.948717948719,3910.7692307692314,4342.564102564103,4023.589743589744,4276.410256410257,4232.820512820514,4371.282051282052,4303.589743589744,1679.0,1682.0,1399.228,1285.84716796875,0.0,0.0,0.0,0.0
1397569,2.0,0.0,501.0,4244.615384615385,4134.871794871796,4289.74358974359,4810.769230769231,3794.358974358975,4196.410256410257,4214.871794871796,3895.8974358974365,4337.435897435898,4019.48717948718,4275.384615384616,4233.333333333334,4367.6923076923085,4305.128205128206,1680.0,1683.0,1399.236,1285.84716796875,0.0,0.0,0.0,0.0
1397569,3.0,0.0,526.0,4250.256410256411,4140.000000000001,4294.871794871796,4814.358974358975,3794.358974358975,4191.282051282052,4214.871794871796,3901.0256410256416,4341.025641025642,4021.0256410256416,4277.435897435898,4240.000000000001,4373.846153846154,4313.333333333334,1680.0,1681.0,1399.244,1285.84716796875,0.0,0.0,0.0,0.0
1397569,4.0,0.0,494.0,4264.102564102564,4148.205128205129,4301.538461538462,4813.846153846154,3796.410256410257,4191.794871794872,4220.512820512821,3910.2564102564106,4351.282051282052,4033.8461538461543,4278.974358974359,4245.128205128206,4386.153846153847,4325.641025641026,1680.0,1683.0,1399.252,1285.84716796875,0.0,0.0,0.0,0.0
1397569,5.0,0.0,546.0,4262.564102564103,4140.000000000001,4296.923076923077,4812.820512820514,3797.435897435898,4201.025641025642,4223.589743589744,3900.5128205128212,4352.820512820514,4034.8717948717954,4280.512820512821,4242.051282051282,4382.051282051282,4321.025641025642,1681.0,1683.0,1399.259,1285.84716796875,0.0,0.0,0.0,0.0
1397570,6.0,0.0,540.0,4257.435897435898,4136.923076923077,4295.8974358974365,4814.871794871796,3800.512820512821,4201.538461538462,4222.564102564103,3891.7948717948725,4348.205128205129,4030.2564102564106,4282.564102564103,4241.538461538462,4376.923076923077,4314.871794871796,1681.0,1684.0,1399.267,1285.84716796875,0.0,0.0,0.0,0.0
1397570,7.0,0.0,289.0,4265.128205128206,4147.179487179487,4304.102564102564,4810.769230769231,3804.1025641025644,4194.871794871796,4223.076923076924,3906.666666666667,4351.794871794872,4036.9230769230776,4280.512820512821,4245.128205128206,4384.615384615385,4323.076923076924,1683.0,1684.0,1399.275,1285.84716796875,0.0,0.0,0.0,0.0
1397570,8.0,0.0,450.0,4263.076923076924,4141.025641025642,4298.461538461539,4812.307692307693,3804.615384615385,4195.384615384616,4221.538461538462,3913.8461538461543,4353.333333333334,4038.461538461539,4279.48717948718,4242.564102564103,4382.051282051282,4318.461538461539,1682.0,1685.0,1399.284,1285.84716796875,0.0,0.0,0.0,0.0
1397570,9.0,0.0,469.0,4254.358974358975,4133.333333333334,4285.641025641026,4814.871794871796,3804.615384615385,4198.461538461539,4217.435897435898,3897.9487179487182,4346.666666666667,4030.2564102564106,4279.48717948718,4233.846153846154,4369.743589743591,4302.051282051282,1683.0,1685.0,1399.291,1285.84716796875,0.0,0.0,0.0,0.0
1397570,10.0,0.0,491.0,4253.846153846154,4136.923076923077,4283.076923076924,4812.820512820514,3802.564102564103,4190.769230769231,4214.358974358975,3890.2564102564106,4339.48717948718,4023.589743589744,4277.948717948719,4231.794871794872,4365.641025641026,4297.948717948719,1683.0,1686.0,1399.301,1285.84716796875,0.0,0.0,0.0,0.0
1397571,11.0,0.0,483.0,4256.923076923077,4137.435897435898,4283.076923076924,4813.846153846154,3801.538461538462,4182.564102564103,4210.256410256411,3896.9230769230776,4339.48717948718,4026.1538461538466,4276.923076923077,4237.948717948719,4367.179487179487,4298.461538461539,1683.0,1687.0,1399.306,1285.84716796875,0.0,0.0,0.0,0.0
1397571,12.0,0.0,0.0,4263.589743589744,4138.974358974359,4289.74358974359,4815.8974358974365,3806.1538461538466,4188.205128205129,4213.333333333334,3894.8717948717954,4353.333333333334,4038.461538461539,4276.410256410257,4243.076923076924,4374.871794871796,4303.589743589744,1682.0,1685.0,1399.314,1285.84716796875,0.0,0.0,0.0,0.0
1397571,13.0,0.0,271.0,4271.282051282052,4148.717948717949,4297.948717948719,4818.461538461539,3807.692307692308,4193.846153846154,4219.48717948718,3886.666666666667,4365.641025641026,4048.205128205129,4279.48717948718,4244.102564102564,4385.128205128206,4317.435897435898,1682.0,1685.0,1399.341,1285.84716796875,0.0,0.0,0.0,0.0
1397571,14.0,0.0,491.0,4273.333333333334,4156.923076923077,4298.461538461539,4815.8974358974365,3806.666666666667,4191.282051282052,4216.923076923077,3881.538461538462,4360.000000000001,4048.717948717949,4282.051282051282,4245.641025641026,4391.282051282052,4321.025641025642,1682.0,1683.0,1399.342,1285.84716796875,0.0,0.0,0.0,0.0
1397571,15.0,0.0,483.0,4275.384615384616,4161.025641025642,4300.000000000001,4811.282051282052,3810.2564102564106,4191.794871794872,4212.307692307693,3870.7692307692314,4348.205128205129,4047.1794871794878,4281.025641025642,4245.641025641026,4394.358974358975,4312.820512820514,1680.0,1685.0,1399.342,1285.84716796875,0.0,0.0,0.0,0.0
1397699,16.0,0.0,0.0,4281.025641025642,4162.051282051282,4302.564102564103,4813.333333333334,3814.358974358975,4198.461538461539,4213.333333333334,3864.1025641025644,4349.2307692307695,4048.717948717949,4280.512820512821,4242.564102564103,4394.358974358975,4310.769230769231,1682.0,1685.0,1399.346,1285.9488525390625,0.0,0.0,0.0,0.0
1397699,17.0,0.0,0.0,4282.051282051282,4161.538461538462,4300.000000000001,4812.820512820514,3815.3846153846157,4203.076923076924,4215.8974358974365,3871.7948717948725,4359.48717948718,4053.333333333334,4281.538461538462,4242.051282051282,4396.923076923077,4313.333333333334,1681.0,1685.0,1399.353,1285.9488525390625,0.0,0.0,0.0,0.0
1397699,18.0,0.0,0.0,4280.000000000001,4163.589743589744,4298.974358974359,4815.384615384616,3820.0000000000005,4205.128205128206,4215.8974358974365,3874.358974358975,4361.025641025642,4054.358974358975,4281.538461538462,4243.589743589744,4398.461538461539,4310.769230769231,1681.0,1686.0,1399.361,1285.9488525390625,0.0,0.0,0.0,0.0
1397699,19.0,0.0,0.0,4278.974358974359,4163.076923076924,4303.076923076924,4819.48717948718,3825.6410256410263,4209.2307692307695,4218.974358974359,3875.8974358974365,4358.461538461539,4048.717948717949,4280.512820512821,4241.025641025642,4394.358974358975,4307.179487179487,1680.0,1686.0,1399.369,1285.9488525390625,0.0,0.0,0.0,0.0
1397699,20.0,0.0,0.0,4283.589743589744,4160.000000000001,4308.717948717949,4816.923076923077,3830.2564102564106,4211.794871794872,4225.128205128206,3902.0512820512827,4367.6923076923085,4052.307692307693,4280.512820512821,4238.974358974359,4397.435897435898,4309.743589743591,1681.0,1685.0,1399.377,1285.9488525390625,0.0,0.0,0.0,0.0
1397699,21.0,0.0,0.0,4293.333333333334,4161.538461538462,4311.794871794872,4814.358974358975,3833.8461538461543,4214.871794871796,4229.2307692307695,3933.8461538461543,4379.48717948718,4064.615384615385,4282.564102564103,4244.102564102564,4405.128205128206,4311.282051282052,1680.0,1686.0,1399.386,1285.9488525390625,0.0,0.0,0.0,0.0
1397700,22.0,0.0,0.0,4294.358974358975,4163.589743589744,4310.769230769231,4812.820512820514,3833.8461538461543,4220.512820512821,4233.333333333334,3939.48717948718,4384.102564102564,4067.1794871794878,4281.538461538462,4244.615384615385,4404.102564102564,4307.179487179487,1680.0,1686.0,1399.393,1285.9488525390625,0.0,0.0,0.0,0.0
1397700,23.0,0.0,0.0,4286.666666666667,4156.923076923077,4303.589743589744,4814.358974358975,3835.3846153846157,4219.48717948718,4235.384615384616,3932.307692307693,4388.205128205129,4061.0256410256416,4280.512820512821,4238.974358974359,4395.384615384616,4298.461538461539,1680.0,1685.0,1399.4,1285.9488525390625,0.0,0.0,0.0,0.0
1397701,24.0,0.0,0.0,4280.000000000001,4149.2307692307695,4294.871794871796,4814.871794871796,3840.0000000000005,4217.948717948719,4234.358974358975,3929.7435897435903,4386.153846153847,4055.8974358974365,4279.48717948718,4236.923076923077,4386.153846153847,4292.820512820514,1680.0,1686.0,1399.408,1285.9488525390625,0.0,0.0,0.0,0.0
1397701,25.0,0.0,0.0,4280.000000000001,4151.282051282052,4295.384615384616,4811.794871794872,3840.512820512821,4222.051282051282,4233.846153846154,3916.9230769230776,4373.846153846154,4053.8461538461543,4277.948717948719,4241.025641025642,4387.6923076923085,4297.435897435898,1681.0,1683.0,1399.416,1285.9488525390625,0.0,0.0,0.0,0.0
1397701,26.0,0.0,0.0,4286.153846153847,4155.384615384616,4304.102564102564,4814.871794871796,3838.9743589743593,4221.025641025642,4232.820512820514,3895.3846153846157,4370.256410256411,4056.410256410257,4280.000000000001,4244.102564102564,4398.461538461539,4304.615384615385,1679.0,1685.0,1399.424,1285.9488525390625,0.0,0.0,0.0,0.0
1397702,27.0,0.0,0.0,4290.769230769231,4151.794871794872,4305.641025641026,4816.410256410257,3836.410256410257,4215.8974358974365,4230.256410256411,3882.564102564103,4371.794871794872,4056.410256410257,4281.538461538462,4238.974358974359,4397.435897435898,4304.102564102564,1680.0,1683.0,1399.431,1285.9488525390625,0.0,0.0,0.0,0.0
1397702,28.0,0.0,0.0,4289.2307692307695,4147.179487179487,4299.48717948718,4813.333333333334,3833.8461538461543,4214.871794871796,4228.205128205129,3878.461538461539,4358.974358974359,4048.717948717949,4280.000000000001,4234.871794871796,4386.153846153847,4296.410256410257,1680.0,1683.0,1399.439,1285.9488525390625,0.0,0.0,0.0,0.0
1397702,29.0,0.0,0.0,4290.256410256411,4150.769230769231,4300.000000000001,4812.307692307693,3839.48717948718,4217.435897435898,4229.2307692307695,3887.1794871794878,4352.307692307693,4048.205128205129,4280.000000000001,4238.974358974359,4390.769230769231,4294.358974358975,1681.0,1684.0,1399.447,1285.9488525390625,0.0,0.0,0.0,0.0
1397702,30.0,0.0,0.0,4290.769230769231,4153.333333333334,4302.564102564103,4813.846153846154,3844.1025641025644,4221.025641025642,4233.846153846154,3906.666666666667,4368.717948717949,4061.0256410256416,4280.000000000001,4241.538461538462,4397.948717948719,4291.282051282052,1681.0,1684.0,1399.455,1285.9488525390625,0.0,0.0,0.0,0.0
1397702,31.0,0.0,0.0,4281.538461538462,4142.051282051282,4295.384615384616,4818.974358974359,3841.0256410256416,4220.000000000001,4233.333333333334,3915.3846153846157,4379.48717948718,4059.48717948718,4280.512820512821,4237.435897435898,4388.717948717949,4278.461538461539,1682.0,1684.0,1399.463,1285.9488525390625,0.0,0.0,0.0,0.0
1397724,32.0,0.0,0.0,4280.000000000001,4141.538461538462,4289.2307692307695,4816.923076923077,3838.461538461539,4215.8974358974365,4228.205128205129,3916.410256410257,4372.307692307693,4048.205128205129,4280.000000000001,4237.948717948719,4387.6923076923085,4276.923076923077,1682.0,1684.0,1399.471,1286.073974609375,0.0,0.0,0.0,0.0
1397724,33.0,0.0,0.0,4287.6923076923085,4145.128205128206,4294.358974358975,4812.307692307693,3841.0256410256416,4215.8974358974365,4229.2307692307695,3920.5128205128212,4372.820512820514,4054.358974358975,4277.948717948719,4244.102564102564,4393.846153846154,4285.641025641026,1682.0,1684.0,1399.478,1286.073974609375,0.0,0.0,0.0,0.0
1397724,34.0,0.0,0.0,4288.717948717949,4136.410256410257,4298.974358974359,4815.384615384616,3842.564102564103,4216.923076923077,4231.794871794872,3916.9230769230776,4383.589743589744,4065.1282051282055,4279.48717948718,4246.153846153847,4387.179487179487,4289.74358974359,1682.0,1684.0,1399.486,1286.073974609375,0.0,0.0,0.0,0.0
1397724,35.0,0.0,0.0,4292.820512820514,4142.564102564103,4302.564102564103,4814.871794871796,3843.076923076924,4219.48717948718,4232.820512820514,3905.1282051282055,4388.717948717949,4068.205128205129,4283.076923076924,4243.589743589744,4393.846153846154,4294.358974358975,1682.0,1684.0,1399.494,1286.073974609375,0.0,0.0,0.0,0.0
1397822,36.0,0.0,0.0,4303.076923076924,4160.512820512821,4309.743589743591,4816.410256410257,3845.6410256410263,4222.051282051282,4231.794871794872,3899.48717948718,4384.615384615385,4070.2564102564106,4284.102564102564,4243.589743589744,4411.282051282052,4299.48717948718,1682.0,1685.0,1399.502,1286.105224609375,0.0,0.0,0.0,0.0
1397822,37.0,0.0,0.0,4304.102564102564,4161.538461538462,4314.358974358975,4816.410256410257,3847.692307692308,4221.538461538462,4231.794871794872,3908.205128205129,4377.948717948719,4068.717948717949,4283.076923076924,4245.128205128206,4409.743589743591,4297.435897435898,1682.0,1685.0,1399.51,1286.105224609375,0.0,0.0,0.0,0.0
1397822,38.0,0.0,0.0,4303.076923076924,4154.871794871796,4311.282051282052,4812.820512820514,3852.820512820513,4225.128205128206,4236.410256410257,3934.8717948717954,4380.000000000001,4066.1538461538466,4283.589743589744,4242.051282051282,4401.025641025642,4294.358974358975,1681.0,1685.0,1399.517,1286.105224609375,0.0,0.0,0.0,0.0
