timestamp,cnt,inerpolated,raw_cq,af3,f7,f3,fc5,t7,p7,o1,o2,p8,t8,fc6,f4,f8,af4,gyrox,gyroy,epoc_timestamp,epoc_es_timestamp,func_id,func_value,marker,sync_signal
1780009,17.0,0.0,0.0,4455.8974358974365,4171.794871794872,4308.717948717949,4812.307692307693,4068.205128205129,4209.74358974359,4260.000000000001,4051.2820512820517,4374.358974358975,4047.692307692308,4262.051282051282,4305.128205128206,4342.564102564103,4345.128205128206,1687.0,1687.0,1781.671,1667.956787109375,0.0,0.0,0.0,0.0
1780009,18.0,0.0,0.0,4455.8974358974365,4172.820512820514,4307.6923076923085,4809.743589743591,4063.589743589744,4207.6923076923085,4251.794871794872,4042.0512820512827,4367.6923076923085,4049.7435897435903,4262.051282051282,4304.615384615385,4345.128205128206,4345.128205128206,1688.0,1686.0,1781.679,1667.956787109375,0.0,0.0,0.0,0.0
1780009,19.0,0.0,0.0,4456.923076923077,4177.948717948719,4308.717948717949,4813.333333333334,4062.564102564103,4211.282051282052,4251.794871794872,4043.589743589744,4374.871794871796,4057.435897435898,4262.564102564103,4310.769230769231,4353.846153846154,4349.2307692307695,1689.0,1687.0,1781.687,1667.956787109375,0.0,0.0,0.0,0.0
1780009,20.0,0.0,0.0,4455.384615384616,4173.846153846154,4304.102564102564,4814.871794871796,4060.5128205128212,4214.871794871796,4254.871794871796,4049.23076923077,4385.641025641026,4054.8717948717954,4262.051282051282,4311.282051282052,4349.743589743591,4349.2307692307695,1688.0,1685.0,1781.695,1667.956787109375,0.0,0.0,0.0,0.0
1780009,21.0,0.0,0.0,4453.846153846154,4169.74358974359,4301.538461538462,4806.666666666667,4053.8461538461543,4215.8974358974365,4252.820512820514,4045.6410256410263,4381.025641025642,4048.717948717949,4259.48717948718,4306.153846153847,4347.179487179487,4349.743589743591,1688.0,1685.0,1781.702,1667.956787109375,0.0,0.0,0.0,0.0
1780009,22.0,0.0,0.0,4457.435897435898,4176.923076923077,4307.179487179487,4813.846153846154,4050.2564102564106,4211.282051282052,4247.179487179487,4045.1282051282055,4369.743589743591,4052.820512820513,4261.538461538462,4308.205128205129,4357.948717948719,4355.8974358974365,1688.0,1682.0,1781.711,1667.956787109375,0.0,0.0,0.0,0.0
1780009,23.0,0.0,0.0,4462.051282051282,4182.051282051282,4313.333333333334,4812.820512820514,4051.2820512820517,4207.6923076923085,4249.2307692307695,4054.358974358975,4368.717948717949,4057.9487179487182,4261.538461538462,4310.769230769231,4365.641025641026,4360.000000000001,1687.0,1684.0,1781.718,1667.956787109375,0.0,0.0,0.0,0.0
1780010,24.0,0.0,0.0,4460.512820512821,4177.435897435898,4313.333333333334,4810.256410256411,4049.23076923077,4208.205128205129,4254.871794871796,4057.9487179487182,4375.8974358974365,4057.9487179487182,4258.974358974359,4309.2307692307695,4361.025641025642,4357.948717948719,1688.0,1684.0,1781.727,1667.956787109375,0.0,0.0,0.0,0.0
1780010,25.0,0.0,0.0,4461.538461538462,4173.846153846154,4314.358974358975,4812.307692307693,4045.1282051282055,4204.615384615385,4254.871794871796,4053.8461538461543,4380.000000000001,4062.564102564103,4258.461538461539,4310.769230769231,4363.076923076924,4357.948717948719,1687.0,1683.0,1781.734,1667.956787109375,0.0,0.0,0.0,0.0
1780010,26.0,0.0,0.0,4465.128205128206,4173.846153846154,4316.923076923077,4808.717948717949,4045.1282051282055,4203.076923076924,4256.923076923077,4051.2820512820517,4376.410256410257,4065.1282051282055,4260.000000000001,4312.820512820514,4368.205128205129,4361.025641025642,1688.0,1683.0,1781.742,1667.956787109375,0.0,0.0,0.0,0.0
1780011,27.0,0.0,0.0,4461.025641025642,4169.74358974359,4313.846153846154,4815.384615384616,4045.6410256410263,4206.153846153847,4259.48717948718,4045.6410256410263,4363.589743589744,4053.8461538461543,4264.102564102564,4309.2307692307695,4361.538461538462,4358.974358974359,1687.0,1683.0,1781.749,1667.956787109375,0.0,0.0,0.0,0.0
1780011,28.0,0.0,0.0,4460.000000000001,4169.74358974359,4315.384615384616,4812.307692307693,4043.076923076924,4206.153846153847,4259.48717948718,4035.8974358974365,4350.256410256411,4045.6410256410263,4262.051282051282,4306.666666666667,4357.948717948719,4353.333333333334,1686.0,1683.0,1781.758,1667.956787109375,0.0,0.0,0.0,0.0
1780142,29.0,0.0,0.0,4467.179487179487,4170.256410256411,4318.974358974359,4807.179487179488,4042.0512820512827,4204.102564102564,4261.025641025642,4032.307692307693,4349.2307692307695,4049.23076923077,4260.000000000001,4310.769230769231,4363.589743589744,4356.410256410257,1686.0,1682.0,1781.765,1668.0506591796875,0.0,0.0,0.0,0.0
1780142,30.0,0.0,0.0,4471.794871794872,4168.205128205129,4317.948717948719,4812.820512820514,4040.5128205128212,4205.128205128206,4263.076923076924,4035.3846153846157,4356.923076923077,4050.2564102564106,4261.538461538462,4313.846153846154,4365.128205128206,4364.615384615385,1687.0,1682.0,1781.773,1668.0506591796875,0.0,0.0,0.0,0.0
1780143,31.0,0.0,0.0,4465.128205128206,4168.205128205129,4316.410256410257,4809.743589743591,4037.435897435898,4209.2307692307695,4264.102564102564,4039.48717948718,4363.589743589744,4049.23076923077,4261.538461538462,4312.307692307693,4359.48717948718,4360.512820512821,1687.0,1681.0,1781.78,1668.0506591796875,0.0,0.0,0.0,0.0
1780143,32.0,0.0,0.0,4460.000000000001,4164.615384615385,4315.8974358974365,4812.307692307693,4036.410256410257,4210.769230769231,4264.102564102564,4044.1025641025644,4366.153846153847,4049.7435897435903,4263.076923076924,4314.871794871796,4355.8974358974365,4355.8974358974365,1686.0,1683.0,1781.788,1668.0506591796875,0.0,0.0,0.0,0.0
1780144,33.0,0.0,0.0,4467.6923076923085,4162.564102564103,4318.461538461539,4811.794871794872,4036.410256410257,4214.871794871796,4268.205128205129,4052.820512820513,4371.794871794872,4054.8717948717954,4263.076923076924,4315.8974358974365,4358.461538461539,4366.666666666667,1685.0,1683.0,1781.796,1668.0506591796875,0.0,0.0,0.0,0.0
1780144,34.0,0.0,0.0,4480.512820512821,4169.74358974359,4326.153846153847,4807.179487179488,4038.9743589743593,4218.974358974359,4273.846153846154,4060.0000000000005,4382.564102564103,4066.666666666667,4262.051282051282,4316.923076923077,4367.179487179487,4379.48717948718,1685.0,1684.0,1781.804,1668.0506591796875,0.0,0.0,0.0,0.0
1780144,35.0,0.0,0.0,4488.205128205129,4176.923076923077,4334.871794871796,4809.743589743591,4044.1025641025644,4217.948717948719,4273.846153846154,4062.564102564103,4386.666666666667,4076.410256410257,4263.076923076924,4323.076923076924,4378.974358974359,4380.000000000001,1684.0,1684.0,1781.812,1668.0506591796875,0.0,0.0,0.0,0.0
1780144,36.0,0.0,0.0,4486.666666666667,4174.358974358975,4335.384615384616,4807.179487179488,4041.0256410256416,4218.461538461539,4271.794871794872,4061.0256410256416,4382.564102564103,4076.9230769230776,4262.564102564103,4322.051282051282,4383.076923076924,4373.846153846154,1684.0,1685.0,1781.82,1668.0506591796875,0.0,0.0,0.0,0.0
1780144,37.0,0.0,0.0,4475.8974358974365,4167.6923076923085,4326.666666666667,4813.846153846154,4034.358974358975,4220.512820512821,4271.794871794872,4061.0256410256416,4381.538461538462,4071.2820512820517,4263.076923076924,4315.8974358974365,4374.358974358975,4366.666666666667,1683.0,1685.0,1781.828,1668.0506591796875,0.0,0.0,0.0,0.0
1780144,38.0,0.0,0.0,4470.256410256411,4165.641025641026,4319.48717948718,4816.923076923077,4034.8717948717954,4217.435897435898,4270.256410256411,4061.538461538462,4383.589743589744,4065.1282051282055,4264.102564102564,4313.333333333334,4364.615384615385,4362.564102564103,1682.0,1686.0,1781.835,1668.0506591796875,0.0,0.0,0.0,0.0
1780144,39.0,0.0,0.0,4473.846153846154,4165.641025641026,4322.564102564103,4810.769230769231,4034.8717948717954,4212.820512820514,4265.128205128206,4056.9230769230776,4372.820512820514,4056.9230769230776,4263.589743589744,4313.333333333334,4362.564102564103,4357.435897435898,1681.0,1686.0,1781.844,1668.0506591796875,0.0,0.0,0.0,0.0
1780144,40.0,0.0,0.0,4475.384615384616,4162.051282051282,4326.666666666667,4814.358974358975,4029.7435897435903,4214.358974358975,4265.641025641026,4052.307692307693,4358.461538461539,4047.692307692308,4262.051282051282,4316.410256410257,4361.538461538462,4354.871794871796,1679.0,1687.0,1781.851,1668.0506591796875,0.0,0.0,0.0,0.0
1780145,41.0,0.0,0.0,4474.871794871796,4159.48717948718,4324.615384615385,4808.717948717949,4028.717948717949,4219.48717948718,4272.820512820514,4056.410256410257,4364.615384615385,4049.7435897435903,4260.000000000001,4317.948717948719,4364.615384615385,4363.589743589744,1678.0,1684.0,1781.86,1668.0506591796875,0.0,0.0,0.0,0.0
1780145,42.0,0.0,0.0,4474.358974358975,4160.000000000001,4321.025641025642,4809.2307692307695,4028.717948717949,4220.000000000001,4270.769230769231,4061.0256410256416,4375.8974358974365,4056.9230769230776,4265.128205128206,4314.871794871796,4369.2307692307695,4368.205128205129,1676.0,1685.0,1781.866,1668.0506591796875,0.0,0.0,0.0,0.0
1780145,43.0,0.0,0.0,4475.384615384616,4163.076923076924,4322.051282051282,4811.794871794872,4023.076923076924,4222.051282051282,4267.179487179487,4061.538461538462,4378.974358974359,4062.0512820512827,4264.102564102564,4313.846153846154,4373.333333333334,4365.641025641026,1677.0,1683.0,1781.875,1668.0506591796875,0.0,0.0,0.0,0.0
1780145,44.0,0.0,0.0,4480.000000000001,4164.102564102564,4325.641025641026,4806.153846153847,4022.0512820512827,4226.153846153847,4273.846153846154,4065.6410256410263,4382.051282051282,4066.666666666667,4257.948717948719,4316.923076923077,4379.48717948718,4370.256410256411,1676.0,1681.0,1781.882,1668.0506591796875,0.0,0.0,0.0,0.0
1780263,45.0,0.0,0.0,4484.615384615385,4163.076923076924,4325.128205128206,4813.333333333334,4024.615384615385,4222.051282051282,4270.769230769231,4062.0512820512827,4378.974358974359,4064.615384615385,4261.538461538462,4318.461538461539,4378.461538461539,4376.410256410257,1676.0,1681.0,1781.891,1668.17578125,0.0,0.0,0.0,0.0
1780263,46.0,0.0,0.0,4487.6923076923085,4167.6923076923085,4323.076923076924,4810.769230769231,4018.461538461539,4214.871794871796,4257.948717948719,4053.333333333334,4372.820512820514,4064.1025641025644,4260.512820512821,4314.871794871796,4377.948717948719,4376.410256410257,1677.0,1681.0,1781.898,1668.17578125,0.0,0.0,0.0,0.0
1780263,47.0,0.0,0.0,4487.179487179488,4167.179487179487,4326.666666666667,4810.256410256411,4012.307692307693,4213.846153846154,4259.48717948718,4055.3846153846157,4371.794871794872,4069.23076923077,4258.461538461539,4317.435897435898,4382.564102564103,4375.8974358974365,1677.0,1682.0,1781.906,1668.17578125,0.0,0.0,0.0,0.0
1780264,48.0,0.0,0.0,4488.717948717949,4161.538461538462,4332.307692307693,4814.358974358975,4019.48717948718,4215.384615384616,4268.717948717949,4064.615384615385,4376.923076923077,4071.7948717948725,4264.102564102564,4323.076923076924,4383.076923076924,4384.102564102564,1676.0,1682.0,1781.914,1668.17578125,0.0,0.0,0.0,0.0
1780264,49.0,0.0,0.0,4501.538461538462,4171.282051282052,4336.923076923077,4808.205128205129,4020.5128205128212,4210.256410256411,4264.615384615385,4068.717948717949,4380.000000000001,4068.205128205129,4263.076923076924,4320.000000000001,4383.076923076924,4391.282051282052,1677.0,1683.0,1781.921,1668.17578125,0.0,0.0,0.0,0.0
1780264,50.0,0.0,0.0,4512.820512820514,4189.74358974359,4342.564102564103,4814.358974358975,4013.333333333334,4203.589743589744,4254.871794871796,4072.820512820513,4375.384615384616,4065.6410256410263,4262.564102564103,4316.923076923077,4389.743589743591,4394.871794871796,1677.0,1682.0,1781.929,1668.17578125,0.0,0.0,0.0,0.0
1780264,51.0,0.0,0.0,4514.358974358975,4197.435897435898,4349.743589743591,4814.871794871796,4017.9487179487182,4211.282051282052,4258.974358974359,4075.8974358974365,4372.307692307693,4069.23076923077,4263.589743589744,4319.48717948718,4394.871794871796,4399.48717948718,1677.0,1683.0,1781.937,1668.17578125,0.0,0.0,0.0,0.0
1780264,52.0,0.0,0.0,4511.794871794872,4190.256410256411,4348.717948717949,4811.794871794872,4024.615384615385,4221.538461538462,4265.641025641026,4073.8461538461543,4377.435897435898,4070.2564102564106,4263.076923076924,4320.000000000001,4385.128205128206,4397.948717948719,1678.0,1682.0,1781.945,1668.17578125,0.0,0.0,0.0,0.0
1780265,53.0,0.0,0.0,4505.128205128206,4175.384615384616,4336.410256410257,4814.871794871796,4015.8974358974365,4217.435897435898,4260.512820512821,4074.358974358975,4374.358974358975,4056.9230769230776,4261.538461538462,4313.333333333334,4365.128205128206,4383.076923076924,1678.0,1682.0,1781.952,1668.17578125,0.0,0.0,0.0,0.0
1780265,54.0,0.0,0.0,4487.179487179488,4164.615384615385,4323.076923076924,4808.717948717949,4008.717948717949,4217.948717948719,4254.871794871796,4045.6410256410263,4354.871794871796,4037.9487179487182,4258.974358974359,4302.051282051282,4351.282051282052,4363.076923076924,1679.0,1680.0,1781.961,1668.17578125,0.0,0.0,0.0,0.0
1780265,55.0,0.0,0.0,4475.384615384616,4162.051282051282,4318.974358974359,4813.333333333334,4010.7692307692314,4221.538461538462,4255.8974358974365,3979.48717948718,4342.564102564103,4033.8461538461543,4263.076923076924,4303.076923076924,4349.2307692307695,4354.358974358975,1679.0,1680.0,1781.968,1668.17578125,0.0,0.0,0.0,0.0
1780265,56.0,0.0,0.0,4482.051282051282,4164.102564102564,4326.666666666667,4814.871794871796,4008.205128205129,4216.923076923077,4257.948717948719,3937.9487179487182,4350.769230769231,4044.615384615385,4266.153846153847,4312.820512820514,4357.435897435898,4363.076923076924,1680.0,1681.0,1781.976,1668.17578125,0.0,0.0,0.0,0.0
1780265,57.0,0.0,0.0,4490.256410256411,4164.615384615385,4331.794871794872,4810.769230769231,4006.666666666667,4213.333333333334,4260.512820512821,3949.7435897435903,4372.307692307693,4056.9230769230776,4263.076923076924,4317.435897435898,4366.666666666667,4375.8974358974365,1682.0,1680.0,1781.984,1668.17578125,0.0,0.0,0.0,0.0
1780266,58.0,0.0,0.0,4493.333333333334,4166.666666666667,4331.282051282052,4815.8974358974365,4008.717948717949,4212.307692307693,4259.48717948718,3964.1025641025644,4388.717948717949,4066.1538461538466,4262.564102564103,4321.025641025642,4371.794871794872,4382.564102564103,1682.0,1680.0,1781.993,1668.17578125,0.0,0.0,0.0,0.0
1780266,59.0,0.0,0.0,4501.538461538462,4172.820512820514,4337.948717948719,4812.307692307693,4007.1794871794878,4208.205128205129,4259.48717948718,3956.410256410257,4386.666666666667,4071.7948717948725,4261.538461538462,4325.128205128206,4376.923076923077,4384.102564102564,1682.0,1680.0,1781.999,1668.17578125,0.0,0.0,0.0,0.0
1780266,60.0,0.0,0.0,4507.179487179488,4176.923076923077,4344.615384615385,4813.333333333334,4005.1282051282055,4205.128205128206,4260.000000000001,3951.7948717948725,4377.948717948719,4075.3846153846157,4262.564102564103,4326.153846153847,4379.48717948718,4387.6923076923085,1683.0,1681.0,1782.008,1668.17578125,0.0,0.0,0.0,0.0
1780386,61.0,0.0,0.0,4498.461538461539,4171.794871794872,4339.48717948718,4812.307692307693,4005.6410256410263,4210.256410256411,4256.923076923077,3963.076923076924,4381.025641025642,4076.410256410257,4262.564102564103,4321.538461538462,4378.461538461539,4390.256410256411,1684.0,1683.0,1782.015,1668.3009033203125,0.0,0.0,0.0,0.0
1780386,62.0,0.0,0.0,4493.846153846154,4166.153846153847,4331.794871794872,4807.6923076923085,4002.564102564103,4218.461538461539,4256.410256410257,3975.8974358974365,4383.589743589744,4070.7692307692314,4261.025641025642,4316.923076923077,4376.923076923077,4385.128205128206,1683.0,1685.0,1782.024,1668.3009033203125,0.0,0.0,0.0,0.0
1780386,63.0,0.0,0.0,4503.076923076924,4169.2307692307695,4333.333333333334,4813.333333333334,3998.9743589743593,4219.48717948718,4258.461538461539,3966.666666666667,4376.923076923077,4061.538461538462,4261.025641025642,4317.435897435898,4376.923076923077,4382.564102564103,1684.0,1685.0,1782.031,1668.3009033203125,0.0,0.0,0.0,0.0
1780387,64.0,0.0,514.0,4504.102564102564,4173.846153846154,4337.435897435898,4810.769230769231,3996.410256410257,4214.358974358975,4261.025641025642,3960.0000000000005,4376.923076923077,4061.538461538462,4260.512820512821,4314.871794871796,4375.8974358974365,4385.128205128206,1683.0,1687.0,1782.038,1668.3009033203125,0.0,0.0,0.0,0.0
1780387,65.0,0.0,0.0,4494.871794871796,4169.2307692307695,4333.333333333334,4812.820512820514,3991.7948717948725,4210.769230769231,4257.435897435898,3969.7435897435903,4373.333333333334,4059.48717948718,4261.538461538462,4310.769230769231,4370.769230769231,4378.461538461539,1684.0,1688.0,1782.046,1668.3009033203125,0.0,0.0,0.0,0.0
1780387,66.0,0.0,512.0,4496.410256410257,4171.794871794872,4331.282051282052,4816.410256410257,3993.8461538461543,4216.923076923077,4255.384615384616,3967.692307692308,4366.666666666667,4057.435897435898,4261.538461538462,4312.820512820514,4370.769230769231,4376.410256410257,1682.0,1688.0,1782.054,1668.3009033203125,0.0,0.0,0.0,0.0
1780387,67.0,0.0,532.0,4499.48717948718,4178.974358974359,4335.384615384616,4810.769230769231,3999.48717948718,4224.102564102564,4260.000000000001,3965.1282051282055,4375.8974358974365,4062.0512820512827,4261.538461538462,4313.846153846154,4375.8974358974365,4382.564102564103,1682.0,1689.0,1782.062,1668.3009033203125,0.0,0.0,0.0,0.0
1780387,68.0,0.0,505.0,4489.743589743591,4169.74358974359,4330.769230769231,4814.358974358975,3996.410256410257,4220.512820512821,4262.051282051282,3971.2820512820517,4379.48717948718,4061.538461538462,4262.564102564103,4312.307692307693,4370.256410256411,4376.410256410257,1681.0,1687.0,1782.07,1668.3009033203125,0.0,0.0,0.0,0.0
1780387,69.0,0.0,554.0,4484.615384615385,4161.025641025642,4320.512820512821,4810.769230769231,3991.2820512820517,4219.48717948718,4261.025641025642,3969.2307692307695,4369.743589743591,4056.9230769230776,4260.512820512821,4308.717948717949,4360.000000000001,4365.128205128206,1680.0,1688.0,1782.078,1668.3009033203125,0.0,0.0,0.0,0.0
1780387,70.0,0.0,550.0,4486.666666666667,4166.153846153847,4319.48717948718,4811.282051282052,3992.820512820513,4224.102564102564,4262.051282051282,3969.7435897435903,4370.769230769231,4058.9743589743593,4262.564102564103,4308.205128205129,4360.000000000001,4366.666666666667,1680.0,1686.0,1782.085,1668.3009033203125,0.0,0.0,0.0,0.0
1780388,71.0,0.0,384.0,4487.179487179488,4168.717948717949,4324.102564102564,4814.358974358975,3992.820512820513,4221.538461538462,4261.538461538462,3978.461538461539,4381.025641025642,4064.1025641025644,4263.076923076924,4312.307692307693,4363.589743589744,4370.769230769231,1679.0,1685.0,1782.094,1668.3009033203125,0.0,0.0,0.0,0.0
1780388,72.0,0.0,460.0,4487.179487179488,4164.615384615385,4324.102564102564,4807.6923076923085,3987.692307692308,4215.8974358974365,4258.461538461539,3981.538461538462,4386.153846153847,4064.1025641025644,4258.461538461539,4310.769230769231,4362.564102564103,4367.6923076923085,1680.0,1685.0,1782.101,1668.3009033203125,0.0,0.0,0.0,0.0
1780388,73.0,0.0,479.0,4488.205128205129,4161.538461538462,4325.128205128206,4815.384615384616,3991.2820512820517,4215.8974358974365,4260.000000000001,3980.0000000000005,4377.948717948719,4061.538461538462,4262.564102564103,4308.717948717949,4358.974358974359,4367.6923076923085,1679.0,1685.0,1782.11,1668.3009033203125,0.0,0.0,0.0,0.0
1780388,74.0,0.0,494.0,4491.794871794872,4164.615384615385,4328.717948717949,4815.384615384616,3996.9230769230776,4222.051282051282,4266.153846153847,3983.076923076924,4366.153846153847,4058.461538461539,4264.102564102564,4310.769230769231,4359.48717948718,4369.2307692307695,1680.0,1686.0,1782.117,1668.3009033203125,0.0,0.0,0.0,0.0
1780388,75.0,0.0,491.0,4496.923076923077,4170.256410256411,4330.256410256411,4810.256410256411,3994.358974358975,4222.051282051282,4266.153846153847,3986.1538461538466,4368.205128205129,4058.461538461539,4260.512820512821,4312.307692307693,4362.051282051282,4368.717948717949,1679.0,1687.0,1782.125,1668.3009033203125,0.0,0.0,0.0,0.0
1780388,76.0,0.0,0.0,4501.025641025642,4172.307692307693,4330.769230769231,4812.820512820514,3993.8461538461543,4216.923076923077,4264.102564102564,3989.7435897435903,4381.025641025642,4064.1025641025644,4259.48717948718,4312.307692307693,4366.666666666667,4371.282051282052,1681.0,1688.0,1782.132,1668.3009033203125,0.0,0.0,0.0,0.0
1780421,77.0,0.0,333.0,4500.512820512821,4169.2307692307695,4332.820512820514,4806.153846153847,3992.820512820513,4216.410256410257,4264.102564102564,3991.2820512820517,4381.538461538462,4066.1538461538466,4257.948717948719,4310.256410256411,4370.256410256411,4372.820512820514,1680.0,1688.0,1782.141,1668.426025390625,0.0,0.0,0.0,0.0
1780421,78.0,0.0,494.0,4496.410256410257,4163.589743589744,4330.769230769231,4811.282051282052,3985.6410256410263,4215.8974358974365,4260.000000000001,3981.538461538462,4364.615384615385,4056.410256410257,4261.538461538462,4309.2307692307695,4363.589743589744,4370.769230769231,1680.0,1688.0,1782.148,1668.426025390625,0.0,0.0,0.0,0.0
1780421,79.0,0.0,491.0,4496.923076923077,4162.564102564103,4329.2307692307695,4814.871794871796,3978.9743589743593,4214.358974358975,4259.48717948718,3971.7948717948725,4357.948717948719,4049.23076923077,4261.538461538462,4308.205128205129,4359.48717948718,4370.769230769231,1681.0,1687.0,1782.156,1668.426025390625,0.0,0.0,0.0,0.0
1780421,80.0,0.0,0.0,4500.512820512821,4163.589743589744,4328.205128205129,4809.743589743591,3976.9230769230776,4213.846153846154,4265.641025641026,3970.7692307692314,4370.769230769231,4054.8717948717954,4259.48717948718,4309.2307692307695,4366.153846153847,4369.2307692307695,1680.0,1690.0,1782.164,1668.426025390625,0.0,0.0,0.0,0.0
1780509,81.0,0.0,333.0,4498.461538461539,4161.538461538462,4325.641025641026,4813.846153846154,3974.8717948717954,4211.794871794872,4267.179487179487,3975.8974358974365,4374.871794871796,4057.9487179487182,4260.000000000001,4311.794871794872,4369.2307692307695,4368.205128205129,1681.0,1690.0,1782.171,1668.457275390625,0.0,0.0,0.0,0.0
1780509,82.0,0.0,494.0,4495.384615384616,4161.538461538462,4326.153846153847,4812.307692307693,3973.333333333334,4211.282051282052,4265.128205128206,3982.564102564103,4366.153846153847,4058.461538461539,4260.000000000001,4312.307692307693,4369.2307692307695,4373.846153846154,1680.0,1690.0,1782.179,1668.457275390625,0.0,0.0,0.0,0.0
1780509,83.0,0.0,491.0,4494.871794871796,4162.051282051282,4328.717948717949,4814.358974358975,3972.820512820513,4212.820512820514,4262.051282051282,3986.1538461538466,4364.615384615385,4057.435897435898,4262.051282051282,4314.358974358975,4371.282051282052,4377.948717948719,1681.0,1690.0,1782.187,1668.457275390625,0.0,0.0,0.0,0.0
1780509,84.0,0.0,0.0,4494.871794871796,4161.538461538462,4328.717948717949,4813.333333333334,3970.2564102564106,4214.358974358975,4256.923076923077,3986.666666666667,4374.871794871796,4055.3846153846157,4262.564102564103,4315.384615384616,4371.794871794872,4377.948717948719,1680.0,1688.0,1782.195,1668.457275390625,0.0,0.0,0.0,0.0
1780509,85.0,0.0,333.0,4498.461538461539,4165.128205128206,4331.794871794872,4810.769230769231,3968.717948717949,4214.871794871796,4255.384615384616,3982.564102564103,4379.48717948718,4058.9743589743593,4261.025641025642,4314.358974358975,4374.871794871796,4383.076923076924,1680.0,1687.0,1782.203,1668.457275390625,0.0,0.0,0.0,0.0
1780509,86.0,0.0,494.0,4505.641025641026,4169.2307692307695,4332.307692307693,4816.923076923077,3966.666666666667,4212.820512820514,4254.358974358975,3977.9487179487182,4373.333333333334,4063.589743589744,4261.538461538462,4313.333333333334,4381.025641025642,4389.2307692307695,1679.0,1686.0,1782.212,1668.457275390625,0.0,0.0,0.0,0.0
1780509,87.0,0.0,491.0,4504.615384615385,4168.205128205129,4328.717948717949,4811.794871794872,3960.5128205128212,4206.666666666667,4250.256410256411,3976.9230769230776,4371.282051282052,4062.564102564103,4260.512820512821,4310.256410256411,4382.051282051282,4388.205128205129,1679.0,1684.0,1782.218,1668.457275390625,0.0,0.0,0.0,0.0
1780510,88.0,0.0,0.0,4501.025641025642,4167.6923076923085,4327.6923076923085,4812.820512820514,3954.8717948717954,4199.48717948718,4246.153846153847,3974.358974358975,4372.307692307693,4060.0000000000005,4262.051282051282,4310.769230769231,4377.948717948719,4386.153846153847,1677.0,1684.0,1782.227,1668.457275390625,0.0,0.0,0.0,0.0
1780510,89.0,0.0,333.0,4502.564102564103,4169.74358974359,4326.666666666667,4815.384615384616,3952.307692307693,4200.000000000001,4246.666666666667,3972.307692307693,4375.384615384616,4064.1025641025644,4262.564102564103,4312.820512820514,4378.461538461539,4383.589743589744,1678.0,1683.0,1782.234,1668.457275390625,0.0,0.0,0.0,0.0
1780510,90.0,0.0,494.0,4500.512820512821,4166.666666666667,4324.102564102564,4808.205128205129,3953.333333333334,4203.589743589744,4247.6923076923085,3973.8461538461543,4377.948717948719,4063.076923076924,4260.000000000001,4311.794871794872,4377.435897435898,4375.384615384616,1676.0,1684.0,1782.243,1668.457275390625,0.0,0.0,0.0,0.0
1780511,91.0,0.0,491.0,4495.8974358974365,4156.923076923077,4318.461538461539,4814.871794871796,3948.205128205129,4201.538461538462,4243.589743589744,3972.820512820513,4369.743589743591,4049.23076923077,4263.076923076924,4310.769230769231,4366.153846153847,4368.205128205129,1676.0,1684.0,1782.25,1668.457275390625,0.0,0.0,0.0,0.0
1780511,92.0,0.0,0.0,4492.820512820514,4151.282051282052,4310.256410256411,4813.333333333334,3939.48717948718,4206.666666666667,4240.512820512821,3973.8461538461543,4362.051282051282,4037.9487179487182,4263.589743589744,4304.615384615385,4359.48717948718,4366.666666666667,1676.0,1686.0,1782.258,1668.457275390625,0.0,0.0,0.0,0.0
1780643,93.0,0.0,333.0,4489.743589743591,4150.256410256411,4305.128205128206,4810.769230769231,3938.9743589743593,4214.871794871796,4237.948717948719,3983.589743589744,4363.076923076924,4038.461538461539,4261.025641025642,4299.48717948718,4360.000000000001,4363.076923076924,1677.0,1686.0,1782.265,1668.5511474609375,0.0,0.0,0.0,0.0
1780643,94.0,0.0,494.0,4486.666666666667,4148.717948717949,4307.6923076923085,4813.333333333334,3941.0256410256416,4211.794871794872,4234.871794871796,3991.2820512820517,4363.076923076924,4041.0256410256416,4261.538461538462,4303.589743589744,4356.410256410257,4356.410256410257,1675.0,1688.0,1782.273,1668.5511474609375,0.0,0.0,0.0,0.0
1780643,95.0,0.0,491.0,4486.153846153847,4149.2307692307695,4309.2307692307695,4810.256410256411,3938.9743589743593,4205.641025641026,4238.461538461539,3996.410256410257,4365.128205128206,4045.6410256410263,4262.564102564103,4309.2307692307695,4357.948717948719,4358.974358974359,1676.0,1689.0,1782.281,1668.5511474609375,0.0,0.0,0.0,0.0
1780644,96.0,0.0,0.0,4485.641025641026,4151.794871794872,4307.6923076923085,4817.948717948719,3937.9487179487182,4204.615384615385,4244.102564102564,4001.538461538462,4375.384615384616,4053.8461538461543,4263.589743589744,4314.871794871796,4368.205128205129,4370.769230769231,1675.0,1688.0,1782.289,1668.5511474609375,0.0,0.0,0.0,0.0
1780644,97.0,0.0,333.0,4485.128205128206,4152.820512820514,4313.333333333334,4816.410256410257,3937.9487179487182,4207.6923076923085,4248.205128205129,4001.538461538462,4381.538461538462,4057.435897435898,4262.564102564103,4315.384615384616,4372.307692307693,4376.923076923077,1675.0,1688.0,1782.297,1668.5511474609375,0.0,0.0,0.0,0.0
1780645,98.0,0.0,494.0,4486.666666666667,4152.307692307693,4319.48717948718,4811.794871794872,3937.9487179487182,4209.74358974359,4250.256410256411,3999.48717948718,4376.410256410257,4057.435897435898,4262.564102564103,4312.820512820514,4368.717948717949,4373.846153846154,1675.0,1685.0,1782.304,1668.5511474609375,0.0,0.0,0.0,0.0
1780645,99.0,0.0,491.0,4490.256410256411,4154.358974358975,4321.538461538462,4813.846153846154,3940.5128205128212,4211.794871794872,4252.820512820514,4004.615384615385,4377.948717948719,4061.0256410256416,4263.076923076924,4314.871794871796,4370.769230769231,4372.820512820514,1674.0,1685.0,1782.312,1668.5511474609375,0.0,0.0,0.0,0.0
1780645,100.0,0.0,0.0,4493.846153846154,4158.461538461539,4325.641025641026,4807.179487179488,3945.6410256410263,4220.000000000001,4258.974358974359,4017.435897435898,4393.846153846154,4067.692307692308,4262.051282051282,4317.948717948719,4376.923076923077,4376.410256410257,1675.0,1682.0,1782.321,1668.5511474609375,0.0,0.0,0.0,0.0
1780645,101.0,0.0,333.0,4490.256410256411,4156.923076923077,4324.102564102564,4814.358974358975,3945.6410256410263,4221.025641025642,4256.410256410257,4010.7692307692314,4392.307692307693,4065.1282051282055,4263.589743589744,4317.435897435898,4376.410256410257,4377.948717948719,1673.0,1682.0,1782.328,1668.5511474609375,0.0,0.0,0.0,0.0
1780646,102.0,0.0,494.0,4490.769230769231,4158.974358974359,4321.538461538462,4815.384615384616,3945.6410256410263,4209.74358974359,4244.615384615385,3993.8461538461543,4375.384615384616,4058.461538461539,4260.512820512821,4316.410256410257,4376.923076923077,4378.974358974359,1672.0,1682.0,1782.336,1668.5511474609375,0.0,0.0,0.0,0.0
1780646,103.0,0.0,491.0,4501.025641025642,4170.256410256411,4328.205128205129,4806.153846153847,3947.692307692308,4200.000000000001,4240.000000000001,3997.435897435898,4375.8974358974365,4063.076923076924,4260.512820512821,4318.461538461539,4382.051282051282,4379.48717948718,1670.0,1682.0,1782.344,1668.5511474609375,0.0,0.0,0.0,0.0
1780646,104.0,0.0,0.0,4507.6923076923085,4173.333333333334,4333.846153846154,4811.282051282052,3952.307692307693,4201.538461538462,4244.615384615385,4004.1025641025644,4380.000000000001,4067.1794871794878,4264.102564102564,4319.48717948718,4383.589743589744,4377.435897435898,1670.0,1682.0,1782.351,1668.5511474609375,0.0,0.0,0.0,0.0
1780646,105.0,0.0,333.0,4507.179487179488,4171.282051282052,4332.307692307693,4810.256410256411,3954.358974358975,4207.6923076923085,4249.2307692307695,3998.9743589743593,4368.205128205129,4061.0256410256416,4257.435897435898,4315.8974358974365,4382.051282051282,4377.948717948719,1669.0,1683.0,1782.36,1668.5511474609375,0.0,0.0,0.0,0.0
1780647,106.0,0.0,494.0,4505.641025641026,4171.282051282052,4331.794871794872,4812.820512820514,3954.358974358975,4207.6923076923085,4251.282051282052,3997.9487179487182,4364.102564102564,4057.9487179487182,4256.923076923077,4316.410256410257,4379.48717948718,4380.000000000001,1669.0,1683.0,1782.367,1668.5511474609375,0.0,0.0,0.0,0.0
1780647,107.0,0.0,491.0,4502.564102564103,4170.256410256411,4329.743589743591,4812.820512820514,3954.358974358975,4206.666666666667,4252.820512820514,4001.538461538462,4374.871794871796,4058.461538461539,4261.538461538462,4316.923076923077,4375.384615384616,4373.846153846154,1669.0,1683.0,1782.376,1668.5511474609375,0.0,0.0,0.0,0.0
1780647,108.0,0.0,0.0,4497.435897435898,4162.564102564103,4320.000000000001,4808.205128205129,3951.2820512820517,4208.717948717949,4251.282051282052,3997.9487179487182,4374.358974358975,4051.7948717948725,4260.000000000001,4310.256410256411,4370.769230769231,4364.102564102564,1671.0,1686.0,1782.383,1668.5511474609375,0.0,0.0,0.0,0.0
1780757,109.0,0.0,333.0,4498.974358974359,4155.384615384616,4314.871794871796,4814.871794871796,3949.2307692307695,4209.74358974359,4249.74358974359,4001.0256410256416,4371.794871794872,4052.820512820513,4259.48717948718,4308.205128205129,4367.179487179487,4363.589743589744,1673.0,1686.0,1782.391,1668.67626953125,0.0,0.0,0.0,0.0
1780757,110.0,0.0,494.0,4504.615384615385,4157.948717948719,4324.102564102564,4813.846153846154,3952.820512820513,4212.820512820514,4256.410256410257,4012.820512820513,4383.589743589744,4064.615384615385,4258.974358974359,4312.307692307693,4369.2307692307695,4369.2307692307695,1674.0,1688.0,1782.399,1668.67626953125,0.0,0.0,0.0,0.0
1780757,111.0,0.0,491.0,4502.564102564103,4160.000000000001,4327.6923076923085,4812.820512820514,3953.333333333334,4212.307692307693,4258.974358974359,4012.820512820513,4380.512820512821,4061.0256410256416,4260.000000000001,4313.333333333334,4370.256410256411,4369.743589743591,1677.0,1687.0,1782.406,1668.67626953125,0.0,0.0,0.0,0.0
1780757,112.0,0.0,0.0,4502.564102564103,4160.512820512821,4323.589743589744,4813.333333333334,3951.2820512820517,4209.2307692307695,4257.948717948719,4011.7948717948725,4367.179487179487,4052.307692307693,4261.538461538462,4312.820512820514,4369.743589743591,4372.820512820514,1677.0,1688.0,1782.414,1668.67626953125,0.0,0.0,0.0,0.0
1780757,113.0,0.0,333.0,4510.256410256411,4169.2307692307695,4331.282051282052,4810.769230769231,3956.410256410257,4214.871794871796,4262.051282051282,4017.9487179487182,4377.948717948719,4064.1025641025644,4260.000000000001,4317.948717948719,4380.000000000001,4382.051282051282,1679.0,1688.0,1782.422,1668.67626953125,0.0,0.0,0.0,0.0
1780757,114.0,0.0,494.0,4510.769230769231,4176.923076923077,4341.538461538462,4816.410256410257,3964.1025641025644,4219.48717948718,4264.102564102564,4020.0000000000005,4394.871794871796,4075.8974358974365,4260.512820512821,4321.538461538462,4388.717948717949,4387.6923076923085,1680.0,1687.0,1782.429,1668.67626953125,0.0,0.0,0.0,0.0
1780757,115.0,0.0,491.0,4501.538461538462,4171.794871794872,4338.461538461539,4812.820512820514,3962.564102564103,4218.974358974359,4262.564102564103,4023.076923076924,4391.794871794872,4070.2564102564106,4261.025641025642,4316.410256410257,4385.128205128206,4386.153846153847,1680.0,1687.0,1782.437,1668.67626953125,0.0,0.0,0.0,0.0
1780758,116.0,0.0,0.0,4494.358974358975,4161.538461538462,4329.2307692307695,4812.820512820514,3960.0000000000005,4217.948717948719,4263.076923076924,4025.1282051282055,4387.6923076923085,4064.615384615385,4262.051282051282,4316.923076923077,4375.8974358974365,4384.102564102564,1680.0,1687.0,1782.445,1668.67626953125,0.0,0.0,0.0,0.0
1780758,117.0,0.0,333.0,4494.358974358975,4157.948717948719,4327.179487179487,4815.384615384616,3964.1025641025644,4213.846153846154,4261.538461538462,4018.9743589743593,4392.820512820514,4066.1538461538466,4262.051282051282,4319.48717948718,4372.307692307693,4385.128205128206,1681.0,1686.0,1782.453,1668.67626953125,0.0,0.0,0.0,0.0
1780758,118.0,0.0,494.0,4496.410256410257,4161.025641025642,4331.282051282052,4808.205128205129,3967.692307692308,4211.794871794872,4262.051282051282,4020.5128205128212,4397.435897435898,4071.7948717948725,4260.000000000001,4318.461538461539,4379.48717948718,4388.717948717949,1682.0,1685.0,1782.462,1668.67626953125,0.0,0.0,0.0,0.0
1780758,119.0,0.0,491.0,4499.48717948718,4163.076923076924,4335.384615384616,4814.358974358975,3970.2564102564106,4214.871794871796,4270.256410256411,4033.8461538461543,4400.000000000001,4080.5128205128212,4262.564102564103,4323.076923076924,4387.179487179487,4394.871794871796,1682.0,1685.0,1782.469,1668.67626953125,0.0,0.0,0.0,0.0
1780758,120.0,0.0,0.0,4504.102564102564,4162.564102564103,4338.974358974359,4814.358974358975,3974.358974358975,4224.102564102564,4278.461538461539,4031.2820512820517,4395.8974358974365,4083.589743589744,4263.589743589744,4324.615384615385,4389.2307692307695,4397.948717948719,1683.0,1684.0,1782.477,1668.67626953125,0.0,0.0,0.0,0.0
1780758,121.0,0.0,333.0,4506.666666666667,4161.025641025642,4337.948717948719,4811.794871794872,3977.9487179487182,4230.769230769231,4275.8974358974365,4015.3846153846157,4385.128205128206,4074.358974358975,4261.538461538462,4320.512820512821,4384.615384615385,4394.871794871796,1681.0,1685.0,1782.484,1668.67626953125,0.0,0.0,0.0,0.0
1780758,122.0,0.0,494.0,4503.076923076924,4160.512820512821,4334.871794871796,4816.923076923077,3975.8974358974365,4226.153846153847,4267.179487179487,4018.9743589743593,4380.512820512821,4067.692307692308,4262.051282051282,4316.923076923077,4381.025641025642,4390.256410256411,1682.0,1684.0,1782.493,1668.67626953125,0.0,0.0,0.0,0.0
1780758,123.0,0.0,491.0,4499.48717948718,4161.025641025642,4334.358974358975,4809.743589743591,3973.8461538461543,4223.589743589744,4266.666666666667,4031.2820512820517,4382.051282051282,4068.717948717949,4261.538461538462,4311.282051282052,4381.538461538462,4386.666666666667,1680.0,1685.0,1782.5,1668.67626953125,0.0,0.0,0.0,0.0
1780759,124.0,0.0,0.0,4498.974358974359,4158.461538461539,4331.282051282052,4814.358974358975,3978.461538461539,4231.282051282052,4269.74358974359,4033.333333333334,4382.051282051282,4064.1025641025644,4260.512820512821,4310.256410256411,4376.410256410257,4377.948717948719,1680.0,1685.0,1782.509,1668.67626953125,0.0,0.0,0.0,0.0
1780889,125.0,0.0,333.0,4503.076923076924,4162.051282051282,4330.256410256411,4818.461538461539,3980.0000000000005,4232.820512820514,4266.666666666667,4029.23076923077,4387.6923076923085,4064.615384615385,4260.000000000001,4315.8974358974365,4376.410256410257,4378.974358974359,1680.0,1684.0,1782.515,1668.80126953125,0.0,0.0,0.0,0.0
1780889,126.0,0.0,494.0,4508.717948717949,4168.717948717949,4335.384615384616,4812.307692307693,3974.8717948717954,4223.589743589744,4262.051282051282,4017.435897435898,4392.820512820514,4074.8717948717954,4261.025641025642,4317.435897435898,4386.666666666667,4393.333333333334,1679.0,1685.0,1782.523,1668.80126953125,0.0,0.0,0.0,0.0
1780889,127.0,0.0,491.0,4505.641025641026,4168.205128205129,4335.8974358974365,4812.820512820514,3975.3846153846157,4217.948717948719,4257.948717948719,4004.615384615385,4385.641025641026,4075.3846153846157,4262.564102564103,4315.8974358974365,4388.205128205129,4396.410256410257,1678.0,1684.0,1782.531,1668.80126953125,0.0,0.0,0.0,0.0
1780889,128.0,0.0,0.0,4497.435897435898,4162.564102564103,4332.820512820514,4810.256410256411,3978.461538461539,4216.410256410257,4258.461538461539,4009.23076923077,4383.589743589744,4068.717948717949,4260.512820512821,4313.846153846154,4381.538461538462,4386.153846153847,1678.0,1685.0,1782.54,1668.80126953125,0.0,0.0,0.0,0.0
1780890,0.0,0.0,514.0,4495.8974358974365,4159.48717948718,4333.333333333334,4817.948717948719,3980.0000000000005,4213.846153846154,4260.000000000001,4021.538461538462,4389.743589743591,4069.23076923077,4262.051282051282,4314.358974358975,4377.435897435898,4383.076923076924,1677.0,1684.0,1782.547,1668.80126953125,0.0,0.0,0.0,0.0
1780890,1.0,0.0,0.0,4496.923076923077,4155.384615384616,4332.307692307693,4817.948717948719,3982.564102564103,4215.384615384616,4260.000000000001,4024.615384615385,4383.589743589744,4065.1282051282055,4263.076923076924,4312.820512820514,4373.846153846154,4384.615384615385,1677.0,1685.0,1782.555,1668.80126953125,0.0,0.0,0.0,0.0
1780890,2.0,0.0,512.0,4491.282051282052,4151.794871794872,4324.615384615385,4808.717948717949,3983.589743589744,4218.461538461539,4256.923076923077,4025.1282051282055,4370.769230769231,4050.2564102564106,4260.000000000001,4307.6923076923085,4366.666666666667,4377.948717948719,1677.0,1684.0,1782.562,1668.80126953125,0.0,0.0,0.0,0.0
1780891,3.0,0.0,532.0,4493.333333333334,4155.8974358974365,4323.076923076924,4814.358974358975,3984.1025641025644,4219.48717948718,4255.8974358974365,4022.0512820512827,4376.923076923077,4051.2820512820517,4259.48717948718,4309.743589743591,4366.153846153847,4375.8974358974365,1675.0,1685.0,1782.571,1668.80126953125,0.0,0.0,0.0,0.0
1780891,4.0,0.0,505.0,4505.641025641026,4162.564102564103,4334.358974358975,4811.282051282052,3989.7435897435903,4223.589743589744,4262.051282051282,4022.564102564103,4398.461538461539,4073.8461538461543,4259.48717948718,4316.410256410257,4378.461538461539,4385.128205128206,1676.0,1685.0,1782.578,1668.80126953125,0.0,0.0,0.0,0.0
1780891,5.0,0.0,554.0,4503.589743589744,4159.48717948718,4338.461538461539,4811.282051282052,3989.7435897435903,4222.051282051282,4262.564102564103,4031.7948717948725,4403.589743589744,4080.0000000000005,4263.589743589744,4316.410256410257,4382.051282051282,4390.256410256411,1675.0,1683.0,1782.586,1668.80126953125,0.0,0.0,0.0,0.0
1780891,6.0,0.0,550.0,4494.358974358975,4149.74358974359,4330.256410256411,4814.358974358975,3983.076923076924,4209.74358974359,4255.384615384616,4037.435897435898,4387.179487179487,4062.564102564103,4263.589743589744,4313.846153846154,4369.2307692307695,4386.153846153847,1676.0,1684.0,1782.595,1668.80126953125,0.0,0.0,0.0,0.0
1780891,7.0,0.0,384.0,4493.846153846154,4147.6923076923085,4328.205128205129,4807.6923076923085,3981.538461538462,4204.615384615385,4253.846153846154,4035.3846153846157,4376.410256410257,4056.410256410257,4258.974358974359,4312.820512820514,4363.076923076924,4385.128205128206,1677.0,1683.0,1782.601,1668.80126953125,0.0,0.0,0.0,0.0
1780891,8.0,0.0,460.0,4491.794871794872,4147.179487179487,4330.256410256411,4811.794871794872,3984.615384615385,4207.6923076923085,4255.384615384616,4028.205128205129,4375.8974358974365,4061.538461538462,4263.589743589744,4313.333333333334,4367.179487179487,4388.205128205129,1677.0,1684.0,1782.61,1668.80126953125,0.0,0.0,0.0,0.0
1780891,9.0,0.0,479.0,4493.333333333334,4149.2307692307695,4329.743589743591,4812.820512820514,3987.1794871794878,4209.74358974359,4256.410256410257,4027.692307692308,4375.384615384616,4063.076923076924,4263.076923076924,4315.8974358974365,4372.820512820514,4388.717948717949,1679.0,1684.0,1782.617,1668.80126953125,0.0,0.0,0.0,0.0
1780891,10.0,0.0,495.0,4503.076923076924,4152.820512820514,4333.333333333334,4813.333333333334,3990.7692307692314,4207.179487179487,4258.461538461539,4038.461538461539,4376.923076923077,4067.1794871794878,4259.48717948718,4321.538461538462,4380.000000000001,4393.846153846154,1679.0,1685.0,1782.626,1668.80126953125,0.0,0.0,0.0,0.0
1780892,11.0,0.0,491.0,4505.128205128206,4154.358974358975,4339.48717948718,4817.435897435898,3990.7692307692314,4209.2307692307695,4262.051282051282,4050.7692307692314,4387.179487179487,4073.8461538461543,4260.000000000001,4323.589743589744,4383.076923076924,4407.179487179487,1679.0,1685.0,1782.633,1668.80126953125,0.0,0.0,0.0,0.0
1780913,12.0,0.0,0.0,4505.128205128206,4158.974358974359,4343.589743589744,4812.307692307693,3990.7692307692314,4215.8974358974365,4266.153846153847,4058.9743589743593,4402.051282051282,4083.076923076924,4260.512820512821,4325.641025641026,4386.666666666667,4416.923076923077,1679.0,1688.0,1782.642,1668.9263916015625,0.0,0.0,0.0,0.0
1780913,13.0,0.0,334.0,4508.717948717949,4160.000000000001,4345.641025641026,4813.846153846154,3994.8717948717954,4216.923076923077,4264.102564102564,4056.410256410257,4403.076923076924,4087.692307692308,4262.564102564103,4328.717948717949,4389.2307692307695,4414.871794871796,1680.0,1688.0,1782.648,1668.9263916015625,0.0,0.0,0.0,0.0
1780913,14.0,0.0,495.0,4502.051282051282,4151.794871794872,4342.564102564103,4810.256410256411,3993.333333333334,4215.8974358974365,4262.564102564103,4034.8717948717954,4387.6923076923085,4080.5128205128212,4260.512820512821,4321.538461538462,4383.076923076924,4404.102564102564,1680.0,1687.0,1782.657,1668.9263916015625,0.0,0.0,0.0,0.0
1780914,15.0,0.0,491.0,4491.794871794872,4146.666666666667,4333.846153846154,4809.743589743591,3989.7435897435903,4216.410256410257,4264.102564102564,4013.333333333334,4376.410256410257,4070.2564102564106,4258.461538461539,4312.307692307693,4373.333333333334,4395.8974358974365,1681.0,1687.0,1782.665,1668.9263916015625,0.0,0.0,0.0,0.0
1781264,16.0,0.0,0.0,4491.794871794872,4146.153846153847,4326.153846153847,4814.871794871796,3993.333333333334,4217.435897435898,4263.589743589744,4012.820512820513,4380.512820512821,4067.692307692308,4262.051282051282,4311.794871794872,4370.256410256411,4392.307692307693,1681.0,1687.0,1782.672,1668.957763671875,0.0,0.0,0.0,0.0
1781264,17.0,0.0,0.0,4492.307692307693,4143.076923076924,4326.153846153847,4807.179487179488,3996.410256410257,4216.410256410257,4259.48717948718,4028.205128205129,4389.743589743591,4068.717948717949,4261.025641025642,4311.794871794872,4371.282051282052,4390.256410256411,1681.0,1687.0,1782.68,1668.957763671875,0.0,0.0,0.0,0.0
1781265,18.0,0.0,0.0,4486.666666666667,4140.512820512821,4330.256410256411,4813.846153846154,3993.8461538461543,4210.769230769231,4255.8974358974365,4038.9743589743593,4391.282051282052,4070.7692307692314,4260.000000000001,4315.8974358974365,4373.333333333334,4393.333333333334,1681.0,1687.0,1782.687,1668.957763671875,0.0,0.0,0.0,0.0
1781265,19.0,0.0,0.0,4489.743589743591,4145.128205128206,4335.384615384616,4816.923076923077,3993.333333333334,4209.2307692307695,4256.923076923077,4043.589743589744,4393.846153846154,4077.9487179487187,4262.051282051282,4322.564102564103,4381.025641025642,4403.589743589744,1680.0,1686.0,1782.695,1668.957763671875,0.0,0.0,0.0,0.0
1781265,20.0,0.0,0.0,4499.48717948718,4148.205128205129,4340.000000000001,4810.769230769231,3995.8974358974365,4211.794871794872,4257.948717948719,4045.1282051282055,4401.538461538462,4082.0512820512827,4262.564102564103,4325.128205128206,4387.179487179487,4406.153846153847,1680.0,1686.0,1782.703,1668.957763671875,0.0,0.0,0.0,0.0
1781266,21.0,0.0,0.0,4503.589743589744,4144.102564102564,4342.051282051282,4813.846153846154,3994.358974358975,4206.666666666667,4256.923076923077,4038.9743589743593,4403.076923076924,4077.435897435898,4262.051282051282,4326.666666666667,4384.102564102564,4402.051282051282,1681.0,1684.0,1782.712,1668.957763671875,0.0,0.0,0.0,0.0
1781266,22.0,0.0,0.0,4498.974358974359,4138.974358974359,4337.948717948719,4811.282051282052,3992.307692307693,4198.461538461539,4254.358974358975,4024.615384615385,4393.333333333334,4074.8717948717954,4259.48717948718,4322.564102564103,4383.589743589744,4401.025641025642,1679.0,1685.0,1782.719,1668.957763671875,0.0,0.0,0.0,0.0
1781266,23.0,0.0,0.0,4489.743589743591,4133.846153846154,4328.717948717949,4814.358974358975,3992.307692307693,4197.435897435898,4253.846153846154,4024.1025641025644,4382.564102564103,4072.820512820513,4260.512820512821,4315.384615384616,4382.564102564103,4398.974358974359,1680.0,1686.0,1782.728,1668.957763671875,0.0,0.0,0.0,0.0
1781266,24.0,0.0,0.0,4488.717948717949,4131.282051282052,4324.615384615385,4814.871794871796,3992.820512820513,4204.615384615385,4258.461538461539,4042.0512820512827,4386.153846153847,4069.23076923077,4262.564102564103,4313.333333333334,4377.948717948719,4397.435897435898,1678.0,1686.0,1782.734,1668.957763671875,0.0,0.0,0.0,0.0
1781266,25.0,0.0,0.0,4492.820512820514,4129.74358974359,4324.615384615385,4808.717948717949,3993.8461538461543,4210.256410256411,4260.512820512821,4038.461538461539,4391.282051282052,4068.717948717949,4260.512820512821,4312.820512820514,4375.384615384616,4394.871794871796,1679.0,1689.0,1782.744,1668.957763671875,0.0,0.0,0.0,0.0
1781267,26.0,0.0,0.0,4491.282051282052,4127.6923076923085,4321.025641025642,4813.846153846154,3996.410256410257,4207.6923076923085,4256.923076923077,4027.692307692308,4386.153846153847,4067.692307692308,4260.512820512821,4313.846153846154,4377.435897435898,4389.2307692307695,1678.0,1688.0,1782.75,1668.957763671875,0.0,0.0,0.0,0.0
1781267,27.0,0.0,0.0,4488.717948717949,4127.6923076923085,4321.025641025642,4812.307692307693,3997.9487179487182,4210.256410256411,4256.923076923077,4040.0000000000005,4385.641025641026,4069.23076923077,4263.076923076924,4313.846153846154,4381.025641025642,4387.179487179487,1678.0,1689.0,1782.759,1668.957763671875,0.0,0.0,0.0,0.0
1781267,28.0,0.0,0.0,4489.2307692307695,4127.179487179487,4323.589743589744,4813.333333333334,3997.435897435898,4214.358974358975,4257.435897435898,4029.23076923077,4389.2307692307695,4071.7948717948725,4265.128205128206,4313.846153846154,4381.025641025642,4390.769230769231,1679.0,1688.0,1782.765,1668.957763671875,0.0,0.0,0.0,0.0
1781267,29.0,0.0,0.0,4487.6923076923085,4124.102564102564,4322.564102564103,4813.846153846154,3997.9487179487182,4208.205128205129,4253.333333333334,3994.358974358975,4386.666666666667,4070.7692307692314,4262.051282051282,4312.307692307693,4377.435897435898,4392.307692307693,1679.0,1688.0,1782.774,1668.957763671875,0.0,0.0,0.0,0.0
1781267,30.0,0.0,0.0,4477.948717948719,4120.512820512821,4315.384615384616,4806.666666666667,3999.48717948718,4206.666666666667,4254.358974358975,4006.1538461538466,4383.076923076924,4065.1282051282055,4259.48717948718,4307.6923076923085,4372.820512820514,4384.615384615385,1679.0,1687.0,1782.78,1668.957763671875,0.0,0.0,0.0,0.0
1781268,31.0,0.0,0.0,4473.333333333334,4120.000000000001,4311.794871794872,4815.384615384616,4000.5128205128212,4210.256410256411,4257.948717948719,4043.589743589744,4379.48717948718,4058.461538461539,4263.076923076924,4309.743589743591,4370.256410256411,4377.948717948719,1679.0,1686.0,1782.789,1668.957763671875,0.0,0.0,0.0,0.0
1781268,32.0,0.0,0.0,4483.076923076924,4128.717948717949,4318.461538461539,4816.410256410257,4004.1025641025644,4209.74358974359,4256.410256410257,4031.7948717948725,4377.948717948719,4063.076923076924,4260.512820512821,4312.307692307693,4376.410256410257,4384.102564102564,1680.0,1684.0,1782.797,1668.957763671875,0.0,0.0,0.0,0.0
1781268,33.0,0.0,0.0,4489.743589743591,4134.358974358975,4322.051282051282,4810.256410256411,4009.23076923077,4210.256410256411,4256.923076923077,4022.564102564103,4391.282051282052,4073.333333333334,4261.025641025642,4311.794871794872,4381.025641025642,4389.743589743591,1679.0,1684.0,1782.804,1668.957763671875,0.0,0.0,0.0,0.0
1781268,34.0,0.0,0.0,4485.128205128206,4130.769230769231,4316.923076923077,4811.282051282052,4011.7948717948725,4214.871794871796,4262.051282051282,4061.0256410256416,4404.615384615385,4074.8717948717954,4262.564102564103,4315.8974358974365,4380.512820512821,4387.179487179487,1681.0,1683.0,1782.813,1668.957763671875,0.0,0.0,0.0,0.0
1781268,35.0,0.0,0.0,4485.641025641026,4136.923076923077,4320.512820512821,4806.153846153847,4012.820512820513,4221.538461538462,4267.179487179487,4066.666666666667,4398.974358974359,4073.8461538461543,4258.974358974359,4318.974358974359,4383.589743589744,4391.282051282052,1681.0,1682.0,1782.819,1668.957763671875,0.0,0.0,0.0,0.0
1781269,36.0,0.0,0.0,4494.358974358975,4151.794871794872,4328.717948717949,4812.307692307693,4020.0000000000005,4223.589743589744,4269.74358974359,4034.8717948717954,4390.256410256411,4080.0000000000005,4262.564102564103,4317.435897435898,4391.282051282052,4397.948717948719,1681.0,1682.0,1782.828,1668.957763671875,0.0,0.0,0.0,0.0
1781269,37.0,0.0,0.0,4495.8974358974365,4156.923076923077,4328.205128205129,4813.846153846154,4026.1538461538466,4222.051282051282,4272.307692307693,4032.820512820513,4395.8974358974365,4085.1282051282055,4262.564102564103,4316.923076923077,4396.410256410257,4396.923076923077,1683.0,1681.0,1782.835,1668.957763671875,0.0,0.0,0.0,0.0
1781269,38.0,0.0,0.0,4493.846153846154,4155.8974358974365,4324.615384615385,4809.2307692307695,4022.0512820512827,4215.8974358974365,4269.2307692307695,4049.23076923077,4400.512820512821,4082.0512820512827,4258.974358974359,4320.512820512821,4397.435897435898,4397.435897435898,1682.0,1683.0,1782.844,1668.957763671875,0.0,0.0,0.0,0.0
1781270,39.0,0.0,0.0,4493.846153846154,4156.410256410257,4323.076923076924,4811.282051282052,4015.3846153846157,4208.717948717949,4264.102564102564,4067.1794871794878,4398.974358974359,4080.5128205128212,4262.051282051282,4318.974358974359,4394.358974358975,4397.435897435898,1683.0,1683.0,1782.851,1668.957763671875,0.0,0.0,0.0,0.0
1781270,40.0,0.0,0.0,4490.769230769231,4153.846153846154,4320.000000000001,4809.2307692307695,4015.3846153846157,4211.794871794872,4266.666666666667,4098.974358974359,4403.076923076924,4085.1282051282055,4262.564102564103,4313.333333333334,4390.256410256411,4388.205128205129,1683.0,1685.0,1782.86,1668.957763671875,0.0,0.0,0.0,0.0
1781270,41.0,0.0,0.0,4485.641025641026,4149.2307692307695,4315.8974358974365,4815.384615384616,4019.48717948718,4217.435897435898,4270.769230769231,4114.871794871796,4406.153846153847,4084.1025641025644,4260.000000000001,4314.358974358975,4388.205128205129,4380.512820512821,1683.0,1685.0,1782.866,1668.957763671875,0.0,0.0,0.0,0.0
1781270,42.0,0.0,0.0,4484.615384615385,4148.717948717949,4316.410256410257,4814.871794871796,4020.0000000000005,4216.923076923077,4266.153846153847,4101.538461538462,4403.589743589744,4076.410256410257,4257.948717948719,4315.384615384616,4385.641025641026,4378.974358974359,1683.0,1686.0,1782.875,1668.957763671875,0.0,0.0,0.0,0.0
1781270,43.0,0.0,0.0,4485.641025641026,4148.205128205129,4317.948717948719,4809.743589743591,4013.8461538461543,4216.923076923077,4260.512820512821,4075.3846153846157,4398.461538461539,4070.7692307692314,4260.512820512821,4310.769230769231,4381.538461538462,4377.948717948719,1683.0,1685.0,1782.882,1668.957763671875,0.0,0.0,0.0,0.0
1781271,44.0,0.0,0.0,4487.179487179488,4149.2307692307695,4317.435897435898,4814.358974358975,4010.7692307692314,4218.974358974359,4258.974358974359,4049.7435897435903,4395.8974358974365,4071.2820512820517,4262.564102564103,4311.282051282052,4380.000000000001,4377.435897435898,1682.0,1686.0,1782.891,1668.957763671875,0.0,0.0,0.0,0.0
1781271,45.0,0.0,0.0,4491.794871794872,4156.923076923077,4322.564102564103,4809.743589743591,4013.8461538461543,4218.461538461539,4261.538461538462,4062.0512820512827,4404.615384615385,4081.538461538462,4261.538461538462,4316.410256410257,4388.205128205129,4380.000000000001,1682.0,1687.0,1782.898,1668.957763671875,0.0,0.0,0.0,0.0
1781271,46.0,0.0,0.0,4496.410256410257,4163.076923076924,4331.794871794872,4812.307692307693,4019.48717948718,4214.358974358975,4263.589743589744,4084.1025641025644,4412.307692307693,4091.7948717948725,4263.589743589744,4322.564102564103,4401.025641025642,4387.179487179487,1682.0,1687.0,1782.906,1668.957763671875,0.0,0.0,0.0,0.0
1781271,47.0,0.0,0.0,4498.461538461539,4164.102564102564,4334.358974358975,4815.8974358974365,4020.5128205128212,4212.307692307693,4262.051282051282,4064.615384615385,4408.205128205129,4093.333333333334,4262.051282051282,4322.051282051282,4405.128205128206,4393.333333333334,1682.0,1688.0,1782.913,1668.957763671875,0.0,0.0,0.0,0.0
1781272,48.0,0.0,0.0,4493.333333333334,4162.051282051282,4328.717948717949,4810.769230769231,4018.461538461539,4211.282051282052,4258.974358974359,4045.6410256410263,4406.153846153847,4087.692307692308,4260.000000000001,4314.871794871796,4397.435897435898,4388.717948717949,1683.0,1687.0,1782.921,1668.957763671875,0.0,0.0,0.0,0.0
1781272,49.0,0.0,0.0,4486.666666666667,4152.820512820514,4322.564102564103,4813.846153846154,4018.461538461539,4212.307692307693,4256.410256410257,4060.0000000000005,4407.179487179487,4077.9487179487187,4265.128205128206,4313.333333333334,4386.153846153847,4379.48717948718,1682.0,1687.0,1782.93,1668.957763671875,0.0,0.0,0.0,0.0
1781272,50.0,0.0,0.0,4489.2307692307695,4148.717948717949,4323.076923076924,4808.717948717949,4018.9743589743593,4215.8974358974365,4255.8974358974365,4068.205128205129,4394.871794871796,4071.2820512820517,4263.589743589744,4315.8974358974365,4387.6923076923085,4375.8974358974365,1683.0,1686.0,1782.938,1668.957763671875,0.0,0.0,0.0,0.0
1781272,51.0,0.0,0.0,4489.2307692307695,4151.794871794872,4322.051282051282,4811.282051282052,4014.358974358975,4215.8974358974365,4256.923076923077,4075.3846153846157,4384.615384615385,4070.2564102564106,4260.000000000001,4315.384615384616,4392.307692307693,4373.333333333334,1681.0,1685.0,1782.945,1668.957763671875,0.0,0.0,0.0,0.0
1781272,52.0,0.0,0.0,4483.589743589744,4151.282051282052,4317.435897435898,4813.846153846154,4012.307692307693,4214.358974358975,4257.435897435898,4081.0256410256416,4391.794871794872,4072.820512820513,4261.538461538462,4314.358974358975,4390.769230769231,4376.410256410257,1682.0,1686.0,1782.953,1668.957763671875,0.0,0.0,0.0,0.0
1781273,53.0,0.0,0.0,4484.615384615385,4151.794871794872,4318.974358974359,4806.153846153847,4017.9487179487182,4214.871794871796,4255.8974358974365,4026.666666666667,4393.846153846154,4076.9230769230776,4262.051282051282,4313.846153846154,4391.794871794872,4384.102564102564,1681.0,1685.0,1782.961,1668.957763671875,0.0,0.0,0.0,0.0
1781273,54.0,0.0,0.0,4486.153846153847,4154.871794871796,4322.051282051282,4812.307692307693,4020.0000000000005,4215.384615384616,4250.256410256411,3980.5128205128212,4384.102564102564,4076.410256410257,4262.564102564103,4315.8974358974365,4395.8974358974365,4382.051282051282,1682.0,1686.0,1782.969,1668.957763671875,0.0,0.0,0.0,0.0
1781273,55.0,0.0,0.0,4484.615384615385,4157.435897435898,4322.051282051282,4813.333333333334,4019.48717948718,4213.333333333334,4251.794871794872,4029.23076923077,4392.307692307693,4080.0000000000005,4261.538461538462,4317.948717948719,4397.948717948719,4376.410256410257,1681.0,1685.0,1782.977,1668.957763671875,0.0,0.0,0.0,0.0
1781273,56.0,0.0,0.0,4485.641025641026,4158.461538461539,4321.025641025642,4811.282051282052,4021.0256410256416,4206.666666666667,4253.846153846154,4059.48717948718,4407.179487179487,4087.1794871794878,4260.512820512821,4316.923076923077,4392.820512820514,4381.025641025642,1682.0,1686.0,1782.985,1668.957763671875,0.0,0.0,0.0,0.0
1781273,57.0,0.0,0.0,4486.666666666667,4157.435897435898,4318.974358974359,4812.820512820514,4021.0256410256416,4205.641025641026,4252.820512820514,4002.564102564103,4400.000000000001,4084.1025641025644,4261.025641025642,4315.8974358974365,4389.2307692307695,4387.179487179487,1682.0,1685.0,1782.992,1668.957763671875,0.0,0.0,0.0,0.0
1781274,58.0,0.0,0.0,4484.615384615385,4157.948717948719,4316.923076923077,4806.153846153847,4019.48717948718,4218.461538461539,4257.948717948719,4000.5128205128212,4393.846153846154,4077.9487179487187,4262.051282051282,4315.8974358974365,4393.333333333334,4382.051282051282,1681.0,1686.0,1783.0,1668.957763671875,0.0,0.0,0.0,0.0
1781274,59.0,0.0,0.0,4486.153846153847,4162.564102564103,4321.538461538462,4812.307692307693,4017.9487179487182,4221.025641025642,4260.512820512821,4078.461538461539,4395.384615384616,4078.9743589743593,4264.615384615385,4316.923076923077,4394.358974358975,4380.512820512821,1682.0,1685.0,1783.008,1668.957763671875,0.0,0.0,0.0,0.0
1781395,60.0,0.0,0.0,4492.820512820514,4168.717948717949,4329.2307692307695,4814.871794871796,4014.358974358975,4207.179487179487,4254.358974358975,4113.333333333334,4393.846153846154,4084.1025641025644,4260.512820512821,4316.923076923077,4398.461538461539,4393.846153846154,1680.0,1686.0,1783.016,1669.3017578125,0.0,0.0,0.0,0.0
1781395,61.0,0.0,0.0,4496.923076923077,4169.74358974359,4329.743589743591,4812.307692307693,4009.23076923077,4203.076923076924,4252.820512820514,4096.923076923077,4397.948717948719,4084.1025641025644,4258.974358974359,4320.000000000001,4405.128205128206,4400.512820512821,1681.0,1686.0,1783.024,1669.3017578125,0.0,0.0,0.0,0.0
1781395,62.0,0.0,0.0,4494.871794871796,4164.102564102564,4324.615384615385,4815.8974358974365,4009.23076923077,4213.333333333334,4256.923076923077,4073.8461538461543,4403.076923076924,4080.5128205128212,4260.512820512821,4318.974358974359,4399.48717948718,4392.307692307693,1680.0,1686.0,1783.032,1669.3017578125,0.0,0.0,0.0,0.0
1781396,63.0,0.0,0.0,4491.794871794872,4164.102564102564,4326.666666666667,4811.282051282052,4011.2820512820517,4222.051282051282,4261.025641025642,4076.9230769230776,4395.8974358974365,4080.5128205128212,4259.48717948718,4312.820512820514,4396.410256410257,4386.666666666667,1680.0,1686.0,1783.039,1669.3017578125,0.0,0.0,0.0,0.0
1781396,64.0,0.0,514.0,4491.794871794872,4172.307692307693,4332.820512820514,4815.384615384616,4012.307692307693,4217.948717948719,4260.512820512821,4103.076923076924,4394.358974358975,4085.1282051282055,4263.076923076924,4315.8974358974365,4405.641025641026,4391.282051282052,1680.0,1684.0,1783.047,1669.3017578125,0.0,0.0,0.0,0.0
1781396,65.0,0.0,0.0,4493.333333333334,4175.384615384616,4334.871794871796,4814.358974358975,4008.717948717949,4215.8974358974365,4262.051282051282,4097.435897435898,4412.820512820514,4090.7692307692314,4264.102564102564,4319.48717948718,4408.717948717949,4397.435897435898,1680.0,1684.0,1783.054,1669.3017578125,0.0,0.0,0.0,0.0
1781396,66.0,0.0,512.0,4495.384615384616,4170.256410256411,4332.307692307693,4806.153846153847,4005.1282051282055,4221.538461538462,4266.153846153847,4059.48717948718,4422.564102564103,4092.307692307693,4261.538461538462,4319.48717948718,4404.615384615385,4401.538461538462,1679.0,1684.0,1783.063,1669.3017578125,0.0,0.0,0.0,0.0
1781397,67.0,0.0,532.0,4496.923076923077,4166.666666666667,4327.6923076923085,4812.307692307693,4005.1282051282055,4220.512820512821,4261.025641025642,4049.23076923077,4404.615384615385,4089.23076923077,4262.564102564103,4322.564102564103,4405.641025641026,4400.000000000001,1679.0,1684.0,1783.071,1669.3017578125,0.0,0.0,0.0,0.0
1781397,68.0,0.0,505.0,4491.794871794872,4168.205128205129,4323.076923076924,4811.794871794872,4002.0512820512827,4217.435897435898,4254.358974358975,4067.692307692308,4386.666666666667,4082.0512820512827,4260.000000000001,4319.48717948718,4404.615384615385,4392.820512820514,1679.0,1683.0,1783.078,1669.3017578125,0.0,0.0,0.0,0.0
1781397,69.0,0.0,554.0,4484.615384615385,4162.564102564103,4318.974358974359,4812.820512820514,3997.9487179487182,4220.000000000001,4258.461538461539,4089.23076923077,4397.435897435898,4076.410256410257,4261.025641025642,4312.307692307693,4395.384615384616,4383.589743589744,1680.0,1683.0,1783.086,1669.3017578125,0.0,0.0,0.0,0.0
1781398,70.0,0.0,550.0,4482.051282051282,4156.923076923077,4318.974358974359,4813.333333333334,3996.9230769230776,4218.974358974359,4263.076923076924,4100.512820512821,4414.358974358975,4079.48717948718,4263.589743589744,4313.846153846154,4393.846153846154,4386.153846153847,1679.0,1683.0,1783.094,1669.3017578125,0.0,0.0,0.0,0.0
1781398,71.0,0.0,384.0,4484.102564102564,4161.025641025642,4323.076923076924,4809.2307692307695,3996.410256410257,4211.282051282052,4259.48717948718,4085.6410256410263,4407.179487179487,4084.1025641025644,4261.025641025642,4318.974358974359,4404.102564102564,4396.923076923077,1680.0,1684.0,1783.102,1669.3017578125,0.0,0.0,0.0,0.0
1781398,72.0,0.0,460.0,4488.205128205129,4162.051282051282,4328.205128205129,4814.358974358975,3993.8461538461543,4205.641025641026,4253.846153846154,4074.358974358975,4391.282051282052,4078.9743589743593,4261.025641025642,4322.051282051282,4405.128205128206,4398.974358974359,1679.0,1685.0,1783.11,1669.3017578125,0.0,0.0,0.0,0.0
1781398,73.0,0.0,479.0,4491.794871794872,4161.025641025642,4334.358974358975,4811.794871794872,3992.820512820513,4203.076923076924,4255.8974358974365,4087.692307692308,4389.743589743591,4074.358974358975,4262.051282051282,4320.512820512821,4400.000000000001,4395.8974358974365,1680.0,1685.0,1783.118,1669.3017578125,0.0,0.0,0.0,0.0
1781399,74.0,0.0,495.0,4492.307692307693,4163.589743589744,4335.384615384616,4814.358974358975,3994.358974358975,4200.000000000001,4258.974358974359,4093.8461538461543,4391.794871794872,4074.8717948717954,4260.512820512821,4321.538461538462,4398.974358974359,4401.025641025642,1680.0,1685.0,1783.125,1669.3017578125,0.0,0.0,0.0,0.0
1781399,75.0,0.0,491.0,4488.717948717949,4164.102564102564,4331.794871794872,4813.846153846154,3991.7948717948725,4201.025641025642,4256.410256410257,4075.8974358974365,4388.717948717949,4071.2820512820517,4258.974358974359,4322.051282051282,4398.974358974359,4403.589743589744,1682.0,1685.0,1783.133,1669.3017578125,0.0,0.0,0.0,0.0
1781421,76.0,0.0,0.0,4482.564102564103,4161.025641025642,4328.717948717949,4804.102564102564,3985.6410256410263,4205.641025641026,4255.8974358974365,4053.333333333334,4395.384615384616,4070.2564102564106,4259.48717948718,4317.435897435898,4394.358974358975,4394.871794871796,1681.0,1685.0,1783.141,1669.4268798828125,0.0,0.0,0.0,0.0
1781421,77.0,0.0,334.0,4475.384615384616,4157.435897435898,4325.128205128206,4813.846153846154,3985.1282051282055,4207.179487179487,4258.461538461539,4020.0000000000005,4402.564102564103,4074.358974358975,4264.102564102564,4314.358974358975,4388.205128205129,4386.666666666667,1681.0,1686.0,1783.148,1669.4268798828125,0.0,0.0,0.0,0.0
1781421,78.0,0.0,495.0,4475.8974358974365,4158.461538461539,4322.564102564103,4814.871794871796,3986.666666666667,4206.153846153847,4260.000000000001,3993.8461538461543,4397.435897435898,4075.3846153846157,4262.564102564103,4315.384615384616,4390.769230769231,4387.6923076923085,1682.0,1683.0,1783.157,1669.4268798828125,0.0,0.0,0.0,0.0
1781421,79.0,0.0,491.0,4477.435897435898,4158.974358974359,4322.051282051282,4809.2307692307695,3982.0512820512827,4207.179487179487,4259.48717948718,4021.538461538462,4391.282051282052,4071.7948717948725,4261.538461538462,4315.8974358974365,4390.256410256411,4388.205128205129,1681.0,1684.0,1783.165,1669.4268798828125,0.0,0.0,0.0,0.0
1781509,80.0,0.0,0.0,4478.974358974359,4156.923076923077,4322.051282051282,4813.333333333334,3979.48717948718,4210.769230769231,4259.48717948718,4065.1282051282055,4390.256410256411,4066.1538461538466,4264.615384615385,4317.435897435898,4382.564102564103,4387.6923076923085,1682.0,1682.0,1783.172,1669.4581298828125,0.0,0.0,0.0,0.0
1781509,81.0,0.0,334.0,4485.128205128206,4158.461538461539,4325.641025641026,4810.769230769231,3983.076923076924,4215.384615384616,4264.102564102564,4061.538461538462,4400.000000000001,4067.1794871794878,4262.564102564103,4316.410256410257,4384.615384615385,4389.743589743591,1681.0,1681.0,1783.18,1669.4581298828125,0.0,0.0,0.0,0.0
1781509,82.0,0.0,495.0,4483.076923076924,4159.48717948718,4327.179487179487,4815.384615384616,3983.589743589744,4216.410256410257,4267.179487179487,4016.9230769230776,4409.2307692307695,4075.3846153846157,4262.051282051282,4314.871794871796,4391.282051282052,4390.769230769231,1682.0,1681.0,1783.188,1669.4581298828125,0.0,0.0,0.0,0.0
1781509,83.0,0.0,491.0,4478.974358974359,4159.48717948718,4325.641025641026,4813.846153846154,3981.538461538462,4215.8974358974365,4267.6923076923085,4000.0000000000005,4405.128205128206,4081.538461538462,4262.051282051282,4316.923076923077,4395.384615384616,4393.846153846154,1681.0,1681.0,1783.196,1669.4581298828125,0.0,0.0,0.0,0.0
1781509,84.0,0.0,0.0,4486.153846153847,4163.589743589744,4326.666666666667,4807.6923076923085,3983.076923076924,4211.282051282052,4264.615384615385,4029.7435897435903,4393.333333333334,4079.48717948718,4261.025641025642,4319.48717948718,4397.948717948719,4397.435897435898,1681.0,1682.0,1783.204,1669.4581298828125,0.0,0.0,0.0,0.0
1781509,85.0,0.0,334.0,4492.820512820514,4166.153846153847,4328.717948717949,4812.820512820514,3986.1538461538466,4204.615384615385,4261.025641025642,4061.0256410256416,4390.769230769231,4078.461538461539,4262.051282051282,4321.025641025642,4400.000000000001,4395.384615384616,1681.0,1683.0,1783.211,1669.4581298828125,0.0,0.0,0.0,0.0
1781509,86.0,0.0,495.0,4490.256410256411,4166.153846153847,4330.256410256411,4810.256410256411,3985.1282051282055,4206.666666666667,4261.025641025642,4081.0256410256416,4398.461538461539,4082.564102564103,4259.48717948718,4319.48717948718,4400.512820512821,4389.743589743591,1681.0,1684.0,1783.218,1669.4581298828125,0.0,0.0,0.0,0.0
1781509,87.0,0.0,491.0,4484.102564102564,4165.128205128206,4329.2307692307695,4812.307692307693,3984.615384615385,4207.6923076923085,4261.538461538462,4094.358974358975,4398.461538461539,4081.0256410256416,4257.435897435898,4317.948717948719,4397.948717948719,4388.717948717949,1680.0,1683.0,1783.227,1669.4581298828125,0.0,0.0,0.0,0.0
1781510,88.0,0.0,0.0,4477.435897435898,4161.025641025642,4318.974358974359,4810.769230769231,3981.538461538462,4206.666666666667,4257.435897435898,4100.512820512821,4386.153846153847,4070.2564102564106,4259.48717948718,4313.846153846154,4390.256410256411,4386.153846153847,1680.0,1684.0,1783.235,1669.4581298828125,0.0,0.0,0.0,0.0
1781510,89.0,0.0,334.0,4472.307692307693,4153.333333333334,4308.205128205129,4808.205128205129,3974.358974358975,4210.256410256411,4251.794871794872,4094.8717948717954,4374.358974358975,4059.48717948718,4262.051282051282,4309.743589743591,4381.025641025642,4376.410256410257,1681.0,1682.0,1783.243,1669.4581298828125,0.0,0.0,0.0,0.0
1781510,90.0,0.0,495.0,4471.794871794872,4149.74358974359,4308.717948717949,4815.8974358974365,3970.7692307692314,4210.256410256411,4251.282051282052,4065.1282051282055,4376.410256410257,4058.9743589743593,4261.025641025642,4311.282051282052,4380.512820512821,4374.358974358975,1679.0,1683.0,1783.249,1669.4581298828125,0.0,0.0,0.0,0.0
1781510,91.0,0.0,491.0,4473.846153846154,4151.794871794872,4316.410256410257,4811.794871794872,3969.2307692307695,4204.615384615385,4249.74358974359,4018.461538461539,4385.128205128206,4067.1794871794878,4256.923076923077,4312.820512820514,4389.743589743591,4384.102564102564,1681.0,1684.0,1783.258,1669.4581298828125,0.0,0.0,0.0,0.0
1781638,92.0,0.0,0.0,4476.410256410257,4153.846153846154,4321.025641025642,4813.333333333334,3966.1538461538466,4200.000000000001,4244.102564102564,3987.1794871794878,4384.615384615385,4073.8461538461543,4262.051282051282,4315.8974358974365,4396.410256410257,4394.358974358975,1680.0,1685.0,1783.265,1669.552001953125,0.0,0.0,0.0,0.0
1781638,93.0,0.0,334.0,4480.512820512821,4158.974358974359,4326.666666666667,4816.410256410257,3969.7435897435903,4203.076923076924,4250.256410256411,4011.2820512820517,4385.128205128206,4078.461538461539,4262.051282051282,4323.589743589744,4399.48717948718,4400.512820512821,1682.0,1687.0,1783.274,1669.552001953125,0.0,0.0,0.0,0.0
1781639,94.0,0.0,495.0,4480.512820512821,4161.538461538462,4328.717948717949,4810.769230769231,3974.8717948717954,4208.205128205129,4257.435897435898,4061.0256410256416,4392.820512820514,4084.1025641025644,4256.923076923077,4326.153846153847,4402.564102564103,4402.564102564103,1682.0,1687.0,1783.282,1669.552001953125,0.0,0.0,0.0,0.0
1781639,95.0,0.0,491.0,4474.871794871796,4155.384615384616,4320.512820512821,4815.8974358974365,3969.7435897435903,4203.076923076924,4250.256410256411,4090.7692307692314,4392.307692307693,4080.0000000000005,4262.051282051282,4319.48717948718,4397.435897435898,4395.8974358974365,1682.0,1688.0,1783.29,1669.552001953125,0.0,0.0,0.0,0.0
1781639,96.0,0.0,0.0,4470.769230769231,4150.769230769231,4316.410256410257,4813.333333333334,3964.615384615385,4197.948717948719,4247.6923076923085,4100.000000000001,4383.076923076924,4072.820512820513,4263.076923076924,4313.333333333334,4391.282051282052,4386.153846153847,1683.0,1687.0,1783.297,1669.552001953125,0.0,0.0,0.0,0.0
1781639,97.0,0.0,334.0,4473.333333333334,4150.256410256411,4318.974358974359,4812.307692307693,3969.2307692307695,4202.051282051282,4254.871794871796,4098.974358974359,4381.538461538462,4074.358974358975,4261.538461538462,4314.358974358975,4392.307692307693,4385.128205128206,1682.0,1686.0,1783.305,1669.552001953125,0.0,0.0,0.0,0.0
1781639,98.0,0.0,495.0,4476.923076923077,4151.794871794872,4318.461538461539,4815.384615384616,3970.7692307692314,4208.205128205129,4256.410256410257,4100.000000000001,4386.153846153847,4074.8717948717954,4263.076923076924,4314.358974358975,4390.256410256411,4387.179487179487,1682.0,1686.0,1783.313,1669.552001953125,0.0,0.0,0.0,0.0
1781640,99.0,0.0,491.0,4476.923076923077,4159.48717948718,4318.461538461539,4809.743589743591,3969.2307692307695,4208.717948717949,4256.410256410257,4101.025641025642,4383.589743589744,4072.307692307693,4262.051282051282,4314.358974358975,4388.205128205129,4389.743589743591,1680.0,1686.0,1783.321,1669.552001953125,0.0,0.0,0.0,0.0
1781640,100.0,0.0,0.0,4475.8974358974365,4165.641025641026,4324.615384615385,4813.846153846154,3970.7692307692314,4207.179487179487,4257.435897435898,4080.5128205128212,4381.538461538462,4076.410256410257,4261.538461538462,4321.025641025642,4394.358974358975,4399.48717948718,1681.0,1686.0,1783.329,1669.552001953125,0.0,0.0,0.0,0.0
1781640,101.0,0.0,334.0,4477.948717948719,4165.641025641026,4332.307692307693,4812.820512820514,3972.307692307693,4209.2307692307695,4257.948717948719,4050.7692307692314,4390.769230769231,4084.1025641025644,4260.000000000001,4323.589743589744,4402.564102564103,4408.717948717949,1680.0,1688.0,1783.337,1669.552001953125,0.0,0.0,0.0,0.0
1781640,102.0,0.0,495.0,4483.589743589744,4167.179487179487,4333.846153846154,4812.820512820514,3973.333333333334,4210.769230769231,4260.000000000001,4056.410256410257,4393.846153846154,4084.615384615385,4260.000000000001,4321.025641025642,4405.641025641026,4403.589743589744,1680.0,1688.0,1783.344,1669.552001953125,0.0,0.0,0.0,0.0
1781640,103.0,0.0,491.0,4488.205128205129,4169.74358974359,4331.794871794872,4813.333333333334,3973.333333333334,4209.74358974359,4262.051282051282,4094.358974358975,4389.743589743591,4083.589743589744,4261.538461538462,4321.538461538462,4405.128205128206,4394.871794871796,1679.0,1688.0,1783.352,1669.552001953125,0.0,0.0,0.0,0.0
1781641,104.0,0.0,0.0,4483.589743589744,4167.179487179487,4330.256410256411,4806.666666666667,3970.7692307692314,4213.333333333334,4261.538461538462,4109.74358974359,4391.282051282052,4083.076923076924,4260.000000000001,4318.974358974359,4402.564102564103,4393.846153846154,1679.0,1690.0,1783.36,1669.552001953125,0.0,0.0,0.0,0.0
1781641,105.0,0.0,334.0,4473.846153846154,4161.538461538462,4325.641025641026,4815.8974358974365,3968.205128205129,4217.948717948719,4261.025641025642,4103.589743589744,4390.769230769231,4075.8974358974365,4262.051282051282,4318.461538461539,4401.538461538462,4395.384615384616,1679.0,1688.0,1783.368,1669.552001953125,0.0,0.0,0.0,0.0
1781641,106.0,0.0,495.0,4476.410256410257,4162.564102564103,4326.666666666667,4816.923076923077,3968.717948717949,4216.923076923077,4263.589743589744,4106.666666666667,4387.179487179487,4074.8717948717954,4263.589743589744,4323.076923076924,4407.6923076923085,4396.923076923077,1679.0,1689.0,1783.376,1669.552001953125,0.0,0.0,0.0,0.0
1781641,107.0,0.0,491.0,4484.615384615385,4161.025641025642,4331.282051282052,4808.717948717949,3967.692307692308,4218.461538461539,4264.102564102564,4110.769230769231,4384.102564102564,4081.0256410256416,4264.615384615385,4324.615384615385,4412.307692307693,4394.358974358975,1680.0,1687.0,1783.384,1669.552001953125,0.0,0.0,0.0,0.0
1781767,108.0,0.0,0.0,4483.076923076924,4155.384615384616,4327.179487179487,4812.820512820514,3966.1538461538466,4223.589743589744,4260.000000000001,4102.051282051282,4379.48717948718,4077.9487179487187,4264.615384615385,4322.051282051282,4407.6923076923085,4390.769230769231,1679.0,1686.0,1783.392,1669.6771240234375,0.0,0.0,0.0,0.0
1781767,109.0,0.0,334.0,4475.384615384616,4153.333333333334,4321.025641025642,4811.282051282052,3965.6410256410263,4228.205128205129,4262.051282051282,4101.538461538462,4378.461538461539,4068.717948717949,4261.025641025642,4316.410256410257,4400.000000000001,4387.6923076923085,1680.0,1685.0,1783.399,1669.6771240234375,0.0,0.0,0.0,0.0
1781767,110.0,0.0,495.0,4469.743589743591,4151.794871794872,4321.025641025642,4815.384615384616,3964.1025641025644,4226.153846153847,4266.666666666667,4116.923076923077,4390.256410256411,4067.692307692308,4261.538461538462,4315.384615384616,4397.948717948719,4385.128205128206,1680.0,1685.0,1783.408,1669.6771240234375,0.0,0.0,0.0,0.0
1781767,111.0,0.0,491.0,4474.358974358975,4156.923076923077,4323.589743589744,4814.358974358975,3966.666666666667,4221.025641025642,4266.666666666667,4108.717948717949,4396.923076923077,4077.9487179487187,4263.076923076924,4319.48717948718,4404.102564102564,4387.179487179487,1681.0,1685.0,1783.416,1669.6771240234375,0.0,0.0,0.0,0.0
1781768,112.0,0.0,0.0,4486.666666666667,4166.153846153847,4326.153846153847,4807.6923076923085,3969.2307692307695,4214.871794871796,4264.615384615385,4082.564102564103,4387.6923076923085,4083.076923076924,4261.025641025642,4322.051282051282,4411.282051282052,4390.256410256411,1681.0,1685.0,1783.424,1669.6771240234375,0.0,0.0,0.0,0.0
1781768,113.0,0.0,334.0,4491.794871794872,4166.153846153847,4329.2307692307695,4813.846153846154,3969.2307692307695,4212.820512820514,4264.102564102564,4092.820512820513,4385.128205128206,4083.076923076924,4260.000000000001,4325.128205128206,4411.794871794872,4392.820512820514,1683.0,1685.0,1783.43,1669.6771240234375,0.0,0.0,0.0,0.0
1781768,114.0,0.0,495.0,4487.179487179488,4161.025641025642,4329.2307692307695,4812.307692307693,3967.692307692308,4219.48717948718,4266.666666666667,4118.461538461539,4401.025641025642,4085.1282051282055,4261.538461538462,4321.538461538462,4409.2307692307695,4396.923076923077,1682.0,1686.0,1783.438,1669.6771240234375,0.0,0.0,0.0,0.0
1781768,115.0,0.0,491.0,4484.615384615385,4162.051282051282,4327.6923076923085,4814.871794871796,3966.666666666667,4223.589743589744,4263.589743589744,4107.6923076923085,4400.512820512821,4082.564102564103,4265.641025641026,4316.410256410257,4404.102564102564,4394.871794871796,1683.0,1687.0,1783.446,1669.6771240234375,0.0,0.0,0.0,0.0
1781768,116.0,0.0,0.0,4486.666666666667,4164.102564102564,4326.666666666667,4816.410256410257,3965.6410256410263,4218.974358974359,4257.948717948719,4085.1282051282055,4385.128205128206,4075.3846153846157,4262.564102564103,4313.846153846154,4401.538461538462,4387.6923076923085,1683.0,1686.0,1783.454,1669.6771240234375,0.0,0.0,0.0,0.0
1781768,117.0,0.0,334.0,4486.153846153847,4161.538461538462,4324.615384615385,4807.179487179488,3964.615384615385,4215.384615384616,4256.410256410257,4089.7435897435903,4388.205128205129,4074.8717948717954,4257.435897435898,4312.820512820514,4399.48717948718,4383.076923076924,1682.0,1687.0,1783.462,1669.6771240234375,0.0,0.0,0.0,0.0
1781768,118.0,0.0,495.0,4484.102564102564,4157.435897435898,4323.589743589744,4810.769230769231,3963.076923076924,4214.358974358975,4252.820512820514,4099.48717948718,4398.461538461539,4077.9487179487187,4261.025641025642,4314.358974358975,4395.384615384616,4382.564102564103,1682.0,1685.0,1783.469,1669.6771240234375,0.0,0.0,0.0,0.0
1781768,119.0,0.0,491.0,4483.076923076924,4156.923076923077,4324.615384615385,4812.307692307693,3960.5128205128212,4213.846153846154,4252.820512820514,4099.48717948718,4395.8974358974365,4078.461538461539,4264.102564102564,4315.8974358974365,4396.923076923077,4377.948717948719,1681.0,1685.0,1783.477,1669.6771240234375,0.0,0.0,0.0,0.0
1781768,120.0,0.0,0.0,4478.974358974359,4156.410256410257,4321.025641025642,4813.333333333334,3961.0256410256416,4215.8974358974365,4257.948717948719,4095.3846153846157,4389.2307692307695,4075.8974358974365,4264.615384615385,4316.410256410257,4396.410256410257,4369.2307692307695,1681.0,1685.0,1783.485,1669.6771240234375,0.0,0.0,0.0,0.0
1781769,121.0,0.0,334.0,4476.923076923077,4154.358974358975,4316.410256410257,4813.846153846154,3964.615384615385,4218.461538461539,4260.512820512821,4094.358974358975,4393.846153846154,4074.358974358975,4263.589743589744,4317.435897435898,4391.282051282052,4364.102564102564,1681.0,1686.0,1783.493,1669.6771240234375,0.0,0.0,0.0,0.0
1781769,122.0,0.0,495.0,4483.076923076924,4159.48717948718,4321.538461538462,4808.717948717949,3967.1794871794878,4217.435897435898,4260.512820512821,4102.564102564103,4410.769230769231,4083.589743589744,4258.974358974359,4318.974358974359,4397.948717948719,4365.641025641026,1681.0,1685.0,1783.501,1669.6771240234375,0.0,0.0,0.0,0.0
1781769,123.0,0.0,491.0,4485.641025641026,4162.051282051282,4326.153846153847,4817.435897435898,3964.1025641025644,4211.282051282052,4256.410256410257,4102.564102564103,4413.846153846154,4092.307692307693,4261.025641025642,4318.461538461539,4407.6923076923085,4370.769230769231,1680.0,1684.0,1783.51,1669.6771240234375,0.0,0.0,0.0,0.0
1781896,124.0,0.0,0.0,4477.435897435898,4150.256410256411,4317.435897435898,4815.8974358974365,3955.8974358974365,4214.358974358975,4254.871794871796,4096.410256410257,4399.48717948718,4087.1794871794878,4260.512820512821,4312.820512820514,4403.076923076924,4367.6923076923085,1680.0,1682.0,1783.517,1669.8021240234375,0.0,0.0,0.0,0.0
1781896,125.0,0.0,334.0,4465.128205128206,4136.923076923077,4304.615384615385,4808.717948717949,3953.8461538461543,4222.051282051282,4258.974358974359,4092.307692307693,4388.717948717949,4075.3846153846157,4260.000000000001,4309.743589743591,4390.256410256411,4353.333333333334,1679.0,1681.0,1783.525,1669.8021240234375,0.0,0.0,0.0,0.0
1781897,126.0,0.0,495.0,4468.205128205129,4140.512820512821,4307.179487179487,4811.794871794872,3957.435897435898,4217.948717948719,4261.538461538462,4073.8461538461543,4388.205128205129,4073.333333333334,4262.564102564103,4312.820512820514,4391.282051282052,4353.333333333334,1680.0,1681.0,1783.532,1669.8021240234375,0.0,0.0,0.0,0.0
1781897,127.0,0.0,491.0,4482.564102564103,4156.923076923077,4323.076923076924,4808.205128205129,3961.0256410256416,4210.769230769231,4260.000000000001,4054.358974358975,4395.8974358974365,4086.1538461538466,4261.025641025642,4316.410256410257,4409.743589743591,4374.358974358975,1679.0,1682.0,1783.541,1669.8021240234375,0.0,0.0,0.0,0.0
1781897,128.0,0.0,0.0,4483.589743589744,4160.512820512821,4325.128205128206,4813.846153846154,3962.0512820512827,4210.769230769231,4258.461538461539,4062.564102564103,4395.384615384616,4090.2564102564106,4261.538461538462,4316.410256410257,4414.871794871796,4380.512820512821,1680.0,1683.0,1783.548,1669.8021240234375,0.0,0.0,0.0,0.0
1781897,0.0,0.0,514.0,4477.948717948719,4154.871794871796,4317.435897435898,4814.871794871796,3958.461538461539,4212.307692307693,4256.923076923077,4086.666666666667,4385.128205128206,4083.076923076924,4262.051282051282,4314.871794871796,4406.666666666667,4369.2307692307695,1680.0,1684.0,1783.555,1669.8021240234375,0.0,0.0,0.0,0.0
1781898,1.0,0.0,0.0,4488.717948717949,4160.512820512821,4325.641025641026,4810.256410256411,3957.435897435898,4209.74358974359,4255.384615384616,4092.820512820513,4386.666666666667,4087.1794871794878,4261.538461538462,4316.923076923077,4412.307692307693,4375.384615384616,1682.0,1684.0,1783.563,1669.8021240234375,0.0,0.0,0.0,0.0
1781898,2.0,0.0,512.0,4499.48717948718,4167.179487179487,4333.846153846154,4812.820512820514,3964.1025641025644,4210.769230769231,4255.384615384616,4085.6410256410263,4395.8974358974365,4095.3846153846157,4262.564102564103,4322.564102564103,4422.564102564103,4389.2307692307695,1682.0,1684.0,1783.571,1669.8021240234375,0.0,0.0,0.0,0.0
1781898,3.0,0.0,532.0,4489.2307692307695,4160.512820512821,4326.153846153847,4808.717948717949,3968.717948717949,4224.615384615385,4257.948717948719,4085.1282051282055,4398.974358974359,4094.358974358975,4261.538461538462,4319.48717948718,4417.948717948719,4386.666666666667,1684.0,1685.0,1783.58,1669.8021240234375,0.0,0.0,0.0,0.0
1781898,4.0,0.0,505.0,4478.974358974359,4157.948717948719,4319.48717948718,4814.871794871796,3968.717948717949,4234.358974358975,4262.564102564103,4093.8461538461543,4405.641025641026,4095.3846153846157,4262.564102564103,4317.948717948719,4411.794871794872,4383.076923076924,1683.0,1686.0,1783.587,1669.8021240234375,0.0,0.0,0.0,0.0
1781899,5.0,0.0,554.0,4488.205128205129,4167.179487179487,4324.615384615385,4815.384615384616,3968.717948717949,4226.153846153847,4263.589743589744,4099.48717948718,4418.461538461539,4103.589743589744,4262.564102564103,4323.589743589744,4419.48717948718,4394.358974358975,1684.0,1688.0,1783.595,1669.8021240234375,0.0,0.0,0.0,0.0
1781899,6.0,0.0,550.0,4495.8974358974365,4168.717948717949,4328.205128205129,4808.717948717949,3964.1025641025644,4214.358974358975,4258.974358974359,4092.307692307693,4410.256410256411,4100.000000000001,4262.051282051282,4323.076923076924,4422.051282051282,4400.512820512821,1685.0,1686.0,1783.603,1669.8021240234375,0.0,0.0,0.0,0.0
1781899,7.0,0.0,384.0,4486.153846153847,4158.974358974359,4323.589743589744,4813.333333333334,3960.0000000000005,4214.358974358975,4252.307692307693,4085.1282051282055,4389.743589743591,4084.1025641025644,4264.615384615385,4313.333333333334,4408.205128205129,4390.769230769231,1683.0,1687.0,1783.611,1669.8021240234375,0.0,0.0,0.0,0.0
1781900,8.0,0.0,460.0,4478.974358974359,4157.435897435898,4320.512820512821,4809.743589743591,3960.0000000000005,4219.48717948718,4252.307692307693,4091.2820512820517,4389.743589743591,4081.538461538462,4263.076923076924,4309.2307692307695,4406.153846153847,4386.153846153847,1684.0,1687.0,1783.618,1669.8021240234375,0.0,0.0,0.0,0.0
1781900,9.0,0.0,479.0,4485.128205128206,4164.102564102564,4323.589743589744,4811.794871794872,3964.1025641025644,4217.948717948719,4255.8974358974365,4090.2564102564106,4395.8974358974365,4092.307692307693,4262.051282051282,4316.923076923077,4417.948717948719,4392.307692307693,1684.0,1685.0,1783.627,1669.8021240234375,0.0,0.0,0.0,0.0
1781900,10.0,0.0,495.0,4486.153846153847,4164.102564102564,4326.666666666667,4814.358974358975,3968.205128205129,4217.435897435898,4255.8974358974365,4077.435897435898,4390.769230769231,4090.2564102564106,4263.589743589744,4318.461538461539,4416.923076923077,4391.794871794872,1683.0,1684.0,1783.634,1669.8021240234375,0.0,0.0,0.0,0.0
1781921,11.0,0.0,491.0,4480.512820512821,4158.974358974359,4325.128205128206,4808.717948717949,3967.692307692308,4223.589743589744,4255.384615384616,4075.3846153846157,4390.256410256411,4080.5128205128212,4262.051282051282,4311.282051282052,4407.179487179487,4387.179487179487,1682.0,1684.0,1783.642,1669.92724609375,0.0,0.0,0.0,0.0
1781921,12.0,0.0,0.0,4482.564102564103,4157.435897435898,4320.512820512821,4814.871794871796,3968.205128205129,4224.615384615385,4256.923076923077,4084.615384615385,4396.923076923077,4081.0256410256416,4262.564102564103,4310.769230769231,4407.179487179487,4391.794871794872,1682.0,1685.0,1783.649,1669.92724609375,0.0,0.0,0.0,0.0
1781921,13.0,0.0,334.0,4482.564102564103,4157.435897435898,4315.8974358974365,4811.282051282052,3972.820512820513,4222.564102564103,4255.8974358974365,4091.2820512820517,4398.974358974359,4084.1025641025644,4262.051282051282,4311.794871794872,4405.128205128206,4393.333333333334,1680.0,1684.0,1783.658,1669.92724609375,0.0,0.0,0.0,0.0
1781921,14.0,0.0,495.0,4476.410256410257,4153.846153846154,4314.871794871796,4809.2307692307695,3974.358974358975,4222.564102564103,4246.666666666667,4087.692307692308,4392.820512820514,4081.0256410256416,4262.564102564103,4309.743589743591,4398.461538461539,4384.102564102564,1680.0,1685.0,1783.665,1669.92724609375,0.0,0.0,0.0,0.0
1782013,15.0,0.0,491.0,4482.051282051282,4156.923076923077,4320.000000000001,4812.820512820514,3971.2820512820517,4221.538461538462,4243.589743589744,4088.717948717949,4397.435897435898,4083.076923076924,4262.564102564103,4313.333333333334,4403.589743589744,4388.717948717949,1679.0,1685.0,1783.673,1669.9586181640625,0.0,0.0,0.0,0.0
1782014,16.0,0.0,0.0,4488.717948717949,4165.128205128206,4324.615384615385,4807.179487179488,3973.333333333334,4216.923076923077,4252.820512820514,4096.410256410257,4413.846153846154,4091.7948717948725,4261.538461538462,4316.923076923077,4412.820512820514,4403.589743589744,1678.0,1687.0,1783.681,1669.9586181640625,0.0,0.0,0.0,0.0
1782014,17.0,0.0,0.0,4478.974358974359,4161.538461538462,4321.538461538462,4811.794871794872,3975.3846153846157,4211.794871794872,4254.358974358975,4093.333333333334,4411.282051282052,4088.205128205129,4263.589743589744,4315.8974358974365,4407.6923076923085,4398.461538461539,1678.0,1686.0,1783.688,1669.9586181640625,0.0,0.0,0.0,0.0
1782014,18.0,0.0,0.0,4474.358974358975,4160.000000000001,4318.974358974359,4812.820512820514,3972.307692307693,4215.384615384616,4249.2307692307695,4085.1282051282055,4392.820512820514,4076.9230769230776,4260.512820512821,4312.820512820514,4401.025641025642,4386.153846153847,1677.0,1688.0,1783.696,1669.9586181640625,0.0,0.0,0.0,0.0
1782014,19.0,0.0,0.0,4486.666666666667,4165.641025641026,4324.102564102564,4809.743589743591,3973.8461538461543,4221.538461538462,4248.717948717949,4085.1282051282055,4389.2307692307695,4078.461538461539,4258.461538461539,4317.435897435898,4403.076923076924,4392.307692307693,1678.0,1687.0,1783.704,1669.9586181640625,0.0,0.0,0.0,0.0
1782015,20.0,0.0,0.0,4494.871794871796,4166.666666666667,4329.2307692307695,4811.794871794872,3975.3846153846157,4217.435897435898,4250.256410256411,4091.2820512820517,4398.974358974359,4087.1794871794878,4261.538461538462,4324.615384615385,4407.179487179487,4407.6923076923085,1677.0,1688.0,1783.712,1669.9586181640625,0.0,0.0,0.0,0.0
1782015,21.0,0.0,0.0,4491.794871794872,4163.076923076924,4327.6923076923085,4808.717948717949,3967.692307692308,4211.794871794872,4248.717948717949,4089.23076923077,4397.435897435898,4085.6410256410263,4261.538461538462,4321.025641025642,4407.6923076923085,4410.256410256411,1678.0,1688.0,1783.72,1669.9586181640625,0.0,0.0,0.0,0.0
1782015,22.0,0.0,0.0,4484.102564102564,4160.000000000001,4323.076923076924,4817.435897435898,3963.589743589744,4211.794871794872,4244.102564102564,4080.5128205128212,4386.153846153847,4077.435897435898,4263.589743589744,4315.8974358974365,4404.615384615385,4404.102564102564,1678.0,1686.0,1783.727,1669.9586181640625,0.0,0.0,0.0,0.0
1782016,23.0,0.0,0.0,4477.948717948719,4158.974358974359,4321.538461538462,4817.948717948719,3967.692307692308,4214.358974358975,4242.564102564103,4080.5128205128212,4392.307692307693,4080.5128205128212,4261.538461538462,4316.410256410257,4406.153846153847,4401.538461538462,1678.0,1685.0,1783.735,1669.9586181640625,0.0,0.0,0.0,0.0
1782016,24.0,0.0,0.0,4483.076923076924,4162.564102564103,4324.615384615385,4808.717948717949,3967.692307692308,4211.282051282052,4244.102564102564,4094.358974358975,4411.282051282052,4091.2820512820517,4260.000000000001,4320.000000000001,4413.846153846154,4403.589743589744,1678.0,1685.0,1783.743,1669.9586181640625,0.0,0.0,0.0,0.0
1782016,25.0,0.0,0.0,4492.820512820514,4168.717948717949,4327.179487179487,4811.794871794872,3967.1794871794878,4208.205128205129,4245.641025641026,4102.564102564103,4411.282051282052,4093.8461538461543,4264.102564102564,4321.538461538462,4413.846153846154,4402.564102564103,1679.0,1685.0,1783.751,1669.9586181640625,0.0,0.0,0.0,0.0
1782016,26.0,0.0,0.0,4487.6923076923085,4166.666666666667,4324.615384615385,4808.717948717949,3968.205128205129,4214.871794871796,4248.717948717949,4100.512820512821,4401.538461538462,4089.23076923077,4263.589743589744,4315.8974358974365,4404.615384615385,4395.384615384616,1679.0,1684.0,1783.759,1669.9586181640625,0.0,0.0,0.0,0.0
1782143,27.0,0.0,0.0,4476.923076923077,4162.051282051282,4322.564102564103,4811.794871794872,3968.717948717949,4221.538461538462,4251.794871794872,4102.051282051282,4406.153846153847,4085.6410256410263,4263.589743589744,4315.384615384616,4402.051282051282,4391.794871794872,1679.0,1685.0,1783.77,1670.0523681640625,0.0,0.0,0.0,0.0
1782143,28.0,0.0,0.0,4478.461538461539,4163.589743589744,4324.615384615385,4814.871794871796,3968.717948717949,4218.974358974359,4250.769230769231,4102.564102564103,4403.076923076924,4084.1025641025644,4263.076923076924,4319.48717948718,4406.666666666667,4397.435897435898,1681.0,1683.0,1783.775,1670.0523681640625,0.0,0.0,0.0,0.0
1782143,29.0,0.0,0.0,4478.974358974359,4164.102564102564,4322.564102564103,4810.256410256411,3967.1794871794878,4214.871794871796,4248.205128205129,4094.8717948717954,4384.102564102564,4077.435897435898,4258.974358974359,4315.8974358974365,4402.051282051282,4395.384615384616,1681.0,1685.0,1783.782,1670.0523681640625,0.0,0.0,0.0,0.0
1782144,30.0,0.0,0.0,4474.358974358975,4156.923076923077,4317.435897435898,4813.333333333334,3965.6410256410263,4215.384615384616,4247.6923076923085,4089.23076923077,4375.384615384616,4069.23076923077,4259.48717948718,4311.794871794872,4390.256410256411,4384.615384615385,1682.0,1685.0,1783.791,1670.0523681640625,0.0,0.0,0.0,0.0
1782144,31.0,0.0,0.0,4477.948717948719,4155.384615384616,4320.000000000001,4809.743589743591,3966.1538461538466,4216.410256410257,4248.205128205129,4088.205128205129,4379.48717948718,4073.8461538461543,4260.512820512821,4313.846153846154,4393.333333333334,4386.153846153847,1682.0,1687.0,1783.798,1670.0523681640625,0.0,0.0,0.0,0.0
1782144,32.0,0.0,0.0,4481.025641025642,4160.512820512821,4322.564102564103,4812.820512820514,3966.666666666667,4209.2307692307695,4246.666666666667,4085.6410256410263,4384.615384615385,4082.0512820512827,4261.538461538462,4317.948717948719,4405.128205128206,4398.461538461539,1682.0,1688.0,1783.806,1670.0523681640625,0.0,0.0,0.0,0.0
1782144,33.0,0.0,0.0,4477.948717948719,4160.512820512821,4321.025641025642,4812.820512820514,3967.1794871794878,4200.000000000001,4245.128205128206,4083.589743589744,4386.666666666667,4082.564102564103,4262.564102564103,4316.923076923077,4407.179487179487,4401.538461538462,1681.0,1687.0,1783.814,1670.0523681640625,0.0,0.0,0.0,0.0
1782144,34.0,0.0,0.0,4474.871794871796,4156.923076923077,4318.461538461539,4805.641025641026,3966.666666666667,4200.512820512821,4244.615384615385,4085.6410256410263,4386.666666666667,4079.48717948718,4262.051282051282,4313.846153846154,4404.102564102564,4392.820512820514,1681.0,1688.0,1783.821,1670.0523681640625,0.0,0.0,0.0,0.0
1782144,35.0,0.0,0.0,4471.794871794872,4150.769230769231,4310.769230769231,4813.846153846154,3964.615384615385,4206.666666666667,4243.589743589744,4091.2820512820517,4386.153846153847,4073.8461538461543,4263.076923076924,4313.333333333334,4398.461538461539,4386.666666666667,1682.0,1687.0,1783.829,1670.0523681640625,0.0,0.0,0.0,0.0
1782145,36.0,0.0,0.0,4470.769230769231,4146.153846153847,4307.6923076923085,4813.333333333334,3962.564102564103,4207.6923076923085,4244.102564102564,4102.051282051282,4385.641025641026,4071.7948717948725,4261.025641025642,4312.820512820514,4395.8974358974365,4391.282051282052,1681.0,1686.0,1783.837,1670.0523681640625,0.0,0.0,0.0,0.0
1782146,37.0,0.0,0.0,4477.435897435898,4152.307692307693,4317.435897435898,4810.769230769231,3963.076923076924,4200.000000000001,4244.615384615385,4108.205128205129,4388.717948717949,4080.5128205128212,4260.512820512821,4317.435897435898,4404.615384615385,4400.000000000001,1680.0,1686.0,1783.845,1670.0523681640625,0.0,0.0,0.0,0.0
1782146,38.0,0.0,0.0,4485.128205128206,4158.974358974359,4325.641025641026,4813.333333333334,3965.6410256410263,4195.384615384616,4247.179487179487,4108.205128205129,4401.025641025642,4090.2564102564106,4260.512820512821,4322.051282051282,4411.282051282052,4405.128205128206,1681.0,1687.0,1783.853,1670.0523681640625,0.0,0.0,0.0,0.0
1782146,39.0,0.0,0.0,4484.102564102564,4159.48717948718,4324.615384615385,4808.205128205129,3972.307692307693,4203.589743589744,4251.282051282052,4107.179487179487,4408.717948717949,4087.1794871794878,4258.974358974359,4317.435897435898,4405.128205128206,4400.512820512821,1681.0,1686.0,1783.86,1670.0523681640625,0.0,0.0,0.0,0.0
1782147,40.0,0.0,0.0,4476.923076923077,4156.923076923077,4320.512820512821,4815.384615384616,3978.9743589743593,4213.846153846154,4251.282051282052,4097.948717948719,4392.820512820514,4075.3846153846157,4262.051282051282,4313.333333333334,4394.358974358975,4393.333333333334,1679.0,1687.0,1783.868,1670.0523681640625,0.0,0.0,0.0,0.0
1782147,41.0,0.0,0.0,4476.410256410257,4158.974358974359,4320.512820512821,4816.923076923077,3979.48717948718,4215.384615384616,4250.256410256411,4092.307692307693,4378.974358974359,4070.7692307692314,4262.564102564103,4314.358974358975,4393.846153846154,4394.871794871796,1681.0,1687.0,1783.876,1670.0523681640625,0.0,0.0,0.0,0.0
1782147,42.0,0.0,0.0,4478.974358974359,4159.48717948718,4323.076923076924,4811.794871794872,3975.8974358974365,4207.6923076923085,4250.256410256411,4103.076923076924,4387.6923076923085,4075.8974358974365,4262.051282051282,4314.871794871796,4399.48717948718,4395.8974358974365,1679.0,1686.0,1783.884,1670.0523681640625,0.0,0.0,0.0,0.0
1782264,43.0,0.0,0.0,4474.358974358975,4152.820512820514,4318.974358974359,4813.846153846154,3972.307692307693,4202.051282051282,4247.179487179487,4108.717948717949,4396.410256410257,4077.435897435898,4262.564102564103,4314.358974358975,4395.384615384616,4388.205128205129,1679.0,1686.0,1783.892,1670.177490234375,0.0,0.0,0.0,0.0
1782264,44.0,0.0,0.0,4465.128205128206,4147.6923076923085,4310.769230769231,4810.769230769231,3967.692307692308,4203.589743589744,4243.076923076924,4098.974358974359,4383.076923076924,4070.2564102564106,4261.538461538462,4309.743589743591,4388.717948717949,4381.538461538462,1679.0,1685.0,1783.9,1670.177490234375,0.0,0.0,0.0,0.0
1782264,45.0,0.0,0.0,4458.461538461539,4145.641025641026,4305.641025641026,4816.923076923077,3963.076923076924,4200.512820512821,4237.435897435898,4089.23076923077,4360.512820512821,4063.076923076924,4264.102564102564,4306.666666666667,4386.666666666667,4382.051282051282,1678.0,1686.0,1783.907,1670.177490234375,0.0,0.0,0.0,0.0
1782264,46.0,0.0,0.0,4454.871794871796,4145.128205128206,4303.076923076924,4814.871794871796,3962.564102564103,4195.384615384616,4234.358974358975,4089.7435897435903,4361.025641025642,4062.0512820512827,4264.615384615385,4308.205128205129,4384.102564102564,4383.076923076924,1678.0,1685.0,1783.915,1670.177490234375,0.0,0.0,0.0,0.0
1782264,47.0,0.0,0.0,4456.923076923077,4146.153846153847,4302.564102564103,4806.666666666667,3966.1538461538466,4195.8974358974365,4241.025641025642,4091.7948717948725,4378.974358974359,4062.564102564103,4260.512820512821,4309.2307692307695,4383.589743589744,4381.538461538462,1677.0,1686.0,1783.923,1670.177490234375,0.0,0.0,0.0,0.0
1782265,48.0,0.0,0.0,4465.128205128206,4148.717948717949,4307.179487179487,4811.794871794872,3968.205128205129,4199.48717948718,4247.179487179487,4091.2820512820517,4384.102564102564,4062.564102564103,4261.025641025642,4311.282051282052,4388.717948717949,4383.076923076924,1677.0,1687.0,1783.931,1670.177490234375,0.0,0.0,0.0,0.0
1782265,49.0,0.0,0.0,4474.358974358975,4154.871794871796,4314.871794871796,4812.307692307693,3974.358974358975,4205.641025641026,4249.74358974359,4093.8461538461543,4382.564102564103,4069.23076923077,4261.025641025642,4316.923076923077,4396.923076923077,4391.794871794872,1678.0,1688.0,1783.94,1670.177490234375,0.0,0.0,0.0,0.0
1782265,50.0,0.0,0.0,4476.410256410257,4159.48717948718,4320.512820512821,4818.461538461539,3980.0000000000005,4206.153846153847,4255.8974358974365,4101.538461538462,4392.307692307693,4082.0512820512827,4263.076923076924,4321.538461538462,4402.051282051282,4402.051282051282,1678.0,1687.0,1783.946,1670.177490234375,0.0,0.0,0.0,0.0
1782265,51.0,0.0,0.0,4472.820512820514,4157.435897435898,4318.461538461539,4817.435897435898,3974.358974358975,4202.564102564103,4260.512820512821,4106.666666666667,4404.615384615385,4087.692307692308,4261.538461538462,4316.923076923077,4401.025641025642,4397.948717948719,1679.0,1687.0,1783.954,1670.177490234375,0.0,0.0,0.0,0.0
1782265,52.0,0.0,0.0,4467.179487179487,4151.282051282052,4308.717948717949,4807.179487179488,3968.717948717949,4209.2307692307695,4255.8974358974365,4101.025641025642,4400.000000000001,4074.8717948717954,4257.948717948719,4306.666666666667,4390.769230769231,4385.128205128206,1679.0,1686.0,1783.962,1670.177490234375,0.0,0.0,0.0,0.0
1782266,53.0,0.0,0.0,4464.102564102564,4146.153846153847,4301.538461538462,4813.846153846154,3971.7948717948725,4213.333333333334,4249.74358974359,4088.717948717949,4385.641025641026,4061.0256410256416,4261.025641025642,4304.615384615385,4381.025641025642,4383.076923076924,1680.0,1687.0,1783.97,1670.177490234375,0.0,0.0,0.0,0.0
1782266,54.0,0.0,0.0,4461.538461538462,4146.153846153847,4301.538461538462,4812.307692307693,3971.2820512820517,4208.205128205129,4250.256410256411,4086.1538461538466,4381.538461538462,4064.615384615385,4259.48717948718,4308.717948717949,4383.589743589744,4386.666666666667,1681.0,1686.0,1783.978,1670.177490234375,0.0,0.0,0.0,0.0
1782266,55.0,0.0,0.0,4460.512820512821,4146.153846153847,4302.564102564103,4809.2307692307695,3968.717948717949,4205.641025641026,4249.74358974359,4093.8461538461543,4387.6923076923085,4073.333333333334,4257.948717948719,4312.820512820514,4387.6923076923085,4385.641025641026,1682.0,1686.0,1783.987,1670.177490234375,0.0,0.0,0.0,0.0
1782266,56.0,0.0,0.0,4462.564102564103,4145.128205128206,4303.589743589744,4811.282051282052,3970.2564102564106,4207.6923076923085,4249.2307692307695,4093.8461538461543,4391.282051282052,4075.3846153846157,4260.512820512821,4314.358974358975,4386.666666666667,4384.615384615385,1682.0,1685.0,1783.993,1670.177490234375,0.0,0.0,0.0,0.0
1782266,57.0,0.0,0.0,4460.512820512821,4144.102564102564,4304.102564102564,4809.743589743591,3970.2564102564106,4211.794871794872,4253.333333333334,4091.2820512820517,4389.743589743591,4075.8974358974365,4260.000000000001,4311.282051282052,4387.179487179487,4383.076923076924,1683.0,1686.0,1784.001,1670.177490234375,0.0,0.0,0.0,0.0
1782266,58.0,0.0,0.0,4458.974358974359,4143.076923076924,4304.102564102564,4815.8974358974365,3969.7435897435903,4212.307692307693,4253.333333333334,4095.8974358974365,4388.717948717949,4078.461538461539,4260.512820512821,4311.794871794872,4391.282051282052,4380.512820512821,1684.0,1685.0,1784.009,1670.177490234375,0.0,0.0,0.0,0.0
1782396,59.0,0.0,0.0,4469.2307692307695,4152.307692307693,4313.846153846154,4812.307692307693,3973.333333333334,4213.333333333334,4254.871794871796,4096.923076923077,4393.846153846154,4084.1025641025644,4262.051282051282,4316.923076923077,4401.025641025642,4387.179487179487,1683.0,1686.0,1784.017,1670.3026123046875,0.0,0.0,0.0,0.0
1782397,60.0,0.0,0.0,4481.025641025642,4165.128205128206,4320.512820512821,4810.769230769231,3976.410256410257,4218.461538461539,4256.410256410257,4092.820512820513,4399.48717948718,4090.2564102564106,4263.076923076924,4321.025641025642,4409.743589743591,4396.923076923077,1684.0,1686.0,1784.025,1670.3026123046875,0.0,0.0,0.0,0.0
1782397,61.0,0.0,0.0,4483.589743589744,4166.666666666667,4316.923076923077,4813.333333333334,3978.9743589743593,4217.948717948719,4252.820512820514,4092.307692307693,4406.153846153847,4090.2564102564106,4262.051282051282,4320.512820512821,4413.333333333334,4396.410256410257,1682.0,1684.0,1784.032,1670.3026123046875,0.0,0.0,0.0,0.0
1782397,62.0,0.0,0.0,4480.512820512821,4162.564102564103,4317.948717948719,4807.6923076923085,3981.0256410256416,4209.74358974359,4251.794871794872,4097.948717948719,4410.769230769231,4092.307692307693,4261.025641025642,4317.948717948719,4414.871794871796,4390.256410256411,1682.0,1685.0,1784.04,1670.3026123046875,0.0,0.0,0.0,0.0
1782397,63.0,0.0,0.0,4478.461538461539,4162.564102564103,4319.48717948718,4813.846153846154,3981.0256410256416,4210.769230769231,4252.820512820514,4098.461538461539,4398.461538461539,4089.7435897435903,4265.641025641026,4316.410256410257,4408.717948717949,4387.6923076923085,1682.0,1683.0,1784.048,1670.3026123046875,0.0,0.0,0.0,0.0
1782397,64.0,0.0,514.0,4483.589743589744,4167.179487179487,4322.051282051282,4812.820512820514,3981.538461538462,4219.48717948718,4254.871794871796,4093.333333333334,4391.282051282052,4085.1282051282055,4265.641025641026,4317.948717948719,4404.615384615385,4393.846153846154,1681.0,1683.0,1784.056,1670.3026123046875,0.0,0.0,0.0,0.0
1782398,65.0,0.0,0.0,4490.769230769231,4165.128205128206,4323.589743589744,4809.743589743591,3981.538461538462,4216.923076923077,4257.948717948719,4087.692307692308,4400.000000000001,4082.0512820512827,4260.000000000001,4320.000000000001,4405.641025641026,4397.948717948719,1681.0,1683.0,1784.064,1670.3026123046875,0.0,0.0,0.0,0.0
1782398,66.0,0.0,512.0,4484.102564102564,4154.358974358975,4313.846153846154,4815.384615384616,3982.0512820512827,4217.435897435898,4257.948717948719,4083.076923076924,4393.846153846154,4070.2564102564106,4258.974358974359,4317.435897435898,4395.384615384616,4388.717948717949,1681.0,1683.0,1784.073,1670.3026123046875,0.0,0.0,0.0,0.0
1782398,67.0,0.0,532.0,4477.948717948719,4151.794871794872,4309.743589743591,4809.743589743591,3981.538461538462,4224.102564102564,4257.948717948719,4083.076923076924,4381.538461538462,4064.615384615385,4261.025641025642,4312.307692307693,4387.179487179487,4383.589743589744,1681.0,1682.0,1784.079,1670.3026123046875,0.0,0.0,0.0,0.0
1782398,68.0,0.0,505.0,4488.717948717949,4160.512820512821,4321.025641025642,4812.820512820514,3980.5128205128212,4217.948717948719,4261.025641025642,4091.2820512820517,4390.769230769231,4075.3846153846157,4265.128205128206,4317.435897435898,4398.974358974359,4395.8974358974365,1680.0,1684.0,1784.087,1670.3026123046875,0.0,0.0,0.0,0.0
1782399,69.0,0.0,554.0,4496.923076923077,4166.153846153847,4327.179487179487,4813.333333333334,3981.538461538462,4212.820512820514,4263.076923076924,4100.000000000001,4403.076923076924,4086.1538461538466,4262.564102564103,4323.076923076924,4413.333333333334,4406.153846153847,1680.0,1682.0,1784.095,1670.3026123046875,0.0,0.0,0.0,0.0
1782399,70.0,0.0,550.0,4491.282051282052,4161.025641025642,4320.000000000001,4809.743589743591,3976.9230769230776,4218.461538461539,4258.974358974359,4100.000000000001,4405.128205128206,4086.666666666667,4260.000000000001,4318.461538461539,4410.769230769231,4400.000000000001,1679.0,1683.0,1784.103,1670.3026123046875,0.0,0.0,0.0,0.0
1782399,71.0,0.0,384.0,4486.153846153847,4155.8974358974365,4314.358974358975,4815.384615384616,3967.692307692308,4212.307692307693,4254.358974358975,4097.435897435898,4401.538461538462,4086.1538461538466,4263.589743589744,4316.410256410257,4403.589743589744,4393.333333333334,1680.0,1682.0,1784.111,1670.3026123046875,0.0,0.0,0.0,0.0
1782399,72.0,0.0,460.0,4486.666666666667,4154.871794871796,4311.794871794872,4810.256410256411,3964.615384615385,4198.461538461539,4252.307692307693,4091.7948717948725,4389.2307692307695,4083.589743589744,4262.564102564103,4314.358974358975,4402.564102564103,4388.717948717949,1679.0,1682.0,1784.119,1670.3026123046875,0.0,0.0,0.0,0.0
1782399,73.0,0.0,479.0,4478.974358974359,4149.2307692307695,4306.153846153847,4812.307692307693,3964.1025641025644,4201.025641025642,4249.74358974359,4078.461538461539,4375.384615384616,4071.2820512820517,4261.538461538462,4310.256410256411,4397.435897435898,4382.051282051282,1680.0,1683.0,1784.126,1670.3026123046875,0.0,0.0,0.0,0.0
1782399,74.0,0.0,495.0,4473.333333333334,4147.179487179487,4306.666666666667,4814.871794871796,3957.435897435898,4207.6923076923085,4251.282051282052,4076.410256410257,4378.461538461539,4066.666666666667,4260.512820512821,4310.769230769231,4393.333333333334,4384.102564102564,1680.0,1683.0,1784.134,1670.3026123046875,0.0,0.0,0.0,0.0
1782422,75.0,0.0,491.0,4481.025641025642,4156.410256410257,4315.384615384616,4808.717948717949,3956.410256410257,4206.153846153847,4255.384615384616,4088.717948717949,4386.666666666667,4073.8461538461543,4261.025641025642,4313.846153846154,4397.948717948719,4389.2307692307695,1679.0,1685.0,1784.142,1670.427734375,0.0,0.0,0.0,0.0
1782422,76.0,0.0,0.0,4489.743589743591,4162.564102564103,4322.051282051282,4813.846153846154,3963.589743589744,4206.153846153847,4254.358974358975,4092.820512820513,4385.641025641026,4079.48717948718,4264.615384615385,4316.923076923077,4403.076923076924,4389.2307692307695,1680.0,1684.0,1784.15,1670.427734375,0.0,0.0,0.0,0.0
1782423,77.0,0.0,334.0,4488.717948717949,4160.512820512821,4324.102564102564,4812.307692307693,3964.1025641025644,4214.871794871796,4255.384615384616,4089.7435897435903,4386.666666666667,4082.564102564103,4262.051282051282,4317.435897435898,4402.051282051282,4389.743589743591,1680.0,1686.0,1784.158,1670.427734375,0.0,0.0,0.0,0.0
1782423,78.0,0.0,495.0,4482.051282051282,4155.8974358974365,4321.025641025642,4812.820512820514,3962.0512820512827,4218.461538461539,4261.025641025642,4087.692307692308,4386.153846153847,4078.461538461539,4262.564102564103,4317.435897435898,4398.461538461539,4387.6923076923085,1681.0,1686.0,1784.165,1670.427734375,0.0,0.0,0.0,0.0
1782511,79.0,0.0,491.0,4482.564102564103,4154.871794871796,4316.410256410257,4813.333333333334,3961.538461538462,4215.384615384616,4261.025641025642,4084.1025641025644,4383.589743589744,4069.23076923077,4262.564102564103,4317.435897435898,4401.538461538462,4386.153846153847,1681.0,1687.0,1784.173,1670.458984375,0.0,0.0,0.0,0.0
1782511,80.0,0.0,0.0,4490.769230769231,4160.512820512821,4318.461538461539,4807.6923076923085,3961.0256410256416,4215.384615384616,4259.48717948718,4085.1282051282055,4388.717948717949,4073.333333333334,4258.974358974359,4320.512820512821,4409.743589743591,4393.333333333334,1681.0,1687.0,1784.181,1670.458984375,0.0,0.0,0.0,0.0
1782512,81.0,0.0,334.0,4498.461538461539,4165.128205128206,4324.102564102564,4815.8974358974365,3961.0256410256416,4217.435897435898,4261.025641025642,4078.9743589743593,4393.333333333334,4082.564102564103,4261.025641025642,4324.102564102564,4414.358974358975,4401.025641025642,1681.0,1687.0,1784.189,1670.458984375,0.0,0.0,0.0,0.0
1782512,82.0,0.0,495.0,4491.794871794872,4159.48717948718,4322.564102564103,4813.846153846154,3959.48717948718,4224.615384615385,4263.589743589744,4064.615384615385,4395.384615384616,4083.076923076924,4260.000000000001,4320.512820512821,4409.743589743591,4400.000000000001,1681.0,1686.0,1784.197,1670.458984375,0.0,0.0,0.0,0.0
1782512,83.0,0.0,491.0,4476.923076923077,4149.2307692307695,4315.8974358974365,4807.6923076923085,3955.8974358974365,4226.666666666667,4263.589743589744,4062.0512820512827,4400.512820512821,4083.589743589744,4260.000000000001,4319.48717948718,4401.538461538462,4396.923076923077,1680.0,1685.0,1784.205,1670.458984375,0.0,0.0,0.0,0.0
1782513,84.0,0.0,0.0,4478.974358974359,4150.769230769231,4316.410256410257,4810.769230769231,3953.8461538461543,4217.435897435898,4256.410256410257,4068.205128205129,4394.358974358975,4086.1538461538466,4264.102564102564,4322.051282051282,4406.153846153847,4401.538461538462,1680.0,1686.0,1784.213,1670.458984375,0.0,0.0,0.0,0.0
1782513,85.0,0.0,334.0,4492.820512820514,4162.051282051282,4318.461538461539,4809.2307692307695,3950.2564102564106,4209.2307692307695,4245.128205128206,4070.7692307692314,4384.102564102564,4084.615384615385,4262.051282051282,4318.974358974359,4417.948717948719,4405.128205128206,1681.0,1685.0,1784.22,1670.458984375,0.0,0.0,0.0,0.0
1782513,86.0,0.0,495.0,4492.820512820514,4165.641025641026,4315.8974358974365,4813.846153846154,3946.666666666667,4205.128205128206,4238.974358974359,4073.8461538461543,4385.641025641026,4083.589743589744,4260.000000000001,4316.923076923077,4421.025641025642,4404.102564102564,1680.0,1686.0,1784.228,1670.458984375,0.0,0.0,0.0,0.0
1782514,87.0,0.0,491.0,4485.128205128206,4163.589743589744,4318.461538461539,4811.794871794872,3953.8461538461543,4211.282051282052,4246.153846153847,4081.538461538462,4392.820512820514,4084.615384615385,4262.564102564103,4317.435897435898,4421.538461538462,4400.000000000001,1681.0,1687.0,1784.236,1670.458984375,0.0,0.0,0.0,0.0
1782514,88.0,0.0,0.0,4487.6923076923085,4165.128205128206,4320.512820512821,4809.743589743591,3962.564102564103,4224.102564102564,4255.384615384616,4092.820512820513,4399.48717948718,4087.1794871794878,4264.102564102564,4317.435897435898,4425.641025641026,4398.461538461539,1679.0,1688.0,1784.245,1670.458984375,0.0,0.0,0.0,0.0
1782514,89.0,0.0,334.0,4492.820512820514,4165.641025641026,4316.410256410257,4813.846153846154,3960.5128205128212,4228.205128205129,4257.435897435898,4100.512820512821,4406.153846153847,4093.8461538461543,4263.589743589744,4319.48717948718,4424.102564102564,4402.051282051282,1680.0,1687.0,1784.252,1670.458984375,0.0,0.0,0.0,0.0
1782515,90.0,0.0,495.0,4492.820512820514,4163.589743589744,4319.48717948718,4808.717948717949,3958.9743589743593,4225.128205128206,4260.512820512821,4101.025641025642,4409.2307692307695,4094.358974358975,4260.512820512821,4319.48717948718,4421.538461538462,4404.102564102564,1680.0,1687.0,1784.259,1670.458984375,0.0,0.0,0.0,0.0
1782636,91.0,0.0,491.0,4485.641025641026,4159.48717948718,4322.051282051282,4813.846153846154,3962.0512820512827,4225.128205128206,4262.051282051282,4098.974358974359,4404.615384615385,4087.1794871794878,4260.000000000001,4316.923076923077,4417.948717948719,4401.538461538462,1680.0,1687.0,1784.267,1670.5528564453125,0.0,0.0,0.0,0.0
1782636,92.0,0.0,0.0,4478.461538461539,4152.307692307693,4312.820512820514,4813.846153846154,3957.9487179487182,4226.666666666667,4258.461538461539,4093.8461538461543,4397.435897435898,4081.538461538462,4260.512820512821,4315.8974358974365,4410.256410256411,4398.461538461539,1679.0,1686.0,1784.275,1670.5528564453125,0.0,0.0,0.0,0.0
1782636,93.0,0.0,334.0,4483.076923076924,4151.794871794872,4307.6923076923085,4808.205128205129,3952.820512820513,4226.153846153847,4253.846153846154,4084.1025641025644,4391.282051282052,4078.9743589743593,4262.564102564103,4317.435897435898,4409.743589743591,4400.000000000001,1680.0,1686.0,1784.283,1670.5528564453125,0.0,0.0,0.0,0.0
1782636,94.0,0.0,495.0,4491.794871794872,4155.8974358974365,4311.282051282052,4815.384615384616,3958.9743589743593,4226.666666666667,4251.794871794872,4083.076923076924,4392.307692307693,4077.9487179487187,4265.641025641026,4321.025641025642,4412.820512820514,4404.615384615385,1680.0,1685.0,1784.292,1670.5528564453125,0.0,0.0,0.0,0.0
1782636,95.0,0.0,491.0,4500.512820512821,4163.076923076924,4317.948717948719,4812.307692307693,3962.564102564103,4225.128205128206,4254.358974358975,4090.2564102564106,4400.512820512821,4083.076923076924,4262.564102564103,4321.025641025642,4416.410256410257,4412.820512820514,1680.0,1685.0,1784.298,1670.5528564453125,0.0,0.0,0.0,0.0
1782636,96.0,0.0,0.0,4511.794871794872,4167.6923076923085,4329.743589743591,4813.333333333334,3961.538461538462,4217.435897435898,4255.8974358974365,4089.23076923077,4402.564102564103,4089.23076923077,4261.025641025642,4326.666666666667,4423.076923076924,4426.666666666667,1681.0,1683.0,1784.307,1670.5528564453125,0.0,0.0,0.0,0.0
1782637,97.0,0.0,334.0,4523.589743589744,4170.769230769231,4341.025641025642,4815.8974358974365,3965.6410256410263,4212.820512820514,4256.923076923077,4087.1794871794878,4405.641025641026,4091.2820512820517,4262.051282051282,4331.794871794872,4427.6923076923085,4435.8974358974365,1679.0,1684.0,1784.314,1670.5528564453125,0.0,0.0,0.0,0.0
1782637,98.0,0.0,495.0,4530.256410256411,4178.461538461539,4342.051282051282,4809.743589743591,3969.2307692307695,4217.435897435898,4253.846153846154,4088.205128205129,4407.179487179487,4091.2820512820517,4261.025641025642,4327.179487179487,4429.2307692307695,4436.923076923077,1681.0,1683.0,1784.322,1670.5528564453125,0.0,0.0,0.0,0.0
1782637,99.0,0.0,491.0,4528.205128205129,4184.615384615385,4337.435897435898,4813.333333333334,3967.1794871794878,4220.512820512821,4248.717948717949,4085.1282051282055,4398.461538461539,4090.7692307692314,4262.564102564103,4322.051282051282,4429.2307692307695,4436.410256410257,1680.0,1683.0,1784.33,1670.5528564453125,0.0,0.0,0.0,0.0
1782637,100.0,0.0,0.0,4522.051282051282,4181.538461538462,4338.461538461539,4812.307692307693,3970.7692307692314,4220.000000000001,4253.333333333334,4083.076923076924,4392.307692307693,4090.2564102564106,4262.564102564103,4321.025641025642,4429.743589743591,4433.846153846154,1680.0,1683.0,1784.337,1670.5528564453125,0.0,0.0,0.0,0.0
1782637,101.0,0.0,334.0,4517.435897435898,4174.871794871796,4338.461538461539,4813.846153846154,3977.9487179487182,4220.512820512821,4260.000000000001,4083.589743589744,4396.410256410257,4090.2564102564106,4263.076923076924,4320.000000000001,4429.743589743591,4430.769230769231,1680.0,1684.0,1784.345,1670.5528564453125,0.0,0.0,0.0,0.0
1782638,102.0,0.0,495.0,4515.8974358974365,4174.358974358975,4333.333333333334,4815.384615384616,3976.9230769230776,4217.948717948719,4260.000000000001,4075.3846153846157,4396.410256410257,4089.23076923077,4264.102564102564,4320.000000000001,4435.8974358974365,4433.333333333334,1680.0,1685.0,1784.356,1670.5528564453125,0.0,0.0,0.0,0.0
1782639,103.0,0.0,491.0,4512.820512820514,4172.820512820514,4329.743589743591,4807.179487179488,3975.3846153846157,4214.358974358975,4256.923076923077,4059.48717948718,4391.794871794872,4089.7435897435903,4260.512820512821,4320.512820512821,4444.102564102564,4435.384615384616,1679.0,1685.0,1784.361,1670.5528564453125,0.0,0.0,0.0,0.0
1782639,104.0,0.0,0.0,4507.179487179488,4167.179487179487,4329.743589743591,4812.820512820514,3978.461538461539,4215.8974358974365,4254.871794871796,4055.8974358974365,4392.820512820514,4090.7692307692314,4258.974358974359,4322.051282051282,4440.000000000001,4433.846153846154,1680.0,1684.0,1784.37,1670.5528564453125,0.0,0.0,0.0,0.0
1782639,105.0,0.0,334.0,4507.179487179488,4169.74358974359,4336.923076923077,4814.871794871796,3979.48717948718,4220.512820512821,4255.8974358974365,4065.6410256410263,4399.48717948718,4096.923076923077,4261.025641025642,4327.6923076923085,4440.000000000001,4438.461538461539,1680.0,1684.0,1784.377,1670.5528564453125,0.0,0.0,0.0,0.0
1782639,106.0,0.0,495.0,4514.871794871796,4175.384615384616,4347.6923076923085,4811.794871794872,3978.9743589743593,4218.974358974359,4255.8974358974365,4068.205128205129,4408.717948717949,4108.717948717949,4263.589743589744,4334.871794871796,4449.743589743591,4439.48717948718,1681.0,1686.0,1784.384,1670.5528564453125,0.0,0.0,0.0,0.0
1782897,107.0,0.0,491.0,4514.358974358975,4171.282051282052,4344.615384615385,4811.794871794872,3976.410256410257,4212.820512820514,4251.794871794872,4062.0512820512827,4413.846153846154,4110.769230769231,4260.512820512821,4333.333333333334,4445.641025641026,4429.2307692307695,1680.0,1687.0,1784.393,1670.677978515625,0.0,0.0,0.0,0.0
1782898,108.0,0.0,0.0,4501.025641025642,4159.48717948718,4329.2307692307695,4807.179487179488,3970.2564102564106,4211.282051282052,4251.282051282052,4066.666666666667,4407.6923076923085,4097.948717948719,4256.923076923077,4322.564102564103,4429.743589743591,4419.48717948718,1680.0,1687.0,1784.401,1670.677978515625,0.0,0.0,0.0,0.0
1782898,109.0,0.0,334.0,4487.6923076923085,4149.74358974359,4318.974358974359,4813.846153846154,3968.205128205129,4208.717948717949,4250.769230769231,4067.692307692308,4389.743589743591,4083.076923076924,4262.051282051282,4316.923076923077,4418.974358974359,4410.769230769231,1680.0,1686.0,1784.409,1670.677978515625,0.0,0.0,0.0,0.0
1782899,110.0,0.0,495.0,4480.512820512821,4145.128205128206,4315.8974358974365,4812.307692307693,3971.2820512820517,4205.128205128206,4250.769230769231,4057.9487179487182,4376.923076923077,4077.9487179487187,4263.076923076924,4317.435897435898,4414.358974358975,4402.051282051282,1681.0,1685.0,1784.415,1670.677978515625,0.0,0.0,0.0,0.0
1782899,111.0,0.0,491.0,4480.512820512821,4147.179487179487,4316.410256410257,4810.769230769231,3971.7948717948725,4208.205128205129,4257.435897435898,4057.9487179487182,4377.948717948719,4080.0000000000005,4261.538461538462,4317.435897435898,4414.871794871796,4402.051282051282,1680.0,1684.0,1784.422,1670.677978515625,0.0,0.0,0.0,0.0
1782899,112.0,0.0,0.0,4482.564102564103,4147.6923076923085,4315.384615384616,4815.384615384616,3970.2564102564106,4213.846153846154,4258.974358974359,4064.615384615385,4385.128205128206,4078.9743589743593,4263.589743589744,4316.410256410257,4417.948717948719,4405.641025641026,1682.0,1683.0,1784.43,1670.677978515625,0.0,0.0,0.0,0.0
1782899,113.0,0.0,334.0,4479.48717948718,4144.615384615385,4313.333333333334,4807.6923076923085,3969.2307692307695,4216.410256410257,4253.846153846154,4065.6410256410263,4395.384615384616,4081.538461538462,4261.025641025642,4312.820512820514,4416.923076923077,4404.102564102564,1681.0,1683.0,1784.438,1670.677978515625,0.0,0.0,0.0,0.0
1782900,114.0,0.0,495.0,4477.948717948719,4145.128205128206,4313.846153846154,4812.820512820514,3967.692307692308,4210.769230769231,4253.846153846154,4063.076923076924,4395.8974358974365,4088.205128205129,4260.512820512821,4317.435897435898,4413.846153846154,4401.538461538462,1682.0,1685.0,1784.446,1670.677978515625,0.0,0.0,0.0,0.0
1782900,115.0,0.0,491.0,4482.051282051282,4151.794871794872,4318.461538461539,4815.8974358974365,3969.7435897435903,4207.6923076923085,4256.923076923077,4061.0256410256416,4387.179487179487,4088.717948717949,4262.051282051282,4322.564102564103,4415.384615384616,4405.128205128206,1683.0,1684.0,1784.454,1670.677978515625,0.0,0.0,0.0,0.0
1782900,116.0,0.0,0.0,4478.974358974359,4153.333333333334,4318.974358974359,4809.2307692307695,3968.717948717949,4213.333333333334,4252.820512820514,4058.461538461539,4386.666666666667,4086.1538461538466,4263.076923076924,4317.948717948719,4417.435897435898,4404.615384615385,1682.0,1685.0,1784.462,1670.677978515625,0.0,0.0,0.0,0.0
1782900,117.0,0.0,334.0,4476.410256410257,4149.2307692307695,4317.435897435898,4812.820512820514,3964.1025641025644,4213.333333333334,4246.666666666667,4057.435897435898,4388.205128205129,4088.717948717949,4263.589743589744,4317.435897435898,4413.846153846154,4401.025641025642,1683.0,1683.0,1784.469,1670.677978515625,0.0,0.0,0.0,0.0
1782900,118.0,0.0,495.0,4481.025641025642,4150.256410256411,4321.025641025642,4810.769230769231,3962.0512820512827,4206.666666666667,4248.205128205129,4055.3846153846157,4383.589743589744,4089.23076923077,4260.000000000001,4318.461538461539,4410.769230769231,4399.48717948718,1682.0,1682.0,1784.478,1670.677978515625,0.0,0.0,0.0,0.0
