timestamp,cnt,inerpolated,raw_cq,af3,f7,f3,fc5,t7,p7,o1,o2,p8,t8,fc6,f4,f8,af4,gyrox,gyroy,epoc_timestamp,epoc_es_timestamp,func_id,func_value,marker,sync_signal
1630996,52.0,0.0,0.0,4475.384615384616,4070.2564102564106,4298.461538461539,4807.6923076923085,3783.076923076924,4236.410256410257,4272.307692307693,4016.410256410257,4421.538461538462,4128.205128205129,4267.179487179487,4331.794871794872,4577.435897435898,4446.666666666667,1678.0,1683.0,1632.644,1519.1492919921875,0.0,0.0,0.0,0.0
1630996,53.0,0.0,0.0,4472.820512820514,4063.076923076924,4297.435897435898,4812.820512820514,3785.6410256410263,4240.000000000001,4278.974358974359,4023.076923076924,4431.794871794872,4137.435897435898,4264.102564102564,4333.846153846154,4576.410256410257,4448.717948717949,1679.0,1683.0,1632.653,1519.1492919921875,0.0,0.0,0.0,0.0
1630996,54.0,0.0,0.0,4483.076923076924,4070.2564102564106,4305.128205128206,4814.871794871796,3787.1794871794878,4230.256410256411,4278.974358974359,4023.589743589744,4438.461538461539,4143.076923076924,4264.615384615385,4335.8974358974365,4572.820512820514,4447.179487179487,1680.0,1682.0,1632.66,1519.1492919921875,0.0,0.0,0.0,0.0
1630997,55.0,0.0,0.0,4503.076923076924,4101.025641025642,4317.948717948719,4811.282051282052,3789.7435897435903,4224.102564102564,4269.2307692307695,4018.461538461539,4441.538461538462,4143.589743589744,4268.205128205129,4337.435897435898,4575.384615384616,4451.282051282052,1681.0,1684.0,1632.669,1519.1492919921875,0.0,0.0,0.0,0.0
1630997,56.0,0.0,0.0,4505.128205128206,4112.307692307693,4317.948717948719,4811.282051282052,3791.2820512820517,4227.6923076923085,4269.74358974359,4018.9743589743593,4441.025641025642,4143.589743589744,4269.74358974359,4337.435897435898,4575.8974358974365,4455.384615384616,1684.0,1683.0,1632.677,1519.1492919921875,0.0,0.0,0.0,0.0
1630997,57.0,0.0,0.0,4489.2307692307695,4095.3846153846157,4310.256410256411,4809.2307692307695,3792.307692307693,4240.000000000001,4284.102564102564,4025.6410256410263,4441.025641025642,4142.051282051282,4267.179487179487,4331.282051282052,4565.128205128206,4444.615384615385,1683.0,1684.0,1632.684,1519.1492919921875,0.0,0.0,0.0,0.0
1630997,58.0,0.0,0.0,4478.974358974359,4087.1794871794878,4307.179487179487,4815.8974358974365,3792.820512820513,4248.717948717949,4285.128205128206,4022.564102564103,4437.948717948719,4135.8974358974365,4269.74358974359,4327.179487179487,4553.333333333334,4432.820512820514,1685.0,1683.0,1632.691,1519.1492919921875,0.0,0.0,0.0,0.0
1630997,59.0,0.0,0.0,4485.641025641026,4101.025641025642,4310.256410256411,4814.358974358975,3790.2564102564106,4244.615384615385,4276.410256410257,4010.7692307692314,4429.2307692307695,4133.846153846154,4270.769230769231,4330.256410256411,4555.384615384616,4436.923076923077,1686.0,1683.0,1632.699,1519.1492919921875,0.0,0.0,0.0,0.0
1630997,60.0,0.0,0.0,4493.333333333334,4108.205128205129,4311.794871794872,4808.205128205129,3788.717948717949,4238.461538461539,4275.8974358974365,4004.615384615385,4418.974358974359,4133.333333333334,4267.6923076923085,4331.794871794872,4561.025641025642,4438.461538461539,1686.0,1684.0,1632.707,1519.1492919921875,0.0,0.0,0.0,0.0
1630997,61.0,0.0,0.0,4492.307692307693,4102.051282051282,4308.717948717949,4811.794871794872,3791.2820512820517,4240.000000000001,4278.461538461539,4003.076923076924,4411.794871794872,4127.179487179487,4267.6923076923085,4330.769230769231,4554.358974358975,4432.307692307693,1686.0,1684.0,1632.715,1519.1492919921875,0.0,0.0,0.0,0.0
1630997,62.0,0.0,0.0,4493.333333333334,4102.564102564103,4313.333333333334,4810.256410256411,3791.7948717948725,4236.923076923077,4275.8974358974365,4000.5128205128212,4414.871794871796,4127.6923076923085,4270.256410256411,4331.794871794872,4554.358974358975,4436.410256410257,1686.0,1684.0,1632.723,1519.1492919921875,0.0,0.0,0.0,0.0
1630997,63.0,0.0,0.0,4497.948717948719,4110.256410256411,4321.538461538462,4812.820512820514,3789.2307692307695,4223.589743589744,4266.666666666667,4000.0000000000005,4419.48717948718,4137.435897435898,4270.769230769231,4335.8974358974365,4565.128205128206,4442.564102564103,1685.0,1683.0,1632.73,1519.1492919921875,0.0,0.0,0.0,0.0
1630998,64.0,0.0,513.0,4495.384615384616,4109.74358974359,4316.410256410257,4812.307692307693,3788.717948717949,4218.461538461539,4260.000000000001,4001.538461538462,4417.948717948719,4136.923076923077,4267.6923076923085,4334.871794871796,4565.641025641026,4437.948717948719,1685.0,1684.0,1632.738,1519.1492919921875,0.0,0.0,0.0,0.0
1630998,65.0,0.0,0.0,4489.2307692307695,4104.615384615385,4308.717948717949,4806.666666666667,3788.205128205129,4225.641025641026,4263.589743589744,4001.0256410256416,4419.48717948718,4130.256410256411,4265.641025641026,4330.769230769231,4555.8974358974365,4432.820512820514,1684.0,1685.0,1632.746,1519.1492919921875,0.0,0.0,0.0,0.0
1630998,66.0,0.0,508.0,4490.769230769231,4104.102564102564,4311.794871794872,4811.794871794872,3789.2307692307695,4229.2307692307695,4268.717948717949,4001.538461538462,4429.2307692307695,4138.461538461539,4269.74358974359,4331.794871794872,4555.384615384616,4432.307692307693,1684.0,1685.0,1632.754,1519.1492919921875,0.0,0.0,0.0,0.0
1630998,67.0,0.0,531.0,4492.307692307693,4106.666666666667,4314.871794871796,4811.794871794872,3789.7435897435903,4230.256410256411,4267.6923076923085,4003.589743589744,4435.384615384616,4149.74358974359,4271.794871794872,4333.333333333334,4561.025641025642,4430.769230769231,1684.0,1685.0,1632.762,1519.1492919921875,0.0,0.0,0.0,0.0
1631019,68.0,0.0,501.0,4483.589743589744,4101.025641025642,4307.179487179487,4813.333333333334,3785.1282051282055,4235.8974358974365,4264.615384615385,4003.589743589744,4428.205128205129,4138.461538461539,4269.2307692307695,4330.256410256411,4553.333333333334,4425.641025641026,1684.0,1685.0,1632.771,1519.2744140625,0.0,0.0,0.0,0.0
1631019,69.0,0.0,551.0,4476.410256410257,4092.820512820513,4301.538461538462,4814.871794871796,3778.461538461539,4237.435897435898,4263.076923076924,4004.615384615385,4429.2307692307695,4127.6923076923085,4266.666666666667,4325.128205128206,4542.564102564103,4420.512820512821,1682.0,1684.0,1632.777,1519.2744140625,0.0,0.0,0.0,0.0
1631019,70.0,0.0,548.0,4475.8974358974365,4092.820512820513,4303.076923076924,4811.282051282052,3777.435897435898,4229.74358974359,4260.000000000001,4005.1282051282055,4437.435897435898,4133.846153846154,4266.666666666667,4322.564102564103,4543.589743589744,4418.974358974359,1683.0,1683.0,1632.786,1519.2744140625,0.0,0.0,0.0,0.0
1631019,71.0,0.0,324.0,4469.743589743591,4090.2564102564106,4297.435897435898,4815.8974358974365,3780.0000000000005,4224.102564102564,4257.435897435898,3998.9743589743593,4429.2307692307695,4131.794871794872,4270.256410256411,4324.102564102564,4543.076923076924,4414.358974358975,1681.0,1684.0,1632.793,1519.2744140625,0.0,0.0,0.0,0.0
1631113,72.0,0.0,457.0,4467.179487179487,4086.666666666667,4295.8974358974365,4811.282051282052,3781.0256410256416,4231.282051282052,4261.538461538462,3997.435897435898,4423.076923076924,4126.153846153847,4269.2307692307695,4326.153846153847,4539.48717948718,4410.769230769231,1682.0,1684.0,1632.802,1519.3056640625,0.0,0.0,0.0,0.0
1631113,73.0,0.0,477.0,4477.435897435898,4093.333333333334,4306.153846153847,4807.6923076923085,3781.0256410256416,4230.256410256411,4266.666666666667,4000.0000000000005,4429.743589743591,4129.74358974359,4267.6923076923085,4328.205128205129,4540.512820512821,4411.282051282052,1680.0,1685.0,1632.809,1519.3056640625,0.0,0.0,0.0,0.0
1631113,74.0,0.0,493.0,4479.48717948718,4095.8974358974365,4305.128205128206,4810.256410256411,3778.9743589743593,4220.000000000001,4263.076923076924,3990.7692307692314,4421.025641025642,4124.102564102564,4269.2307692307695,4327.179487179487,4536.923076923077,4409.743589743591,1681.0,1686.0,1632.825,1519.3056640625,0.0,0.0,0.0,0.0
1631113,75.0,0.0,489.0,4474.358974358975,4091.2820512820517,4300.000000000001,4804.102564102564,3778.9743589743593,4220.512820512821,4258.461538461539,3985.6410256410263,4412.307692307693,4116.410256410257,4268.717948717949,4324.615384615385,4535.8974358974365,4414.871794871796,1681.0,1684.0,1632.826,1519.3056640625,0.0,0.0,0.0,0.0
1631113,76.0,0.0,0.0,4480.000000000001,4095.3846153846157,4309.2307692307695,4813.333333333334,3781.0256410256416,4222.051282051282,4259.48717948718,3996.410256410257,4426.666666666667,4124.615384615385,4270.769230769231,4328.205128205129,4542.564102564103,4424.102564102564,1679.0,1686.0,1632.832,1519.3056640625,0.0,0.0,0.0,0.0
1631113,77.0,0.0,316.0,4483.589743589744,4101.025641025642,4310.769230769231,4817.948717948719,3778.461538461539,4222.564102564103,4260.000000000001,3997.9487179487182,4429.743589743591,4129.74358974359,4269.2307692307695,4329.743589743591,4544.102564102564,4420.512820512821,1680.0,1686.0,1632.84,1519.3056640625,0.0,0.0,0.0,0.0
1631113,78.0,0.0,493.0,4480.512820512821,4098.974358974359,4302.564102564103,4810.256410256411,3777.435897435898,4227.179487179487,4257.948717948719,3989.7435897435903,4413.846153846154,4122.051282051282,4269.74358974359,4328.717948717949,4538.461538461539,4413.333333333334,1679.0,1687.0,1632.848,1519.3056640625,0.0,0.0,0.0,0.0
1631115,79.0,0.0,489.0,4481.538461538462,4095.3846153846157,4303.076923076924,4811.282051282052,3780.0000000000005,4227.6923076923085,4260.000000000001,3991.2820512820517,4417.435897435898,4121.538461538462,4270.769230769231,4332.307692307693,4535.384615384616,4417.948717948719,1679.0,1687.0,1632.855,1519.3056640625,0.0,0.0,0.0,0.0
1631115,80.0,0.0,0.0,4475.384615384616,4088.205128205129,4302.564102564103,4810.256410256411,3779.48717948718,4228.717948717949,4262.564102564103,3995.8974358974365,4427.179487179487,4123.589743589744,4266.666666666667,4330.256410256411,4533.846153846154,4416.923076923077,1678.0,1687.0,1632.863,1519.3056640625,0.0,0.0,0.0,0.0
1631115,81.0,0.0,316.0,4460.000000000001,4078.9743589743593,4291.794871794872,4815.384615384616,3775.8974358974365,4234.871794871796,4257.948717948719,3991.7948717948725,4414.871794871796,4113.846153846154,4267.179487179487,4323.076923076924,4524.102564102564,4402.051282051282,1679.0,1685.0,1632.872,1519.3056640625,0.0,0.0,0.0,0.0
1631115,82.0,0.0,493.0,4455.8974358974365,4077.435897435898,4285.641025641026,4815.384615384616,3776.410256410257,4238.461538461539,4260.000000000001,3994.358974358975,4409.743589743591,4108.717948717949,4266.666666666667,4319.48717948718,4515.8974358974365,4395.384615384616,1678.0,1684.0,1632.879,1519.3056640625,0.0,0.0,0.0,0.0
1631115,83.0,0.0,489.0,4464.615384615385,4082.564102564103,4290.769230769231,4809.743589743591,3779.48717948718,4233.333333333334,4266.153846153847,4002.564102564103,4420.512820512821,4115.384615384616,4264.615384615385,4323.076923076924,4521.025641025642,4406.153846153847,1678.0,1684.0,1632.888,1519.3056640625,0.0,0.0,0.0,0.0
1631241,84.0,0.0,0.0,4468.717948717949,4082.0512820512827,4293.333333333334,4810.769230769231,3779.48717948718,4227.6923076923085,4261.025641025642,4002.564102564103,4422.051282051282,4118.461538461539,4266.666666666667,4328.205128205129,4527.6923076923085,4413.333333333334,1678.0,1682.0,1632.896,1519.3995361328125,0.0,0.0,0.0,0.0
1631242,85.0,0.0,316.0,4465.128205128206,4078.9743589743593,4288.717948717949,4806.153846153847,3776.9230769230776,4228.717948717949,4257.435897435898,3997.435897435898,4417.435897435898,4117.948717948719,4267.6923076923085,4326.153846153847,4525.641025641026,4405.128205128206,1677.0,1684.0,1632.904,1519.3995361328125,0.0,0.0,0.0,0.0
1631243,86.0,0.0,493.0,4459.48717948718,4076.9230769230776,4286.666666666667,4810.256410256411,3774.358974358975,4224.102564102564,4254.871794871796,3995.3846153846157,4418.461538461539,4119.48717948718,4268.205128205129,4323.589743589744,4520.512820512821,4399.48717948718,1678.0,1683.0,1632.91,1519.3995361328125,0.0,0.0,0.0,0.0
1631243,87.0,0.0,489.0,4462.564102564103,4081.0256410256416,4293.333333333334,4814.871794871796,3772.307692307693,4213.333333333334,4249.2307692307695,3992.820512820513,4415.8974358974365,4121.025641025642,4268.717948717949,4327.179487179487,4524.102564102564,4408.205128205129,1676.0,1685.0,1632.919,1519.3995361328125,0.0,0.0,0.0,0.0
1631243,88.0,0.0,0.0,4471.794871794872,4091.7948717948725,4297.948717948719,4809.743589743591,3774.8717948717954,4215.8974358974365,4250.769230769231,3990.7692307692314,4408.205128205129,4118.974358974359,4267.179487179487,4327.6923076923085,4528.717948717949,4415.8974358974365,1677.0,1685.0,1632.926,1519.3995361328125,0.0,0.0,0.0,0.0
1631244,89.0,0.0,316.0,4470.769230769231,4090.7692307692314,4292.820512820514,4811.794871794872,3780.0000000000005,4230.256410256411,4254.871794871796,3996.410256410257,4406.666666666667,4111.282051282052,4266.666666666667,4322.564102564103,4521.538461538462,4412.820512820514,1676.0,1686.0,1632.934,1519.3995361328125,0.0,0.0,0.0,0.0
1631244,90.0,0.0,493.0,4467.179487179487,4082.0512820512827,4292.820512820514,4812.307692307693,3776.9230769230776,4236.410256410257,4255.8974358974365,4003.076923076924,4415.384615384616,4109.2307692307695,4266.666666666667,4321.025641025642,4513.333333333334,4408.205128205129,1677.0,1687.0,1632.942,1519.3995361328125,0.0,0.0,0.0,0.0
1631244,91.0,0.0,489.0,4477.948717948719,4088.205128205129,4302.564102564103,4814.358974358975,3775.8974358974365,4232.307692307693,4260.000000000001,4002.0512820512827,4425.641025641026,4122.051282051282,4268.205128205129,4327.6923076923085,4522.051282051282,4413.333333333334,1678.0,1686.0,1632.949,1519.3995361328125,0.0,0.0,0.0,0.0
1631244,92.0,0.0,0.0,4495.384615384616,4106.666666666667,4313.846153846154,4815.384615384616,3782.0512820512827,4229.74358974359,4264.615384615385,4000.0000000000005,4432.307692307693,4136.923076923077,4267.6923076923085,4334.871794871796,4540.000000000001,4432.820512820514,1678.0,1686.0,1632.958,1519.3995361328125,0.0,0.0,0.0,0.0
1631244,93.0,0.0,316.0,4497.435897435898,4111.794871794872,4316.923076923077,4810.256410256411,3777.9487179487182,4230.256410256411,4263.589743589744,4001.538461538462,4434.871794871796,4137.435897435898,4266.153846153847,4333.846153846154,4543.076923076924,4441.538461538462,1678.0,1687.0,1632.965,1519.3995361328125,0.0,0.0,0.0,0.0
1631244,94.0,0.0,493.0,4483.589743589744,4097.948717948719,4307.6923076923085,4813.333333333334,3766.1538461538466,4230.256410256411,4260.000000000001,3996.410256410257,4423.589743589744,4121.538461538462,4268.205128205129,4326.666666666667,4523.076923076924,4427.6923076923085,1679.0,1687.0,1632.974,1519.3995361328125,0.0,0.0,0.0,0.0
1631245,95.0,0.0,489.0,4480.000000000001,4091.2820512820517,4303.589743589744,4811.794871794872,3765.6410256410263,4228.717948717949,4258.974358974359,3989.7435897435903,4410.769230769231,4110.769230769231,4268.205128205129,4322.051282051282,4513.846153846154,4418.974358974359,1679.0,1686.0,1632.981,1519.3995361328125,0.0,0.0,0.0,0.0
1631245,96.0,0.0,0.0,4485.641025641026,4093.8461538461543,4309.2307692307695,4812.820512820514,3771.794871794872,4222.564102564103,4258.974358974359,3992.307692307693,4408.717948717949,4111.282051282052,4267.179487179487,4325.128205128206,4520.512820512821,4423.076923076924,1679.0,1686.0,1632.989,1519.3995361328125,0.0,0.0,0.0,0.0
1631246,97.0,0.0,316.0,4483.589743589744,4090.2564102564106,4306.153846153847,4813.333333333334,3771.794871794872,4221.025641025642,4257.435897435898,3997.435897435898,4410.256410256411,4111.282051282052,4267.179487179487,4327.179487179487,4514.871794871796,4422.564102564103,1680.0,1684.0,1632.997,1519.3995361328125,0.0,0.0,0.0,0.0
1631246,98.0,0.0,493.0,4481.538461538462,4087.692307692308,4302.564102564103,4805.128205128206,3770.2564102564106,4222.051282051282,4258.974358974359,4002.564102564103,4424.102564102564,4117.948717948719,4266.153846153847,4327.6923076923085,4510.256410256411,4421.025641025642,1678.0,1685.0,1633.004,1519.3995361328125,0.0,0.0,0.0,0.0
1631246,99.0,0.0,489.0,4482.564102564103,4089.23076923077,4308.717948717949,4813.333333333334,3770.7692307692314,4219.48717948718,4264.615384615385,4003.076923076924,4433.333333333334,4128.205128205129,4268.717948717949,4332.307692307693,4515.8974358974365,4424.102564102564,1680.0,1684.0,1633.013,1519.3995361328125,0.0,0.0,0.0,0.0
1631372,100.0,0.0,0.0,4482.051282051282,4091.2820512820517,4312.820512820514,4817.435897435898,3772.307692307693,4223.589743589744,4265.641025641026,3992.820512820513,4417.435897435898,4125.641025641026,4269.74358974359,4331.794871794872,4517.435897435898,4424.102564102564,1679.0,1683.0,1633.021,1519.524658203125,0.0,0.0,0.0,0.0
1631372,101.0,0.0,316.0,4488.717948717949,4098.974358974359,4314.871794871796,4811.282051282052,3772.307692307693,4224.615384615385,4257.948717948719,3986.1538461538466,4400.512820512821,4122.564102564103,4267.179487179487,4332.820512820514,4520.512820512821,4432.307692307693,1680.0,1684.0,1633.029,1519.524658203125,0.0,0.0,0.0,0.0
1631372,102.0,0.0,493.0,4501.025641025642,4109.74358974359,4324.102564102564,4811.282051282052,3771.2820512820517,4210.256410256411,4253.846153846154,3993.333333333334,4403.076923076924,4129.74358974359,4267.179487179487,4339.48717948718,4530.256410256411,4449.2307692307695,1680.0,1683.0,1633.036,1519.524658203125,0.0,0.0,0.0,0.0
1631372,103.0,0.0,489.0,4501.538461538462,4107.6923076923085,4326.666666666667,4809.2307692307695,3774.8717948717954,4213.846153846154,4262.051282051282,3997.435897435898,4407.6923076923085,4127.179487179487,4267.6923076923085,4336.410256410257,4528.205128205129,4447.6923076923085,1680.0,1684.0,1633.044,1519.524658203125,0.0,0.0,0.0,0.0
1631373,104.0,0.0,0.0,4493.846153846154,4096.923076923077,4319.48717948718,4814.358974358975,3781.538461538462,4232.820512820514,4267.6923076923085,3993.8461538461543,4405.641025641026,4115.384615384616,4268.205128205129,4330.769230769231,4516.410256410257,4430.769230769231,1681.0,1684.0,1633.052,1519.524658203125,0.0,0.0,0.0,0.0
1631373,105.0,0.0,316.0,4496.923076923077,4098.461538461539,4321.538461538462,4814.871794871796,3781.0256410256416,4233.333333333334,4268.205128205129,3998.9743589743593,4414.358974358975,4121.538461538462,4268.717948717949,4334.871794871796,4518.974358974359,4430.769230769231,1681.0,1685.0,1633.06,1519.524658203125,0.0,0.0,0.0,0.0
1631373,106.0,0.0,493.0,4504.615384615385,4106.153846153847,4328.205128205129,4808.205128205129,3777.435897435898,4225.641025641026,4271.794871794872,4009.23076923077,4423.589743589744,4129.2307692307695,4267.179487179487,4338.461538461539,4526.666666666667,4444.102564102564,1683.0,1685.0,1633.068,1519.524658203125,0.0,0.0,0.0,0.0
1631373,107.0,0.0,489.0,4505.128205128206,4102.564102564103,4325.128205128206,4810.769230769231,3778.9743589743593,4224.102564102564,4272.307692307693,4011.2820512820517,4418.974358974359,4124.102564102564,4267.6923076923085,4336.410256410257,4523.589743589744,4444.615384615385,1683.0,1686.0,1633.076,1519.524658203125,0.0,0.0,0.0,0.0
1631373,108.0,0.0,0.0,4502.051282051282,4096.923076923077,4320.512820512821,4809.2307692307695,3782.0512820512827,4223.076923076924,4270.769230769231,4012.820512820513,4426.666666666667,4124.102564102564,4269.2307692307695,4330.769230769231,4517.948717948719,4437.435897435898,1683.0,1684.0,1633.082,1519.524658203125,0.0,0.0,0.0,0.0
1631373,109.0,0.0,316.0,4493.846153846154,4090.7692307692314,4315.8974358974365,4814.358974358975,3781.538461538462,4228.717948717949,4268.205128205129,3997.435897435898,4435.384615384616,4121.025641025642,4270.256410256411,4324.102564102564,4507.6923076923085,4430.256410256411,1682.0,1685.0,1633.091,1519.524658203125,0.0,0.0,0.0,0.0
1631373,110.0,0.0,493.0,4491.282051282052,4087.1794871794878,4311.794871794872,4817.948717948719,3779.48717948718,4235.384615384616,4263.076923076924,3958.9743589743593,4411.794871794872,4108.205128205129,4266.666666666667,4325.128205128206,4501.025641025642,4428.205128205129,1685.0,1683.0,1633.098,1519.524658203125,0.0,0.0,0.0,0.0
1631373,111.0,0.0,489.0,4497.435897435898,4091.2820512820517,4314.358974358975,4809.743589743591,3779.48717948718,4231.794871794872,4259.48717948718,3927.692307692308,4388.205128205129,4104.102564102564,4264.615384615385,4330.769230769231,4506.153846153847,4433.333333333334,1684.0,1684.0,1633.106,1519.524658203125,0.0,0.0,0.0,0.0
1631374,112.0,0.0,0.0,4497.948717948719,4092.820512820513,4317.948717948719,4811.282051282052,3780.512820512821,4227.179487179487,4260.000000000001,3932.820512820513,4404.102564102564,4111.794871794872,4267.179487179487,4333.846153846154,4510.769230769231,4434.871794871796,1684.0,1685.0,1633.115,1519.524658203125,0.0,0.0,0.0,0.0
1631374,113.0,0.0,316.0,4499.48717948718,4095.3846153846157,4323.589743589744,4810.256410256411,3782.0512820512827,4229.74358974359,4264.615384615385,3967.1794871794878,4423.589743589744,4121.538461538462,4267.6923076923085,4335.8974358974365,4516.923076923077,4437.948717948719,1684.0,1685.0,1633.122,1519.524658203125,0.0,0.0,0.0,0.0
1631374,114.0,0.0,493.0,4507.6923076923085,4103.076923076924,4331.282051282052,4811.282051282052,3782.0512820512827,4226.153846153847,4268.205128205129,3999.48717948718,4421.025641025642,4130.256410256411,4268.717948717949,4339.48717948718,4527.179487179488,4449.743589743591,1684.0,1686.0,1633.129,1519.524658203125,0.0,0.0,0.0,0.0
1631374,115.0,0.0,489.0,4505.641025641026,4101.538461538462,4330.256410256411,4811.794871794872,3780.512820512821,4222.051282051282,4268.717948717949,4007.1794871794878,4421.025641025642,4128.717948717949,4267.6923076923085,4337.948717948719,4521.538461538462,4451.282051282052,1683.0,1686.0,1633.138,1519.524658203125,0.0,0.0,0.0,0.0
1631502,116.0,0.0,0.0,4491.794871794872,4091.7948717948725,4323.589743589744,4806.666666666667,3780.0000000000005,4226.153846153847,4268.205128205129,4001.0256410256416,4422.564102564103,4117.435897435898,4265.128205128206,4329.743589743591,4505.641025641026,4438.974358974359,1683.0,1686.0,1633.145,1519.649658203125,0.0,0.0,0.0,0.0
1631502,117.0,0.0,316.0,4486.153846153847,4088.205128205129,4321.025641025642,4812.307692307693,3780.0000000000005,4224.615384615385,4264.615384615385,4002.564102564103,4418.974358974359,4115.384615384616,4270.256410256411,4327.6923076923085,4508.717948717949,4431.794871794872,1683.0,1685.0,1633.154,1519.649658203125,0.0,0.0,0.0,0.0
1631502,118.0,0.0,493.0,4486.153846153847,4085.1282051282055,4321.538461538462,4811.794871794872,3776.410256410257,4221.538461538462,4262.564102564103,4003.589743589744,4417.435897435898,4119.48717948718,4269.74358974359,4326.153846153847,4515.384615384616,4431.794871794872,1683.0,1685.0,1633.161,1519.649658203125,0.0,0.0,0.0,0.0
1631502,119.0,0.0,489.0,4479.48717948718,4077.435897435898,4315.8974358974365,4809.2307692307695,3772.307692307693,4227.6923076923085,4266.153846153847,4002.564102564103,4416.923076923077,4114.358974358975,4263.589743589744,4325.641025641026,4501.538461538462,4426.666666666667,1683.0,1685.0,1633.169,1519.649658203125,0.0,0.0,0.0,0.0
1631502,120.0,0.0,0.0,4478.461538461539,4078.461538461539,4312.820512820514,4810.256410256411,3774.8717948717954,4226.153846153847,4266.666666666667,4007.692307692308,4421.025641025642,4112.307692307693,4264.102564102564,4330.769230769231,4495.384615384616,4424.102564102564,1683.0,1687.0,1633.176,1519.649658203125,0.0,0.0,0.0,0.0
1631503,121.0,0.0,316.0,4482.564102564103,4086.666666666667,4317.948717948719,4810.256410256411,3777.435897435898,4223.076923076924,4263.589743589744,4009.7435897435903,4422.564102564103,4118.974358974359,4266.153846153847,4331.794871794872,4507.6923076923085,4432.307692307693,1682.0,1687.0,1633.185,1519.649658203125,0.0,0.0,0.0,0.0
1631503,122.0,0.0,493.0,4478.461538461539,4089.23076923077,4321.538461538462,4817.948717948719,3778.9743589743593,4228.717948717949,4263.589743589744,4008.205128205129,4414.358974358975,4118.461538461539,4268.205128205129,4330.256410256411,4510.769230769231,4436.410256410257,1683.0,1687.0,1633.192,1519.649658203125,0.0,0.0,0.0,0.0
1631503,123.0,0.0,489.0,4473.846153846154,4087.1794871794878,4318.461538461539,4815.8974358974365,3779.48717948718,4233.333333333334,4268.205128205129,4011.7948717948725,4418.974358974359,4114.358974358975,4267.179487179487,4331.794871794872,4506.666666666667,4433.846153846154,1682.0,1686.0,1633.2,1519.649658203125,0.0,0.0,0.0,0.0
1631503,124.0,0.0,0.0,4473.846153846154,4082.0512820512827,4313.333333333334,4808.717948717949,3778.461538461539,4230.256410256411,4268.205128205129,4012.307692307693,4426.666666666667,4116.410256410257,4267.179487179487,4331.282051282052,4506.153846153847,4430.256410256411,1681.0,1685.0,1633.207,1519.649658203125,0.0,0.0,0.0,0.0
1631503,125.0,0.0,316.0,4476.410256410257,4081.0256410256416,4312.307692307693,4812.307692307693,3778.461538461539,4226.153846153847,4263.589743589744,4002.564102564103,4410.256410256411,4114.358974358975,4267.179487179487,4328.717948717949,4505.128205128206,4430.256410256411,1681.0,1685.0,1633.215,1519.649658203125,0.0,0.0,0.0,0.0
1631503,126.0,0.0,493.0,4482.051282051282,4090.7692307692314,4321.025641025642,4810.769230769231,3777.435897435898,4224.615384615385,4263.589743589744,4001.538461538462,4405.128205128206,4117.435897435898,4264.102564102564,4330.769230769231,4512.307692307693,4438.461538461539,1680.0,1687.0,1633.223,1519.649658203125,0.0,0.0,0.0,0.0
1631503,127.0,0.0,489.0,4486.666666666667,4095.8974358974365,4328.205128205129,4813.333333333334,3774.8717948717954,4224.615384615385,4262.564102564103,4012.307692307693,4426.666666666667,4125.641025641026,4267.6923076923085,4335.384615384616,4521.538461538462,4446.666666666667,1680.0,1686.0,1633.231,1519.649658203125,0.0,0.0,0.0,0.0
1631504,128.0,0.0,0.0,4480.512820512821,4090.2564102564106,4325.128205128206,4814.358974358975,3772.820512820513,4229.2307692307695,4258.974358974359,4016.410256410257,4428.717948717949,4117.948717948719,4270.256410256411,4330.769230769231,4513.333333333334,4442.051282051282,1679.0,1687.0,1633.239,1519.649658203125,0.0,0.0,0.0,0.0
1631504,0.0,0.0,512.0,4475.384615384616,4086.666666666667,4320.000000000001,4809.743589743591,3774.358974358975,4231.794871794872,4256.923076923077,4011.7948717948725,4410.256410256411,4102.051282051282,4267.179487179487,4323.076923076924,4500.512820512821,4429.2307692307695,1680.0,1686.0,1633.247,1519.649658203125,0.0,0.0,0.0,0.0
1631504,1.0,0.0,0.0,4484.102564102564,4090.7692307692314,4324.615384615385,4811.794871794872,3776.410256410257,4226.153846153847,4261.538461538462,4018.461538461539,4415.384615384616,4110.256410256411,4266.153846153847,4328.205128205129,4506.153846153847,4432.820512820514,1678.0,1685.0,1633.255,1519.649658203125,0.0,0.0,0.0,0.0
1631504,2.0,0.0,508.0,4491.794871794872,4096.923076923077,4332.307692307693,4809.2307692307695,3778.9743589743593,4226.153846153847,4271.282051282052,4032.307692307693,4437.948717948719,4129.2307692307695,4266.666666666667,4335.384615384616,4520.000000000001,4445.641025641026,1678.0,1685.0,1633.262,1519.649658203125,0.0,0.0,0.0,0.0
1631526,3.0,0.0,531.0,4487.6923076923085,4095.3846153846157,4330.769230769231,4813.846153846154,3782.564102564103,4232.820512820514,4274.358974358975,4030.2564102564106,4430.256410256411,4123.076923076924,4267.6923076923085,4332.307692307693,4516.410256410257,4442.564102564103,1679.0,1683.0,1633.27,1519.7747802734375,0.0,0.0,0.0,0.0
1631526,4.0,0.0,501.0,4486.666666666667,4093.8461538461543,4330.769230769231,4816.410256410257,3781.0256410256416,4234.358974358975,4271.794871794872,4027.692307692308,4415.8974358974365,4117.435897435898,4267.179487179487,4329.743589743591,4512.820512820514,4440.000000000001,1677.0,1684.0,1633.278,1519.7747802734375,0.0,0.0,0.0,0.0
1631527,5.0,0.0,551.0,4491.282051282052,4096.410256410257,4333.333333333334,4807.6923076923085,3778.461538461539,4230.769230769231,4268.717948717949,4034.8717948717954,4425.128205128206,4127.179487179487,4266.153846153847,4333.846153846154,4523.076923076924,4446.666666666667,1678.0,1683.0,1633.287,1519.7747802734375,0.0,0.0,0.0,0.0
1631527,6.0,0.0,548.0,4483.589743589744,4090.7692307692314,4325.641025641026,4812.307692307693,3779.48717948718,4229.74358974359,4262.051282051282,4034.358974358975,4424.615384615385,4118.461538461539,4266.666666666667,4331.794871794872,4515.8974358974365,4441.538461538462,1678.0,1684.0,1633.294,1519.7747802734375,0.0,0.0,0.0,0.0
1631873,7.0,0.0,325.0,4472.820512820514,4084.615384615385,4317.948717948719,4811.794871794872,3778.9743589743593,4235.8974358974365,4258.974358974359,4025.1282051282055,4405.641025641026,4099.48717948718,4266.153846153847,4323.589743589744,4494.358974358975,4425.128205128206,1678.0,1683.0,1633.302,1519.8060302734375,0.0,0.0,0.0,0.0
1631873,8.0,0.0,457.0,4474.871794871796,4083.076923076924,4316.923076923077,4808.717948717949,3777.435897435898,4237.948717948719,4258.461538461539,4017.435897435898,4398.461538461539,4096.410256410257,4266.666666666667,4321.538461538462,4487.6923076923085,4420.512820512821,1679.0,1684.0,1633.309,1519.8060302734375,0.0,0.0,0.0,0.0
1631873,9.0,0.0,477.0,4481.025641025642,4087.1794871794878,4315.8974358974365,4813.333333333334,3778.9743589743593,4230.769230769231,4253.333333333334,4011.7948717948725,4400.000000000001,4097.948717948719,4266.153846153847,4325.128205128206,4493.846153846154,4428.717948717949,1681.0,1683.0,1633.318,1519.8060302734375,0.0,0.0,0.0,0.0
1631873,10.0,0.0,493.0,4487.6923076923085,4098.974358974359,4321.025641025642,4812.307692307693,3780.512820512821,4223.589743589744,4253.846153846154,4019.48717948718,4401.025641025642,4101.538461538462,4265.641025641026,4327.6923076923085,4504.102564102564,4438.461538461539,1680.0,1683.0,1633.325,1519.8060302734375,0.0,0.0,0.0,0.0
1631874,11.0,0.0,489.0,4478.974358974359,4086.1538461538466,4323.589743589744,4812.307692307693,3781.0256410256416,4222.051282051282,4264.615384615385,4039.48717948718,4416.923076923077,4115.8974358974365,4270.256410256411,4329.743589743591,4503.589743589744,4438.461538461539,1683.0,1683.0,1633.333,1519.8060302734375,0.0,0.0,0.0,0.0
1631874,12.0,0.0,0.0,4465.128205128206,4065.1282051282055,4313.846153846154,4808.717948717949,3786.666666666667,4229.2307692307695,4273.333333333334,4047.1794871794878,4434.871794871796,4121.025641025642,4270.256410256411,4329.743589743591,4485.641025641026,4426.666666666667,1683.0,1683.0,1633.341,1519.8060302734375,0.0,0.0,0.0,0.0
1631875,13.0,0.0,316.0,4481.538461538462,4090.2564102564106,4320.000000000001,4809.2307692307695,3790.7692307692314,4236.410256410257,4268.717948717949,4033.8461538461543,4427.6923076923085,4108.717948717949,4266.153846153847,4327.179487179487,4475.384615384616,4420.512820512821,1684.0,1685.0,1633.348,1519.8060302734375,0.0,0.0,0.0,0.0
1631875,14.0,0.0,493.0,4511.282051282052,4136.923076923077,4343.076923076924,4812.820512820514,3790.2564102564106,4230.256410256411,4259.48717948718,4019.48717948718,4409.2307692307695,4099.48717948718,4265.128205128206,4326.153846153847,4475.384615384616,4425.128205128206,1684.0,1685.0,1633.356,1519.8060302734375,0.0,0.0,0.0,0.0
1631876,15.0,0.0,489.0,4518.461538461539,4148.205128205129,4352.820512820514,4805.641025641026,3788.205128205129,4224.102564102564,4260.000000000001,4026.1538461538466,4416.410256410257,4103.076923076924,4264.615384615385,4327.6923076923085,4463.076923076924,4427.6923076923085,1683.0,1688.0,1633.364,1519.8060302734375,0.0,0.0,0.0,0.0
1631876,16.0,0.0,0.0,4510.256410256411,4141.025641025642,4351.282051282052,4812.820512820514,3791.2820512820517,4227.179487179487,4266.666666666667,4038.461538461539,4433.333333333334,4105.128205128206,4267.179487179487,4330.769230769231,4445.641025641026,4425.128205128206,1684.0,1687.0,1633.372,1519.8060302734375,0.0,0.0,0.0,0.0
1631876,17.0,0.0,0.0,4505.128205128206,4140.000000000001,4350.769230769231,4816.923076923077,3793.333333333334,4231.282051282052,4268.205128205129,4029.23076923077,4421.538461538462,4098.461538461539,4265.128205128206,4327.179487179487,4437.435897435898,4418.461538461539,1683.0,1687.0,1633.379,1519.8060302734375,0.0,0.0,0.0,0.0
1631877,18.0,0.0,0.0,4495.8974358974365,4131.794871794872,4342.564102564103,4808.205128205129,3787.692307692308,4229.2307692307695,4257.948717948719,4016.9230769230776,4395.384615384616,4086.1538461538466,4261.538461538462,4320.000000000001,4426.666666666667,4406.153846153847,1683.0,1687.0,1633.388,1519.8060302734375,0.0,0.0,0.0,0.0
1631877,19.0,0.0,0.0,4489.2307692307695,4123.589743589744,4332.307692307693,4807.6923076923085,3782.0512820512827,4228.205128205129,4249.2307692307695,4016.9230769230776,4386.666666666667,4074.358974358975,4265.128205128206,4319.48717948718,4417.435897435898,4399.48717948718,1682.0,1686.0,1633.395,1519.8060302734375,0.0,0.0,0.0,0.0
1631877,20.0,0.0,0.0,4488.717948717949,4126.666666666667,4332.820512820514,4809.743589743591,3782.0512820512827,4232.307692307693,4256.410256410257,4018.461538461539,4399.48717948718,4078.461538461539,4267.6923076923085,4322.564102564103,4425.128205128206,4404.615384615385,1682.0,1686.0,1633.403,1519.8060302734375,0.0,0.0,0.0,0.0
1631877,21.0,0.0,0.0,4485.128205128206,4127.6923076923085,4333.846153846154,4814.871794871796,3783.076923076924,4230.769230769231,4264.102564102564,4024.1025641025644,4420.000000000001,4092.307692307693,4268.717948717949,4328.205128205129,4433.846153846154,4410.256410256411,1680.0,1686.0,1633.411,1519.8060302734375,0.0,0.0,0.0,0.0
1631878,22.0,0.0,0.0,4481.538461538462,4121.538461538462,4328.205128205129,4812.307692307693,3781.0256410256416,4225.128205128206,4259.48717948718,4030.2564102564106,4423.076923076924,4094.8717948717954,4266.153846153847,4325.641025641026,4432.307692307693,4408.717948717949,1681.0,1685.0,1633.42,1519.8060302734375,0.0,0.0,0.0,0.0
1631878,23.0,0.0,0.0,4476.410256410257,4114.871794871796,4321.025641025642,4808.205128205129,3781.0256410256416,4229.74358974359,4254.358974358975,4020.5128205128212,4402.564102564103,4079.48717948718,4264.615384615385,4314.871794871796,4420.512820512821,4396.923076923077,1680.0,1684.0,1633.426,1519.8060302734375,0.0,0.0,0.0,0.0
1631878,24.0,0.0,0.0,4474.358974358975,4113.333333333334,4321.538461538462,4814.358974358975,3781.0256410256416,4231.282051282052,4255.8974358974365,4009.7435897435903,4383.589743589744,4065.6410256410263,4267.179487179487,4316.410256410257,4411.794871794872,4390.256410256411,1679.0,1685.0,1633.435,1519.8060302734375,0.0,0.0,0.0,0.0
1631878,25.0,0.0,0.0,4483.076923076924,4119.48717948718,4333.333333333334,4811.282051282052,3777.435897435898,4221.538461538462,4255.8974358974365,4022.0512820512827,4395.8974358974365,4074.8717948717954,4265.128205128206,4325.641025641026,4422.564102564103,4404.615384615385,1680.0,1683.0,1633.442,1519.8060302734375,0.0,0.0,0.0,0.0
1631879,26.0,0.0,0.0,4491.282051282052,4125.641025641026,4338.974358974359,4813.333333333334,3777.435897435898,4215.8974358974365,4252.820512820514,4039.48717948718,4422.051282051282,4093.8461538461543,4266.153846153847,4330.256410256411,4437.435897435898,4417.948717948719,1679.0,1685.0,1633.45,1519.8060302734375,0.0,0.0,0.0,0.0
1631879,27.0,0.0,0.0,4494.358974358975,4127.6923076923085,4337.948717948719,4816.410256410257,3780.0000000000005,4217.435897435898,4253.333333333334,4040.0000000000005,4425.641025641026,4099.48717948718,4268.717948717949,4329.743589743591,4438.461538461539,4413.846153846154,1679.0,1684.0,1633.458,1519.8060302734375,0.0,0.0,0.0,0.0
1631879,28.0,0.0,0.0,4491.282051282052,4128.717948717949,4334.871794871796,4809.2307692307695,3781.0256410256416,4224.615384615385,4256.410256410257,4026.666666666667,4407.179487179487,4090.7692307692314,4265.128205128206,4326.153846153847,4430.256410256411,4407.179487179487,1679.0,1684.0,1633.466,1519.8060302734375,0.0,0.0,0.0,0.0
1631879,29.0,0.0,0.0,4481.538461538462,4121.025641025642,4326.153846153847,4812.820512820514,3781.538461538462,4232.820512820514,4256.923076923077,4024.615384615385,4394.871794871796,4079.48717948718,4263.589743589744,4318.974358974359,4421.538461538462,4400.512820512821,1679.0,1684.0,1633.473,1519.8060302734375,0.0,0.0,0.0,0.0
1631879,30.0,0.0,0.0,4477.948717948719,4114.358974358975,4323.076923076924,4813.846153846154,3781.538461538462,4229.2307692307695,4258.461538461539,4032.820512820513,4401.538461538462,4077.435897435898,4266.666666666667,4315.384615384616,4421.025641025642,4397.435897435898,1678.0,1684.0,1633.481,1519.8060302734375,0.0,0.0,0.0,0.0
1631880,31.0,0.0,0.0,4481.025641025642,4116.923076923077,4326.666666666667,4812.820512820514,3781.0256410256416,4214.871794871796,4258.461538461539,4026.1538461538466,4402.564102564103,4078.9743589743593,4267.6923076923085,4320.000000000001,4422.051282051282,4400.512820512821,1679.0,1684.0,1633.489,1519.8060302734375,0.0,0.0,0.0,0.0
1631880,32.0,0.0,0.0,4483.076923076924,4121.025641025642,4327.6923076923085,4815.8974358974365,3782.0512820512827,4213.846153846154,4255.8974358974365,4014.8717948717954,4394.871794871796,4076.9230769230776,4266.666666666667,4321.025641025642,4418.461538461539,4396.410256410257,1679.0,1685.0,1633.497,1519.8060302734375,0.0,0.0,0.0,0.0
1631880,33.0,0.0,0.0,4484.615384615385,4123.589743589744,4332.820512820514,4811.282051282052,3782.564102564103,4221.025641025642,4258.461538461539,4013.333333333334,4394.358974358975,4076.410256410257,4265.641025641026,4318.974358974359,4417.948717948719,4393.333333333334,1680.0,1686.0,1633.505,1519.8060302734375,0.0,0.0,0.0,0.0
1631880,34.0,0.0,0.0,4488.205128205129,4127.179487179487,4341.025641025642,4813.846153846154,3782.564102564103,4214.871794871796,4263.076923076924,4009.7435897435903,4393.846153846154,4078.461538461539,4265.641025641026,4321.538461538462,4418.974358974359,4401.025641025642,1680.0,1686.0,1633.512,1519.8060302734375,0.0,0.0,0.0,0.0
1631880,35.0,0.0,0.0,4487.179487179488,4128.717948717949,4337.948717948719,4811.282051282052,3785.1282051282055,4214.871794871796,4262.051282051282,4000.0000000000005,4385.128205128206,4072.820512820513,4264.615384615385,4322.051282051282,4412.307692307693,4399.48717948718,1680.0,1686.0,1633.521,1519.8060302734375,0.0,0.0,0.0,0.0
1631880,36.0,0.0,0.0,4484.615384615385,4125.128205128206,4329.2307692307695,4808.205128205129,3784.615384615385,4221.538461538462,4258.974358974359,3994.358974358975,4374.358974358975,4061.0256410256416,4267.179487179487,4315.8974358974365,4407.179487179487,4386.666666666667,1681.0,1684.0,1633.528,1519.8060302734375,0.0,0.0,0.0,0.0
1631880,37.0,0.0,0.0,4483.589743589744,4120.000000000001,4324.615384615385,4810.256410256411,3782.0512820512827,4221.538461538462,4257.948717948719,3994.8717948717954,4367.179487179487,4051.7948717948725,4269.2307692307695,4313.333333333334,4406.153846153847,4381.538461538462,1680.0,1685.0,1633.536,1519.8060302734375,0.0,0.0,0.0,0.0
1631880,38.0,0.0,0.0,4477.435897435898,4114.358974358975,4319.48717948718,4806.153846153847,3778.461538461539,4223.589743589744,4254.871794871796,3997.9487179487182,4365.128205128206,4051.2820512820517,4266.666666666667,4311.794871794872,4399.48717948718,4381.538461538462,1682.0,1683.0,1633.544,1519.8060302734375,0.0,0.0,0.0,0.0
1631881,39.0,0.0,0.0,4474.358974358975,4115.384615384616,4320.512820512821,4813.846153846154,3777.435897435898,4220.512820512821,4251.794871794872,4002.564102564103,4370.769230769231,4055.3846153846157,4266.666666666667,4313.846153846154,4401.025641025642,4383.076923076924,1681.0,1684.0,1633.553,1519.8060302734375,0.0,0.0,0.0,0.0
1631881,40.0,0.0,0.0,4488.205128205129,4130.769230769231,4336.410256410257,4815.384615384616,3782.564102564103,4213.333333333334,4257.435897435898,4005.6410256410263,4381.538461538462,4067.1794871794878,4268.717948717949,4322.564102564103,4420.512820512821,4395.384615384616,1682.0,1684.0,1633.56,1519.8060302734375,0.0,0.0,0.0,0.0
1631881,41.0,0.0,0.0,4503.589743589744,4140.000000000001,4345.128205128206,4809.743589743591,3785.1282051282055,4216.410256410257,4266.666666666667,4008.717948717949,4391.282051282052,4077.435897435898,4266.666666666667,4329.2307692307695,4430.256410256411,4401.025641025642,1681.0,1683.0,1633.567,1519.8060302734375,0.0,0.0,0.0,0.0
1631881,42.0,0.0,0.0,4496.410256410257,4130.256410256411,4333.846153846154,4812.307692307693,3780.512820512821,4222.051282051282,4262.051282051282,4005.1282051282055,4390.256410256411,4071.2820512820517,4265.128205128206,4323.589743589744,4417.435897435898,4392.307692307693,1681.0,1685.0,1633.575,1519.8060302734375,0.0,0.0,0.0,0.0
1631881,43.0,0.0,0.0,4488.717948717949,4125.128205128206,4328.717948717949,4810.769230769231,3779.48717948718,4223.589743589744,4257.435897435898,3997.9487179487182,4385.128205128206,4064.1025641025644,4265.641025641026,4316.410256410257,4414.358974358975,4388.205128205129,1681.0,1685.0,1633.583,1519.8060302734375,0.0,0.0,0.0,0.0
1631881,44.0,0.0,0.0,4495.8974358974365,4131.282051282052,4337.435897435898,4814.358974358975,3783.589743589744,4221.538461538462,4261.025641025642,3990.2564102564106,4379.48717948718,4066.666666666667,4267.179487179487,4323.589743589744,4425.128205128206,4394.871794871796,1681.0,1685.0,1633.591,1519.8060302734375,0.0,0.0,0.0,0.0
1631881,45.0,0.0,0.0,4496.923076923077,4130.769230769231,4336.923076923077,4812.820512820514,3782.0512820512827,4216.923076923077,4263.076923076924,3980.5128205128212,4375.384615384616,4065.6410256410263,4265.128205128206,4326.153846153847,4422.564102564103,4397.435897435898,1680.0,1684.0,1633.598,1519.8060302734375,0.0,0.0,0.0,0.0
1631881,46.0,0.0,0.0,4489.2307692307695,4122.051282051282,4327.6923076923085,4807.179487179488,3778.461538461539,4212.820512820514,4263.076923076924,3988.205128205129,4384.615384615385,4066.1538461538466,4265.128205128206,4319.48717948718,4412.307692307693,4389.743589743591,1681.0,1683.0,1633.606,1519.8060302734375,0.0,0.0,0.0,0.0
1631882,47.0,0.0,0.0,4492.820512820514,4123.589743589744,4326.666666666667,4813.846153846154,3779.48717948718,4212.820512820514,4264.102564102564,3998.461538461539,4392.307692307693,4070.7692307692314,4268.205128205129,4318.974358974359,4410.256410256411,4384.102564102564,1680.0,1683.0,1633.614,1519.8060302734375,0.0,0.0,0.0,0.0
1631882,48.0,0.0,0.0,4496.410256410257,4128.205128205129,4328.205128205129,4811.282051282052,3781.538461538462,4216.410256410257,4263.076923076924,3985.1282051282055,4386.666666666667,4071.2820512820517,4266.666666666667,4320.512820512821,4415.8974358974365,4390.256410256411,1681.0,1683.0,1633.622,1519.8060302734375,0.0,0.0,0.0,0.0
1631882,49.0,0.0,0.0,4477.948717948719,4110.256410256411,4318.461538461539,4809.743589743591,3779.48717948718,4220.000000000001,4262.564102564103,3975.8974358974365,4384.102564102564,4068.205128205129,4267.6923076923085,4318.461538461539,4409.743589743591,4391.282051282052,1680.0,1683.0,1633.63,1519.8060302734375,0.0,0.0,0.0,0.0
1631882,50.0,0.0,0.0,4472.820512820514,4103.076923076924,4313.333333333334,4813.333333333334,3778.461538461539,4220.000000000001,4265.128205128206,3991.2820512820517,4388.205128205129,4069.7435897435903,4268.205128205129,4321.538461538462,4396.410256410257,4380.000000000001,1680.0,1683.0,1633.638,1519.8060302734375,0.0,0.0,0.0,0.0
1632000,51.0,0.0,0.0,4504.102564102564,4142.051282051282,4332.820512820514,4810.256410256411,3778.9743589743593,4209.74358974359,4261.538461538462,3990.2564102564106,4383.076923076924,4069.7435897435903,4263.589743589744,4323.589743589744,4395.8974358974365,4383.076923076924,1679.0,1683.0,1633.645,1520.150146484375,0.0,0.0,0.0,0.0
1632001,52.0,0.0,0.0,4528.717948717949,4185.641025641026,4354.871794871796,4814.871794871796,3780.512820512821,4201.538461538462,4249.2307692307695,3971.7948717948725,4376.410256410257,4063.076923076924,4265.128205128206,4318.461538461539,4390.256410256411,4391.282051282052,1679.0,1682.0,1633.653,1520.150146484375,0.0,0.0,0.0,0.0
1632001,53.0,0.0,0.0,4527.6923076923085,4201.538461538462,4358.974358974359,4814.871794871796,3784.1025641025644,4209.74358974359,4247.179487179487,3973.333333333334,4381.538461538462,4052.820512820513,4267.179487179487,4311.794871794872,4358.461538461539,4375.384615384616,1677.0,1682.0,1633.661,1520.150146484375,0.0,0.0,0.0,0.0
1632002,54.0,0.0,0.0,4530.769230769231,4213.846153846154,4355.8974358974365,4811.794871794872,3784.1025641025644,4215.384615384616,4247.179487179487,3966.666666666667,4367.179487179487,4029.7435897435903,4265.641025641026,4305.128205128206,4314.358974358975,4351.282051282052,1677.0,1683.0,1633.669,1520.150146484375,0.0,0.0,0.0,0.0
1632002,55.0,0.0,0.0,4540.512820512821,4230.769230769231,4358.461538461539,4810.769230769231,3780.0000000000005,4209.2307692307695,4237.435897435898,3944.615384615385,4336.923076923077,4003.589743589744,4265.128205128206,4298.974358974359,4286.666666666667,4339.48717948718,1677.0,1682.0,1633.677,1520.150146484375,0.0,0.0,0.0,0.0
1632002,56.0,0.0,0.0,4540.512820512821,4237.948717948719,4364.615384615385,4807.179487179488,3778.461538461539,4212.307692307693,4238.461538461539,3948.205128205129,4335.8974358974365,4006.1538461538466,4263.076923076924,4301.538461538462,4280.000000000001,4338.461538461539,1676.0,1684.0,1633.684,1520.150146484375,0.0,0.0,0.0,0.0
1632002,57.0,0.0,0.0,4537.435897435898,4235.384615384616,4367.179487179487,4813.846153846154,3785.1282051282055,4218.461538461539,4249.2307692307695,3969.7435897435903,4349.743589743591,4021.0256410256416,4265.641025641026,4309.2307692307695,4279.48717948718,4342.051282051282,1677.0,1683.0,1633.692,1520.150146484375,0.0,0.0,0.0,0.0
1632002,58.0,0.0,0.0,4528.205128205129,4223.589743589744,4362.051282051282,4813.333333333334,3786.666666666667,4213.333333333334,4250.256410256411,3970.2564102564106,4347.6923076923085,4014.358974358975,4267.179487179487,4305.641025641026,4274.871794871796,4338.461538461539,1676.0,1684.0,1633.7,1520.150146484375,0.0,0.0,0.0,0.0
1632002,59.0,0.0,0.0,4515.8974358974365,4211.794871794872,4354.358974358975,4810.769230769231,3782.0512820512827,4205.128205128206,4245.641025641026,3951.7948717948725,4343.076923076924,4002.0512820512827,4265.128205128206,4299.48717948718,4265.641025641026,4324.102564102564,1677.0,1683.0,1633.708,1520.150146484375,0.0,0.0,0.0,0.0
1632002,60.0,0.0,0.0,4514.871794871796,4208.205128205129,4350.769230769231,4813.333333333334,3781.538461538462,4206.666666666667,4250.769230769231,3938.9743589743593,4349.2307692307695,4008.205128205129,4263.076923076924,4305.641025641026,4262.564102564103,4321.538461538462,1678.0,1682.0,1633.716,1520.150146484375,0.0,0.0,0.0,0.0
1632002,61.0,0.0,0.0,4522.051282051282,4212.307692307693,4356.410256410257,4809.2307692307695,3780.0000000000005,4210.769230769231,4257.948717948719,3941.538461538462,4350.256410256411,4016.410256410257,4262.564102564103,4311.282051282052,4272.307692307693,4333.846153846154,1678.0,1683.0,1633.724,1520.150146484375,0.0,0.0,0.0,0.0
1632002,62.0,0.0,0.0,4523.589743589744,4220.000000000001,4363.589743589744,4815.384615384616,3778.461538461539,4204.102564102564,4255.8974358974365,3950.7692307692314,4346.153846153847,4017.435897435898,4265.641025641026,4314.871794871796,4285.128205128206,4343.589743589744,1679.0,1682.0,1633.731,1520.150146484375,0.0,0.0,0.0,0.0
1632003,63.0,0.0,0.0,4520.512820512821,4221.538461538462,4365.128205128206,4816.923076923077,3780.0000000000005,4200.512820512821,4253.846153846154,3956.410256410257,4351.794871794872,4019.48717948718,4266.153846153847,4315.384615384616,4287.179487179487,4343.076923076924,1680.0,1682.0,1633.739,1520.150146484375,0.0,0.0,0.0,0.0
1632003,64.0,0.0,512.0,4513.333333333334,4209.2307692307695,4354.358974358975,4810.769230769231,3777.435897435898,4207.6923076923085,4255.384615384616,3952.820512820513,4353.333333333334,4013.333333333334,4265.128205128206,4308.717948717949,4275.8974358974365,4331.282051282052,1680.0,1682.0,1633.747,1520.150146484375,0.0,0.0,0.0,0.0
1632003,65.0,0.0,0.0,4506.666666666667,4194.871794871796,4342.564102564103,4812.820512820514,3771.794871794872,4205.641025641026,4252.820512820514,3948.205128205129,4338.974358974359,4001.538461538462,4265.128205128206,4301.538461538462,4264.102564102564,4318.461538461539,1681.0,1683.0,1633.755,1520.150146484375,0.0,0.0,0.0,0.0
1632003,66.0,0.0,508.0,4508.205128205129,4197.948717948719,4345.128205128206,4809.2307692307695,3772.307692307693,4193.333333333334,4248.717948717949,3960.0000000000005,4328.717948717949,4003.076923076924,4263.589743589744,4300.000000000001,4267.6923076923085,4323.076923076924,1682.0,1681.0,1633.763,1520.150146484375,0.0,0.0,0.0,0.0
1632023,67.0,0.0,531.0,4512.307692307693,4207.179487179487,4353.333333333334,4812.307692307693,3775.8974358974365,4190.256410256411,4250.256410256411,3988.717948717949,4332.820512820514,4012.820512820513,4266.666666666667,4307.179487179487,4279.48717948718,4334.871794871796,1681.0,1683.0,1633.771,1520.2752685546875,0.0,0.0,0.0,0.0
1632023,68.0,0.0,501.0,4514.871794871796,4206.666666666667,4352.820512820514,4814.358974358975,3776.9230769230776,4202.051282051282,4255.8974358974365,4007.1794871794878,4340.000000000001,4015.3846153846157,4268.205128205129,4312.307692307693,4284.615384615385,4337.435897435898,1683.0,1683.0,1633.778,1520.2752685546875,0.0,0.0,0.0,0.0
1632023,69.0,0.0,551.0,4513.333333333334,4198.461538461539,4345.128205128206,4807.179487179488,3777.435897435898,4217.435897435898,4257.948717948719,4003.589743589744,4348.205128205129,4010.7692307692314,4263.589743589744,4306.153846153847,4279.48717948718,4331.282051282052,1682.0,1684.0,1633.787,1520.2752685546875,0.0,0.0,0.0,0.0
1632023,70.0,0.0,548.0,4509.2307692307695,4193.846153846154,4343.076923076924,4813.333333333334,3780.512820512821,4222.051282051282,4260.000000000001,4000.0000000000005,4363.076923076924,4014.358974358975,4262.564102564103,4306.153846153847,4276.923076923077,4327.6923076923085,1683.0,1685.0,1633.794,1520.2752685546875,0.0,0.0,0.0,0.0
1632056,71.0,0.0,327.0,4515.8974358974365,4203.589743589744,4352.307692307693,4814.358974358975,3786.1538461538466,4216.410256410257,4266.153846153847,4002.564102564103,4367.179487179487,4030.2564102564106,4265.128205128206,4312.820512820514,4288.205128205129,4338.461538461539,1682.0,1683.0,1633.803,1520.3065185546875,0.0,0.0,0.0,0.0
1632057,72.0,0.0,457.0,4522.051282051282,4209.2307692307695,4356.923076923077,4812.820512820514,3785.1282051282055,4213.846153846154,4260.512820512821,3994.358974358975,4347.179487179487,4027.692307692308,4267.6923076923085,4310.256410256411,4292.307692307693,4340.000000000001,1681.0,1684.0,1633.81,1520.3065185546875,0.0,0.0,0.0,0.0
1632057,73.0,0.0,477.0,4522.051282051282,4206.153846153847,4353.846153846154,4813.333333333334,3777.435897435898,4214.358974358975,4250.256410256411,3984.615384615385,4331.282051282052,4008.717948717949,4267.6923076923085,4306.666666666667,4286.666666666667,4330.769230769231,1681.0,1683.0,1633.817,1520.3065185546875,0.0,0.0,0.0,0.0
1632057,74.0,0.0,493.0,4526.153846153847,4210.256410256411,4358.974358974359,4809.2307692307695,3780.0000000000005,4213.333333333334,4255.384615384616,3986.666666666667,4334.871794871796,4009.7435897435903,4264.102564102564,4310.769230769231,4291.794871794872,4336.410256410257,1681.0,1682.0,1633.825,1520.3065185546875,0.0,0.0,0.0,0.0
1632120,75.0,0.0,489.0,4526.666666666667,4213.846153846154,4361.538461538462,4812.307692307693,3785.6410256410263,4211.282051282052,4257.948717948719,3995.3846153846157,4336.410256410257,4016.9230769230776,4265.128205128206,4313.333333333334,4296.923076923077,4343.076923076924,1681.0,1682.0,1633.834,1520.3377685546875,0.0,0.0,0.0,0.0
1632120,76.0,0.0,0.0,4517.435897435898,4207.179487179487,4355.384615384616,4812.307692307693,3781.538461538462,4212.307692307693,4253.333333333334,3997.435897435898,4331.282051282052,4011.7948717948725,4268.717948717949,4308.205128205129,4292.307692307693,4334.871794871796,1681.0,1682.0,1633.841,1520.3377685546875,0.0,0.0,0.0,0.0
1632120,77.0,0.0,316.0,4517.435897435898,4204.102564102564,4352.820512820514,4813.333333333334,3781.0256410256416,4215.384615384616,4255.8974358974365,3998.9743589743593,4335.384615384616,4014.358974358975,4269.2307692307695,4309.2307692307695,4291.794871794872,4335.8974358974365,1681.0,1682.0,1633.849,1520.3377685546875,0.0,0.0,0.0,0.0
1632120,78.0,0.0,493.0,4530.256410256411,4212.307692307693,4362.051282051282,4814.358974358975,3785.1282051282055,4210.769230769231,4262.051282051282,4007.1794871794878,4346.666666666667,4027.692307692308,4266.153846153847,4316.410256410257,4302.564102564103,4350.256410256411,1680.0,1684.0,1633.857,1520.3377685546875,0.0,0.0,0.0,0.0
1632120,79.0,0.0,489.0,4530.769230769231,4214.871794871796,4365.128205128206,4809.743589743591,3784.1025641025644,4205.128205128206,4259.48717948718,4010.2564102564106,4347.6923076923085,4028.205128205129,4265.641025641026,4313.333333333334,4309.2307692307695,4345.128205128206,1682.0,1684.0,1633.864,1520.3377685546875,0.0,0.0,0.0,0.0
1632121,80.0,0.0,0.0,4513.846153846154,4201.538461538462,4349.2307692307695,4816.923076923077,3782.564102564103,4213.333333333334,4253.333333333334,3999.48717948718,4332.820512820514,4013.8461538461543,4267.6923076923085,4304.102564102564,4296.923076923077,4326.153846153847,1681.0,1684.0,1633.872,1520.3377685546875,0.0,0.0,0.0,0.0
1632121,81.0,0.0,316.0,4505.128205128206,4192.820512820514,4341.025641025642,4815.384615384616,3783.076923076924,4222.564102564103,4253.846153846154,3993.8461538461543,4333.846153846154,4010.7692307692314,4265.641025641026,4303.076923076924,4286.153846153847,4325.641025641026,1681.0,1685.0,1633.88,1520.3377685546875,0.0,0.0,0.0,0.0
1632121,82.0,0.0,493.0,4514.358974358975,4200.000000000001,4349.743589743591,4807.179487179488,3780.512820512821,4212.820512820514,4255.8974358974365,4007.692307692308,4360.512820512821,4027.1794871794878,4267.6923076923085,4311.794871794872,4297.435897435898,4335.8974358974365,1681.0,1684.0,1633.888,1520.3377685546875,0.0,0.0,0.0,0.0
1632247,83.0,0.0,489.0,4522.051282051282,4206.666666666667,4352.820512820514,4810.256410256411,3779.48717948718,4205.128205128206,4253.333333333334,4015.8974358974365,4367.6923076923085,4037.435897435898,4269.2307692307695,4315.384615384616,4310.256410256411,4339.48717948718,1680.0,1686.0,1633.896,1520.400390625,0.0,0.0,0.0,0.0
1632247,84.0,0.0,0.0,4518.461538461539,4203.076923076924,4349.2307692307695,4810.769230769231,3780.512820512821,4213.846153846154,4255.384615384616,4009.7435897435903,4351.794871794872,4034.358974358975,4262.051282051282,4312.820512820514,4309.2307692307695,4340.000000000001,1680.0,1685.0,1633.903,1520.400390625,0.0,0.0,0.0,0.0
1632247,85.0,0.0,316.0,4509.743589743591,4195.8974358974365,4349.2307692307695,4817.435897435898,3779.48717948718,4217.435897435898,4257.948717948719,4007.1794871794878,4345.641025641026,4027.692307692308,4263.076923076924,4311.794871794872,4303.589743589744,4338.974358974359,1680.0,1686.0,1633.911,1520.400390625,0.0,0.0,0.0,0.0
1632248,86.0,0.0,493.0,4506.153846153847,4189.2307692307695,4343.076923076924,4815.384615384616,3775.3846153846157,4212.820512820514,4254.358974358975,4010.2564102564106,4347.179487179487,4023.589743589744,4267.6923076923085,4306.666666666667,4297.435897435898,4333.846153846154,1679.0,1685.0,1633.92,1520.400390625,0.0,0.0,0.0,0.0
1632248,87.0,0.0,489.0,4507.6923076923085,4186.666666666667,4336.410256410257,4806.153846153847,3773.8461538461543,4208.205128205129,4250.256410256411,4015.8974358974365,4344.615384615385,4020.0000000000005,4265.128205128206,4302.051282051282,4294.871794871796,4331.282051282052,1679.0,1685.0,1633.927,1520.400390625,0.0,0.0,0.0,0.0
1632248,88.0,0.0,0.0,4507.179487179488,4191.282051282052,4337.948717948719,4811.282051282052,3777.435897435898,4208.205128205129,4250.256410256411,4023.589743589744,4344.102564102564,4017.9487179487182,4265.641025641026,4305.641025641026,4298.461538461539,4332.820512820514,1680.0,1683.0,1633.936,1520.400390625,0.0,0.0,0.0,0.0
1632248,89.0,0.0,316.0,4505.641025641026,4194.871794871796,4339.48717948718,4811.794871794872,3781.538461538462,4216.410256410257,4253.846153846154,4030.2564102564106,4350.769230769231,4021.0256410256416,4266.153846153847,4305.128205128206,4304.102564102564,4333.333333333334,1678.0,1684.0,1633.944,1520.400390625,0.0,0.0,0.0,0.0
1632248,90.0,0.0,493.0,4506.666666666667,4194.358974358975,4342.564102564103,4814.358974358975,3785.1282051282055,4221.538461538462,4255.8974358974365,4027.692307692308,4357.435897435898,4024.615384615385,4266.153846153847,4305.641025641026,4306.666666666667,4337.435897435898,1680.0,1683.0,1633.95,1520.400390625,0.0,0.0,0.0,0.0
1632248,91.0,0.0,489.0,4510.256410256411,4195.8974358974365,4347.179487179487,4813.333333333334,3787.1794871794878,4222.564102564103,4256.923076923077,4024.1025641025644,4357.435897435898,4026.666666666667,4265.128205128206,4308.205128205129,4306.666666666667,4341.025641025642,1679.0,1683.0,1633.958,1520.400390625,0.0,0.0,0.0,0.0
1632248,92.0,0.0,0.0,4510.769230769231,4195.384615384616,4345.128205128206,4809.2307692307695,3785.1282051282055,4227.6923076923085,4260.512820512821,4029.7435897435903,4356.410256410257,4030.2564102564106,4262.051282051282,4305.641025641026,4308.205128205129,4337.948717948719,1679.0,1684.0,1633.966,1520.400390625,0.0,0.0,0.0,0.0
1632249,93.0,0.0,316.0,4511.794871794872,4192.820512820514,4342.051282051282,4815.384615384616,3786.666666666667,4226.153846153847,4264.615384615385,4038.461538461539,4363.589743589744,4038.9743589743593,4265.128205128206,4308.717948717949,4312.307692307693,4340.000000000001,1680.0,1682.0,1633.974,1520.400390625,0.0,0.0,0.0,0.0
1632249,94.0,0.0,493.0,4513.333333333334,4194.358974358975,4344.615384615385,4811.282051282052,3793.8461538461543,4225.128205128206,4267.6923076923085,4038.461538461539,4369.743589743591,4044.615384615385,4267.6923076923085,4313.333333333334,4314.358974358975,4346.666666666667,1681.0,1684.0,1633.982,1520.400390625,0.0,0.0,0.0,0.0
1632249,95.0,0.0,489.0,4508.205128205129,4193.333333333334,4342.564102564103,4809.2307692307695,3793.8461538461543,4231.282051282052,4268.205128205129,4032.820512820513,4361.025641025642,4035.3846153846157,4267.6923076923085,4308.717948717949,4310.256410256411,4340.000000000001,1682.0,1683.0,1633.989,1520.400390625,0.0,0.0,0.0,0.0
1632249,96.0,0.0,0.0,4500.000000000001,4182.564102564103,4334.358974358975,4813.333333333334,3787.1794871794878,4229.74358974359,4263.589743589744,4034.8717948717954,4353.846153846154,4026.1538461538466,4265.641025641026,4302.051282051282,4303.589743589744,4325.641025641026,1682.0,1683.0,1633.997,1520.400390625,0.0,0.0,0.0,0.0
1632249,97.0,0.0,316.0,4498.461538461539,4178.974358974359,4328.205128205129,4810.256410256411,3786.666666666667,4221.538461538462,4262.051282051282,4037.435897435898,4363.589743589744,4031.2820512820517,4264.615384615385,4304.615384615385,4300.000000000001,4323.076923076924,1683.0,1683.0,1634.005,1520.400390625,0.0,0.0,0.0,0.0
1632249,98.0,0.0,493.0,4501.025641025642,4186.153846153847,4327.6923076923085,4812.820512820514,3791.7948717948725,4221.025641025642,4263.076923076924,4030.7692307692314,4365.641025641026,4034.8717948717954,4267.179487179487,4308.717948717949,4303.076923076924,4329.2307692307695,1683.0,1683.0,1634.013,1520.400390625,0.0,0.0,0.0,0.0
1632364,99.0,0.0,489.0,4501.025641025642,4192.307692307693,4336.410256410257,4812.307692307693,3794.8717948717954,4229.2307692307695,4263.076923076924,4027.692307692308,4356.923076923077,4031.7948717948725,4265.641025641026,4308.205128205129,4311.282051282052,4333.333333333334,1684.0,1685.0,1634.021,1520.5255126953125,0.0,0.0,0.0,0.0
1632364,100.0,0.0,0.0,4507.179487179488,4192.307692307693,4344.615384615385,4811.794871794872,3792.820512820513,4232.307692307693,4264.102564102564,4031.2820512820517,4365.128205128206,4040.5128205128212,4264.615384615385,4312.307692307693,4316.410256410257,4337.435897435898,1683.0,1685.0,1634.029,1520.5255126953125,0.0,0.0,0.0,0.0
1632364,101.0,0.0,316.0,4516.923076923077,4191.794871794872,4344.615384615385,4814.871794871796,3791.7948717948725,4223.589743589744,4262.564102564103,4029.7435897435903,4374.871794871796,4047.1794871794878,4266.666666666667,4315.8974358974365,4318.461538461539,4341.538461538462,1683.0,1687.0,1634.036,1520.5255126953125,0.0,0.0,0.0,0.0
1632364,102.0,0.0,493.0,4513.846153846154,4194.358974358975,4341.025641025642,4811.282051282052,3793.333333333334,4217.948717948719,4258.974358974359,4021.0256410256416,4363.076923076924,4037.9487179487182,4266.153846153847,4310.256410256411,4317.948717948719,4332.820512820514,1681.0,1686.0,1634.044,1520.5255126953125,0.0,0.0,0.0,0.0
1632364,103.0,0.0,489.0,4504.102564102564,4192.820512820514,4338.974358974359,4815.384615384616,3790.7692307692314,4218.974358974359,4256.410256410257,4013.333333333334,4354.871794871796,4030.7692307692314,4266.153846153847,4306.666666666667,4311.794871794872,4326.153846153847,1681.0,1684.0,1634.053,1520.5255126953125,0.0,0.0,0.0,0.0
1632365,104.0,0.0,0.0,4508.717948717949,4192.307692307693,4339.48717948718,4813.333333333334,3789.2307692307695,4221.025641025642,4260.512820512821,4017.435897435898,4369.2307692307695,4036.9230769230776,4265.128205128206,4310.769230769231,4311.794871794872,4336.410256410257,1680.0,1684.0,1634.06,1520.5255126953125,0.0,0.0,0.0,0.0
1632365,105.0,0.0,316.0,4516.410256410257,4193.333333333334,4338.461538461539,4808.717948717949,3790.7692307692314,4223.076923076924,4265.128205128206,4028.717948717949,4374.871794871796,4036.410256410257,4264.102564102564,4310.769230769231,4316.923076923077,4342.564102564103,1680.0,1684.0,1634.069,1520.5255126953125,0.0,0.0,0.0,0.0
1632365,106.0,0.0,493.0,4512.820512820514,4190.769230769231,4332.820512820514,4812.820512820514,3789.7435897435903,4226.666666666667,4262.051282051282,4032.820512820513,4362.564102564103,4027.692307692308,4265.641025641026,4306.153846153847,4313.333333333334,4335.384615384616,1679.0,1684.0,1634.075,1520.5255126953125,0.0,0.0,0.0,0.0
1632365,107.0,0.0,489.0,4507.6923076923085,4191.282051282052,4334.358974358975,4811.282051282052,3787.692307692308,4229.74358974359,4256.923076923077,4029.7435897435903,4358.974358974359,4028.205128205129,4265.128205128206,4305.128205128206,4314.358974358975,4330.769230769231,1680.0,1684.0,1634.083,1520.5255126953125,0.0,0.0,0.0,0.0
1632365,108.0,0.0,0.0,4506.153846153847,4190.256410256411,4338.974358974359,4815.384615384616,3788.717948717949,4226.666666666667,4257.435897435898,4034.8717948717954,4368.205128205129,4035.3846153846157,4266.666666666667,4308.717948717949,4323.076923076924,4333.333333333334,1679.0,1685.0,1634.091,1520.5255126953125,0.0,0.0,0.0,0.0
1632365,109.0,0.0,316.0,4508.717948717949,4191.282051282052,4339.48717948718,4816.410256410257,3788.205128205129,4220.000000000001,4261.025641025642,4048.205128205129,4381.538461538462,4046.1538461538466,4266.666666666667,4313.846153846154,4330.769230769231,4344.615384615385,1680.0,1684.0,1634.099,1520.5255126953125,0.0,0.0,0.0,0.0
1632365,110.0,0.0,493.0,4512.307692307693,4193.333333333334,4339.48717948718,4810.769230769231,3789.7435897435903,4220.000000000001,4258.461538461539,4045.6410256410263,4380.512820512821,4050.2564102564106,4265.128205128206,4313.333333333334,4333.333333333334,4348.205128205129,1679.0,1684.0,1634.107,1520.5255126953125,0.0,0.0,0.0,0.0
1632365,111.0,0.0,489.0,4511.282051282052,4189.2307692307695,4337.435897435898,4814.358974358975,3794.358974358975,4222.051282051282,4254.358974358975,4030.2564102564106,4362.051282051282,4041.538461538462,4265.641025641026,4309.2307692307695,4330.256410256411,4336.923076923077,1680.0,1685.0,1634.115,1520.5255126953125,0.0,0.0,0.0,0.0
1632366,112.0,0.0,0.0,4509.743589743591,4187.6923076923085,4337.435897435898,4812.820512820514,3793.8461538461543,4218.974358974359,4255.384615384616,4030.2564102564106,4364.102564102564,4040.5128205128212,4265.128205128206,4310.769230769231,4332.820512820514,4335.8974358974365,1681.0,1683.0,1634.122,1520.5255126953125,0.0,0.0,0.0,0.0
1632366,113.0,0.0,316.0,4506.153846153847,4189.2307692307695,4337.948717948719,4815.8974358974365,3787.692307692308,4214.358974358975,4253.846153846154,4042.564102564103,4375.8974358974365,4045.6410256410263,4265.128205128206,4313.846153846154,4337.948717948719,4343.589743589744,1680.0,1685.0,1634.13,1520.5255126953125,0.0,0.0,0.0,0.0
1632366,114.0,0.0,493.0,4506.153846153847,4186.666666666667,4334.871794871796,4816.410256410257,3786.666666666667,4215.8974358974365,4254.871794871796,4047.1794871794878,4371.282051282052,4045.6410256410263,4266.153846153847,4312.307692307693,4340.000000000001,4341.538461538462,1681.0,1684.0,1634.138,1520.5255126953125,0.0,0.0,0.0,0.0
1632491,115.0,0.0,489.0,4510.769230769231,4185.641025641026,4335.384615384616,4808.717948717949,3790.7692307692314,4220.000000000001,4262.051282051282,4035.8974358974365,4370.256410256411,4048.205128205129,4267.179487179487,4313.333333333334,4344.102564102564,4341.538461538462,1680.0,1685.0,1634.146,1520.6505126953125,0.0,0.0,0.0,0.0
1632491,116.0,0.0,0.0,4511.282051282052,4188.205128205129,4340.000000000001,4813.333333333334,3791.7948717948725,4219.48717948718,4261.025641025642,4009.23076923077,4370.769230769231,4049.7435897435903,4267.179487179487,4314.358974358975,4346.153846153847,4348.205128205129,1681.0,1684.0,1634.154,1520.6505126953125,0.0,0.0,0.0,0.0
1632491,117.0,0.0,316.0,4505.128205128206,4188.717948717949,4336.923076923077,4811.282051282052,3788.205128205129,4218.974358974359,4255.384615384616,3997.435897435898,4359.48717948718,4042.564102564103,4266.153846153847,4308.717948717949,4342.051282051282,4344.615384615385,1680.0,1684.0,1634.161,1520.6505126953125,0.0,0.0,0.0,0.0
1632491,118.0,0.0,493.0,4501.025641025642,4184.615384615385,4328.205128205129,4808.717948717949,3789.2307692307695,4218.974358974359,4255.384615384616,4011.7948717948725,4353.333333333334,4034.8717948717954,4266.666666666667,4305.128205128206,4335.384615384616,4334.358974358975,1681.0,1683.0,1634.169,1520.6505126953125,0.0,0.0,0.0,0.0
1632491,119.0,0.0,489.0,4503.076923076924,4178.974358974359,4326.153846153847,4811.794871794872,3792.307692307693,4220.000000000001,4256.923076923077,4011.2820512820517,4354.358974358975,4031.7948717948725,4264.102564102564,4304.102564102564,4329.743589743591,4330.256410256411,1680.0,1683.0,1634.177,1520.6505126953125,0.0,0.0,0.0,0.0
1632491,120.0,0.0,0.0,4506.666666666667,4178.974358974359,4330.256410256411,4809.743589743591,3786.666666666667,4219.48717948718,4254.358974358975,4001.538461538462,4356.410256410257,4031.2820512820517,4261.538461538462,4302.564102564103,4331.794871794872,4332.307692307693,1681.0,1683.0,1634.185,1520.6505126953125,0.0,0.0,0.0,0.0
1632491,121.0,0.0,316.0,4511.794871794872,4186.153846153847,4337.435897435898,4814.871794871796,3783.076923076924,4209.74358974359,4250.769230769231,4014.8717948717954,4368.205128205129,4038.461538461539,4266.153846153847,4309.743589743591,4346.153846153847,4342.564102564103,1680.0,1682.0,1634.193,1520.6505126953125,0.0,0.0,0.0,0.0
1632491,122.0,0.0,493.0,4524.102564102564,4195.8974358974365,4351.282051282052,4813.333333333334,3790.2564102564106,4205.641025641026,4256.410256410257,4031.7948717948725,4385.128205128206,4057.9487179487182,4267.6923076923085,4320.512820512821,4365.128205128206,4361.538461538462,1681.0,1684.0,1634.201,1520.6505126953125,0.0,0.0,0.0,0.0
1632492,123.0,0.0,489.0,4533.846153846154,4198.461538461539,4358.974358974359,4811.794871794872,3796.410256410257,4217.948717948719,4265.641025641026,4030.7692307692314,4382.564102564103,4064.615384615385,4267.6923076923085,4321.025641025642,4366.666666666667,4366.153846153847,1681.0,1681.0,1634.208,1520.6505126953125,0.0,0.0,0.0,0.0
1632492,124.0,0.0,0.0,4526.153846153847,4191.282051282052,4351.282051282052,4813.846153846154,3794.358974358975,4231.794871794872,4266.153846153847,4031.7948717948725,4365.641025641026,4046.666666666667,4270.256410256411,4311.794871794872,4351.282051282052,4352.307692307693,1680.0,1683.0,1634.216,1520.6505126953125,0.0,0.0,0.0,0.0
1632492,125.0,0.0,316.0,4515.8974358974365,4184.102564102564,4342.564102564103,4807.6923076923085,3793.8461538461543,4235.384615384616,4265.128205128206,4047.1794871794878,4371.794871794872,4041.0256410256416,4267.6923076923085,4309.2307692307695,4345.641025641026,4349.743589743591,1682.0,1681.0,1634.224,1520.6505126953125,0.0,0.0,0.0,0.0
1632492,126.0,0.0,493.0,4518.974358974359,4183.076923076924,4343.076923076924,4813.333333333334,3795.8974358974365,4228.717948717949,4267.6923076923085,4063.076923076924,4395.384615384616,4060.5128205128212,4269.2307692307695,4318.461538461539,4354.358974358975,4361.025641025642,1680.0,1682.0,1634.232,1520.6505126953125,0.0,0.0,0.0,0.0
1632492,127.0,0.0,489.0,4525.641025641026,4187.6923076923085,4349.743589743591,4813.333333333334,3793.333333333334,4220.512820512821,4267.6923076923085,4067.692307692308,4393.333333333334,4070.2564102564106,4267.6923076923085,4322.564102564103,4362.564102564103,4366.666666666667,1681.0,1683.0,1634.24,1520.6505126953125,0.0,0.0,0.0,0.0
1632492,128.0,0.0,0.0,4522.564102564103,4187.6923076923085,4347.179487179487,4806.666666666667,3789.2307692307695,4221.025641025642,4262.564102564103,4060.5128205128212,4367.179487179487,4056.9230769230776,4265.641025641026,4315.384615384616,4357.948717948719,4357.435897435898,1681.0,1683.0,1634.248,1520.6505126953125,0.0,0.0,0.0,0.0
1632492,0.0,0.0,512.0,4514.358974358975,4180.000000000001,4334.871794871796,4810.769230769231,3790.2564102564106,4227.6923076923085,4261.538461538462,4056.9230769230776,4358.974358974359,4041.0256410256416,4267.6923076923085,4308.205128205129,4346.153846153847,4346.666666666667,1681.0,1684.0,1634.255,1520.6505126953125,0.0,0.0,0.0,0.0
1632492,1.0,0.0,0.0,4513.846153846154,4180.000000000001,4334.358974358975,4810.256410256411,3794.358974358975,4229.74358974359,4267.179487179487,4060.0000000000005,4372.820512820514,4043.076923076924,4265.641025641026,4307.6923076923085,4347.179487179487,4350.256410256411,1681.0,1684.0,1634.263,1520.6505126953125,0.0,0.0,0.0,0.0
1632523,2.0,0.0,508.0,4517.948717948719,4187.6923076923085,4344.102564102564,4814.358974358975,3794.358974358975,4223.076923076924,4268.205128205129,4062.564102564103,4385.128205128206,4054.8717948717954,4264.102564102564,4310.769230769231,4356.410256410257,4361.538461538462,1681.0,1684.0,1634.271,1520.775634765625,0.0,0.0,0.0,0.0
1632523,3.0,0.0,531.0,4518.461538461539,4189.2307692307695,4346.153846153847,4816.410256410257,3791.7948717948725,4220.000000000001,4262.051282051282,4065.6410256410263,4387.6923076923085,4056.9230769230776,4264.615384615385,4310.769230769231,4355.384615384616,4363.589743589744,1681.0,1683.0,1634.279,1520.775634765625,0.0,0.0,0.0,0.0
1632523,4.0,0.0,501.0,4512.307692307693,4181.538461538462,4337.948717948719,4812.307692307693,3787.692307692308,4221.025641025642,4256.410256410257,4067.692307692308,4373.333333333334,4044.615384615385,4264.102564102564,4306.666666666667,4346.666666666667,4355.384615384616,1680.0,1684.0,1634.287,1520.775634765625,0.0,0.0,0.0,0.0
1632523,5.0,0.0,551.0,4498.461538461539,4166.666666666667,4324.102564102564,4814.358974358975,3781.0256410256416,4215.8974358974365,4252.820512820514,4057.435897435898,4353.846153846154,4027.692307692308,4264.615384615385,4304.102564102564,4335.384615384616,4343.076923076924,1681.0,1683.0,1634.294,1520.775634765625,0.0,0.0,0.0,0.0
1632617,6.0,0.0,548.0,4487.179487179488,4155.384615384616,4314.358974358975,4810.256410256411,3775.3846153846157,4210.769230769231,4251.282051282052,4048.205128205129,4356.923076923077,4026.666666666667,4265.128205128206,4303.076923076924,4330.769230769231,4336.923076923077,1679.0,1685.0,1634.302,1520.8070068359375,0.0,0.0,0.0,0.0
1632617,7.0,0.0,327.0,4490.256410256411,4157.435897435898,4315.8974358974365,4812.820512820514,3774.8717948717954,4205.128205128206,4250.769230769231,4054.358974358975,4371.282051282052,4040.5128205128212,4266.153846153847,4306.666666666667,4339.48717948718,4341.538461538462,1681.0,1684.0,1634.31,1520.8070068359375,0.0,0.0,0.0,0.0
1632617,8.0,0.0,457.0,4494.871794871796,4163.589743589744,4320.000000000001,4815.8974358974365,3778.461538461539,4207.6923076923085,4251.794871794872,4057.435897435898,4364.102564102564,4038.9743589743593,4266.153846153847,4308.205128205129,4345.641025641026,4346.153846153847,1679.0,1684.0,1634.318,1520.8070068359375,0.0,0.0,0.0,0.0
1632617,9.0,0.0,477.0,4494.358974358975,4166.153846153847,4320.000000000001,4810.769230769231,3780.0000000000005,4219.48717948718,4251.282051282052,4053.333333333334,4351.282051282052,4028.205128205129,4265.128205128206,4306.153846153847,4345.128205128206,4345.128205128206,1680.0,1684.0,1634.326,1520.8070068359375,0.0,0.0,0.0,0.0
1632618,10.0,0.0,493.0,4503.076923076924,4174.871794871796,4332.820512820514,4814.871794871796,3783.076923076924,4214.358974358975,4250.769230769231,4060.0000000000005,4364.615384615385,4041.538461538462,4267.179487179487,4313.333333333334,4355.8974358974365,4358.461538461539,1679.0,1683.0,1634.334,1520.8070068359375,0.0,0.0,0.0,0.0
1632619,11.0,0.0,489.0,4517.435897435898,4186.153846153847,4351.794871794872,4811.794871794872,3787.1794871794878,4206.153846153847,4259.48717948718,4076.410256410257,4386.153846153847,4066.1538461538466,4269.2307692307695,4320.512820512821,4374.871794871796,4377.435897435898,1680.0,1684.0,1634.341,1520.8070068359375,0.0,0.0,0.0,0.0
1632619,12.0,0.0,0.0,4516.410256410257,4184.615384615385,4348.205128205129,4809.743589743591,3788.205128205129,4213.333333333334,4269.2307692307695,4082.564102564103,4386.666666666667,4067.692307692308,4267.6923076923085,4317.435897435898,4371.282051282052,4369.2307692307695,1681.0,1683.0,1634.349,1520.8070068359375,0.0,0.0,0.0,0.0
1632619,13.0,0.0,316.0,4503.589743589744,4173.333333333334,4327.179487179487,4813.333333333334,3787.692307692308,4224.102564102564,4265.128205128206,4072.820512820513,4377.948717948719,4051.7948717948725,4264.615384615385,4310.256410256411,4352.820512820514,4346.666666666667,1681.0,1683.0,1634.357,1520.8070068359375,0.0,0.0,0.0,0.0
1632619,14.0,0.0,493.0,4497.948717948719,4166.666666666667,4322.051282051282,4810.769230769231,3787.1794871794878,4226.153846153847,4259.48717948718,4060.5128205128212,4376.410256410257,4047.1794871794878,4264.615384615385,4306.153846153847,4350.256410256411,4348.717948717949,1681.0,1682.0,1634.365,1520.8070068359375,0.0,0.0,0.0,0.0
1632619,15.0,0.0,489.0,4501.025641025642,4169.2307692307695,4335.384615384616,4815.384615384616,3787.1794871794878,4222.051282051282,4262.564102564103,4057.9487179487182,4375.8974358974365,4055.8974358974365,4267.6923076923085,4311.794871794872,4358.974358974359,4366.153846153847,1681.0,1683.0,1634.373,1520.8070068359375,0.0,0.0,0.0,0.0
1632620,16.0,0.0,0.0,4503.076923076924,4174.871794871796,4339.48717948718,4814.871794871796,3786.1538461538466,4216.410256410257,4267.179487179487,4064.615384615385,4380.000000000001,4064.1025641025644,4266.153846153847,4317.435897435898,4363.589743589744,4368.205128205129,1682.0,1682.0,1634.38,1520.8070068359375,0.0,0.0,0.0,0.0
1632620,17.0,0.0,0.0,4498.461538461539,4172.820512820514,4330.256410256411,4810.769230769231,3786.1538461538466,4216.923076923077,4268.205128205129,4067.692307692308,4391.282051282052,4058.461538461539,4264.615384615385,4312.307692307693,4358.461538461539,4355.8974358974365,1680.0,1683.0,1634.388,1520.8070068359375,0.0,0.0,0.0,0.0
1632747,18.0,0.0,0.0,4496.410256410257,4166.153846153847,4323.076923076924,4812.820512820514,3788.717948717949,4227.6923076923085,4266.666666666667,4061.538461538462,4385.641025641026,4046.1538461538466,4266.666666666667,4304.615384615385,4350.256410256411,4347.6923076923085,1682.0,1683.0,1634.396,1520.9007568359375,0.0,0.0,0.0,0.0
1632747,19.0,0.0,0.0,4496.410256410257,4163.076923076924,4323.589743589744,4812.307692307693,3791.7948717948725,4237.948717948719,4268.205128205129,4059.48717948718,4365.128205128206,4042.0512820512827,4266.666666666667,4303.076923076924,4345.641025641026,4345.128205128206,1681.0,1682.0,1634.404,1520.9007568359375,0.0,0.0,0.0,0.0
1632747,20.0,0.0,0.0,4495.8974358974365,4164.615384615385,4327.179487179487,4815.8974358974365,3791.7948717948725,4232.307692307693,4269.2307692307695,4068.717948717949,4357.435897435898,4046.666666666667,4266.666666666667,4306.666666666667,4346.153846153847,4347.179487179487,1681.0,1683.0,1634.412,1520.9007568359375,0.0,0.0,0.0,0.0
1632747,21.0,0.0,0.0,4505.641025641026,4171.282051282052,4335.384615384616,4812.307692307693,3793.8461538461543,4218.974358974359,4270.769230769231,4083.076923076924,4373.846153846154,4055.3846153846157,4266.153846153847,4310.256410256411,4356.923076923077,4356.410256410257,1681.0,1683.0,1634.42,1520.9007568359375,0.0,0.0,0.0,0.0
1632747,22.0,0.0,0.0,4520.000000000001,4178.461538461539,4343.076923076924,4807.179487179488,3796.410256410257,4216.923076923077,4271.282051282052,4090.2564102564106,4392.307692307693,4062.564102564103,4264.615384615385,4313.333333333334,4366.153846153847,4365.128205128206,1681.0,1684.0,1634.427,1520.9007568359375,0.0,0.0,0.0,0.0
1632748,23.0,0.0,0.0,4520.512820512821,4177.435897435898,4341.025641025642,4812.307692307693,3794.358974358975,4218.974358974359,4265.128205128206,4085.1282051282055,4390.256410256411,4061.0256410256416,4265.128205128206,4313.846153846154,4363.589743589744,4363.589743589744,1682.0,1684.0,1634.435,1520.9007568359375,0.0,0.0,0.0,0.0
1632748,24.0,0.0,0.0,4512.307692307693,4173.846153846154,4333.846153846154,4809.2307692307695,3790.7692307692314,4217.435897435898,4261.025641025642,4079.48717948718,4375.384615384616,4053.8461538461543,4263.589743589744,4308.717948717949,4359.48717948718,4358.461538461539,1681.0,1684.0,1634.443,1520.9007568359375,0.0,0.0,0.0,0.0
1632748,25.0,0.0,0.0,4510.769230769231,4173.333333333334,4332.820512820514,4812.820512820514,3787.1794871794878,4212.307692307693,4262.564102564103,4082.564102564103,4369.743589743591,4053.8461538461543,4266.153846153847,4309.743589743591,4362.051282051282,4358.974358974359,1681.0,1684.0,1634.451,1520.9007568359375,0.0,0.0,0.0,0.0
1632748,26.0,0.0,0.0,4514.358974358975,4173.846153846154,4337.435897435898,4815.8974358974365,3783.589743589744,4214.358974358975,4264.102564102564,4088.205128205129,4378.461538461539,4060.5128205128212,4266.666666666667,4314.358974358975,4367.179487179487,4364.615384615385,1680.0,1685.0,1634.459,1520.9007568359375,0.0,0.0,0.0,0.0
1632748,27.0,0.0,0.0,4507.6923076923085,4166.153846153847,4328.717948717949,4810.256410256411,3781.0256410256416,4224.102564102564,4256.410256410257,4083.589743589744,4371.282051282052,4051.7948717948725,4260.512820512821,4306.666666666667,4360.000000000001,4360.000000000001,1681.0,1683.0,1634.466,1520.9007568359375,0.0,0.0,0.0,0.0
1632748,28.0,0.0,0.0,4499.48717948718,4155.384615384616,4314.358974358975,4812.820512820514,3779.48717948718,4221.538461538462,4246.666666666667,4071.2820512820517,4352.820512820514,4036.410256410257,4262.051282051282,4299.48717948718,4350.769230769231,4350.769230769231,1681.0,1683.0,1634.474,1520.9007568359375,0.0,0.0,0.0,0.0
1632749,29.0,0.0,0.0,4507.6923076923085,4163.589743589744,4325.641025641026,4810.256410256411,3775.3846153846157,4206.666666666667,4250.769230769231,4069.23076923077,4364.102564102564,4050.7692307692314,4266.666666666667,4307.6923076923085,4361.025641025642,4360.512820512821,1680.0,1682.0,1634.482,1520.9007568359375,0.0,0.0,0.0,0.0
1632749,30.0,0.0,0.0,4518.974358974359,4180.000000000001,4343.589743589744,4813.333333333334,3775.8974358974365,4200.512820512821,4256.410256410257,4078.461538461539,4383.076923076924,4070.7692307692314,4270.256410256411,4318.974358974359,4375.8974358974365,4374.358974358975,1680.0,1683.0,1634.49,1520.9007568359375,0.0,0.0,0.0,0.0
1632749,31.0,0.0,0.0,4514.358974358975,4176.923076923077,4337.435897435898,4816.410256410257,3779.48717948718,4205.128205128206,4249.74358974359,4078.9743589743593,4372.820512820514,4060.5128205128212,4266.666666666667,4316.923076923077,4370.769230769231,4371.794871794872,1680.0,1683.0,1634.498,1520.9007568359375,0.0,0.0,0.0,0.0
1632749,32.0,0.0,0.0,4505.128205128206,4162.564102564103,4324.102564102564,4809.743589743591,3780.0000000000005,4211.794871794872,4246.153846153847,4069.7435897435903,4357.948717948719,4048.205128205129,4261.025641025642,4310.256410256411,4357.948717948719,4362.051282051282,1681.0,1684.0,1634.506,1520.9007568359375,0.0,0.0,0.0,0.0
1632749,33.0,0.0,0.0,4503.589743589744,4158.974358974359,4324.102564102564,4813.846153846154,3781.538461538462,4214.871794871796,4249.74358974359,4069.23076923077,4363.076923076924,4057.9487179487182,4266.153846153847,4312.307692307693,4357.435897435898,4358.974358974359,1681.0,1683.0,1634.513,1520.9007568359375,0.0,0.0,0.0,0.0
1632865,34.0,0.0,0.0,4507.179487179488,4169.2307692307695,4333.333333333334,4810.769230769231,3782.0512820512827,4207.179487179487,4249.74358974359,4076.410256410257,4371.794871794872,4066.1538461538466,4266.666666666667,4316.410256410257,4368.205128205129,4366.153846153847,1681.0,1684.0,1634.521,1521.02587890625,0.0,0.0,0.0,0.0
1632865,35.0,0.0,0.0,4511.794871794872,4172.820512820514,4340.000000000001,4809.2307692307695,3778.9743589743593,4195.384615384616,4250.256410256411,4083.076923076924,4372.820512820514,4063.589743589744,4264.615384615385,4316.410256410257,4371.794871794872,4371.794871794872,1681.0,1683.0,1634.529,1521.02587890625,0.0,0.0,0.0,0.0
1632865,36.0,0.0,0.0,4508.717948717949,4162.051282051282,4334.358974358975,4814.871794871796,3778.9743589743593,4201.538461538462,4255.8974358974365,4092.820512820513,4378.974358974359,4062.564102564103,4264.615384615385,4313.333333333334,4358.461538461539,4365.128205128206,1680.0,1685.0,1634.537,1521.02587890625,0.0,0.0,0.0,0.0
1632866,37.0,0.0,0.0,4490.256410256411,4145.641025641026,4318.461538461539,4810.769230769231,3778.9743589743593,4220.000000000001,4254.871794871796,4090.2564102564106,4374.358974358975,4051.7948717948725,4263.589743589744,4306.153846153847,4340.512820512821,4348.717948717949,1681.0,1685.0,1634.545,1521.02587890625,0.0,0.0,0.0,0.0
1632866,38.0,0.0,0.0,4480.512820512821,4136.410256410257,4308.717948717949,4814.871794871796,3777.9487179487182,4225.128205128206,4249.2307692307695,4076.9230769230776,4361.025641025642,4040.0000000000005,4264.615384615385,4305.128205128206,4336.410256410257,4345.641025641026,1679.0,1686.0,1634.552,1521.02587890625,0.0,0.0,0.0,0.0
1632866,39.0,0.0,0.0,4493.846153846154,4145.128205128206,4317.948717948719,4815.384615384616,3780.512820512821,4214.871794871796,4256.410256410257,4081.538461538462,4370.769230769231,4054.358974358975,4266.666666666667,4311.282051282052,4349.743589743591,4360.000000000001,1680.0,1687.0,1634.56,1521.02587890625,0.0,0.0,0.0,0.0
1632866,40.0,0.0,0.0,4503.076923076924,4155.384615384616,4328.205128205129,4810.769230769231,3788.205128205129,4209.74358974359,4266.153846153847,4094.8717948717954,4390.769230769231,4069.7435897435903,4266.153846153847,4316.410256410257,4362.051282051282,4367.6923076923085,1680.0,1685.0,1634.568,1521.02587890625,0.0,0.0,0.0,0.0
1632867,41.0,0.0,0.0,4501.025641025642,4154.358974358975,4325.641025641026,4812.820512820514,3793.8461538461543,4213.333333333334,4265.641025641026,4093.8461538461543,4394.871794871796,4066.666666666667,4265.128205128206,4315.384615384616,4360.512820512821,4361.538461538462,1679.0,1686.0,1634.576,1521.02587890625,0.0,0.0,0.0,0.0
1632867,42.0,0.0,0.0,4499.48717948718,4150.256410256411,4322.051282051282,4809.743589743591,3791.7948717948725,4214.871794871796,4264.102564102564,4082.564102564103,4395.384615384616,4065.6410256410263,4265.128205128206,4309.743589743591,4354.358974358975,4357.435897435898,1679.0,1685.0,1634.584,1521.02587890625,0.0,0.0,0.0,0.0
1632867,43.0,0.0,0.0,4491.794871794872,4143.589743589744,4315.8974358974365,4815.384615384616,3784.1025641025644,4213.333333333334,4257.435897435898,4072.307692307693,4382.051282051282,4058.9743589743593,4267.179487179487,4304.615384615385,4347.179487179487,4356.923076923077,1680.0,1685.0,1634.592,1521.02587890625,0.0,0.0,0.0,0.0
1632867,44.0,0.0,0.0,4488.717948717949,4145.128205128206,4311.794871794872,4815.8974358974365,3776.9230769230776,4216.923076923077,4248.717948717949,4076.410256410257,4367.6923076923085,4047.1794871794878,4268.205128205129,4306.153846153847,4347.6923076923085,4358.461538461539,1680.0,1683.0,1634.599,1521.02587890625,0.0,0.0,0.0,0.0
1632868,45.0,0.0,0.0,4501.538461538462,4155.8974358974365,4319.48717948718,4812.307692307693,3779.48717948718,4228.205128205129,4256.410256410257,4096.410256410257,4386.153846153847,4056.410256410257,4266.153846153847,4311.282051282052,4357.948717948719,4365.128205128206,1680.0,1684.0,1634.607,1521.02587890625,0.0,0.0,0.0,0.0
1632868,46.0,0.0,0.0,4505.128205128206,4155.8974358974365,4323.076923076924,4814.871794871796,3786.1538461538466,4238.461538461539,4265.128205128206,4107.179487179487,4404.102564102564,4065.6410256410263,4265.128205128206,4311.282051282052,4360.000000000001,4365.128205128206,1681.0,1683.0,1634.615,1521.02587890625,0.0,0.0,0.0,0.0
1632868,47.0,0.0,0.0,4503.589743589744,4155.8974358974365,4321.538461538462,4808.717948717949,3786.666666666667,4231.794871794872,4259.48717948718,4097.948717948719,4392.820512820514,4060.0000000000005,4264.615384615385,4309.2307692307695,4357.948717948719,4363.589743589744,1681.0,1684.0,1634.623,1521.02587890625,0.0,0.0,0.0,0.0
1632869,48.0,0.0,0.0,4510.769230769231,4166.666666666667,4329.743589743591,4813.333333333334,3786.666666666667,4215.384615384616,4253.333333333334,4092.307692307693,4383.076923076924,4061.0256410256416,4265.641025641026,4313.846153846154,4367.6923076923085,4376.923076923077,1683.0,1683.0,1634.631,1521.02587890625,0.0,0.0,0.0,0.0
1632869,49.0,0.0,0.0,4517.948717948719,4173.846153846154,4336.923076923077,4817.435897435898,3791.2820512820517,4217.435897435898,4259.48717948718,4096.410256410257,4391.282051282052,4065.6410256410263,4265.128205128206,4317.948717948719,4374.871794871796,4385.128205128206,1682.0,1683.0,1634.638,1521.02587890625,0.0,0.0,0.0,0.0
1632999,50.0,0.0,0.0,4519.48717948718,4173.333333333334,4335.384615384616,4810.769230769231,3793.333333333334,4226.666666666667,4264.102564102564,4097.435897435898,4396.410256410257,4065.1282051282055,4264.102564102564,4314.871794871796,4372.820512820514,4375.8974358974365,1683.0,1684.0,1634.646,1521.1510009765625,0.0,0.0,0.0,0.0
1632999,51.0,0.0,0.0,4515.8974358974365,4171.282051282052,4330.256410256411,4812.820512820514,3791.2820512820517,4224.615384615385,4259.48717948718,4092.820512820513,4391.794871794872,4064.615384615385,4264.615384615385,4310.256410256411,4367.179487179487,4368.717948717949,1683.0,1684.0,1634.654,1521.1510009765625,0.0,0.0,0.0,0.0
1632999,52.0,0.0,0.0,4509.743589743591,4164.615384615385,4326.153846153847,4811.794871794872,3791.7948717948725,4227.6923076923085,4257.435897435898,4093.333333333334,4385.128205128206,4062.0512820512827,4265.641025641026,4306.666666666667,4364.102564102564,4373.846153846154,1682.0,1686.0,1634.662,1521.1510009765625,0.0,0.0,0.0,0.0
1632999,53.0,0.0,0.0,4511.282051282052,4164.102564102564,4327.6923076923085,4812.820512820514,3789.7435897435903,4227.179487179487,4258.461538461539,4098.974358974359,4375.384615384616,4056.410256410257,4267.179487179487,4309.743589743591,4367.179487179487,4375.8974358974365,1683.0,1685.0,1634.67,1521.1510009765625,0.0,0.0,0.0,0.0
1632999,54.0,0.0,0.0,4521.025641025642,4174.871794871796,4334.871794871796,4814.358974358975,3787.692307692308,4215.384615384616,4257.435897435898,4104.615384615385,4378.974358974359,4061.538461538462,4265.641025641026,4315.384615384616,4373.846153846154,4378.974358974359,1683.0,1687.0,1634.678,1521.1510009765625,0.0,0.0,0.0,0.0
1632999,55.0,0.0,0.0,4525.128205128206,4176.410256410257,4337.435897435898,4810.256410256411,3788.717948717949,4214.358974358975,4259.48717948718,4108.205128205129,4395.384615384616,4067.692307692308,4264.102564102564,4314.358974358975,4374.871794871796,4382.051282051282,1683.0,1687.0,1634.685,1521.1510009765625,0.0,0.0,0.0,0.0
1632999,56.0,0.0,0.0,4512.307692307693,4162.564102564103,4324.615384615385,4815.8974358974365,3785.6410256410263,4216.410256410257,4254.358974358975,4100.512820512821,4384.615384615385,4051.7948717948725,4267.179487179487,4306.666666666667,4361.538461538462,4371.794871794872,1682.0,1687.0,1634.693,1521.1510009765625,0.0,0.0,0.0,0.0
1633000,57.0,0.0,0.0,4497.948717948719,4153.333333333334,4313.846153846154,4814.871794871796,3779.48717948718,4216.923076923077,4248.205128205129,4089.23076923077,4358.461538461539,4035.8974358974365,4263.076923076924,4301.025641025642,4349.2307692307695,4361.025641025642,1681.0,1685.0,1634.701,1521.1510009765625,0.0,0.0,0.0,0.0
1633000,58.0,0.0,0.0,4500.512820512821,4158.461538461539,4318.974358974359,4810.769230769231,3783.076923076924,4224.102564102564,4254.871794871796,4091.7948717948725,4364.102564102564,4041.0256410256416,4262.051282051282,4305.128205128206,4351.794871794872,4365.128205128206,1680.0,1685.0,1634.709,1521.1510009765625,0.0,0.0,0.0,0.0
1633000,59.0,0.0,0.0,4514.871794871796,4167.179487179487,4331.282051282052,4812.820512820514,3792.307692307693,4225.641025641026,4264.102564102564,4093.8461538461543,4377.435897435898,4049.7435897435903,4266.666666666667,4311.794871794872,4356.923076923077,4375.8974358974365,1681.0,1685.0,1634.717,1521.1510009765625,0.0,0.0,0.0,0.0
1633000,60.0,0.0,0.0,4525.128205128206,4174.358974358975,4343.076923076924,4809.743589743591,3793.333333333334,4220.000000000001,4264.102564102564,4089.7435897435903,4374.358974358975,4057.9487179487182,4263.589743589744,4315.8974358974365,4369.743589743591,4392.307692307693,1680.0,1684.0,1634.724,1521.1510009765625,0.0,0.0,0.0,0.0
1633000,61.0,0.0,0.0,4523.076923076924,4172.307692307693,4344.102564102564,4813.846153846154,3789.2307692307695,4218.974358974359,4258.974358974359,4091.7948717948725,4371.282051282052,4062.0512820512827,4263.589743589744,4318.974358974359,4381.538461538462,4403.589743589744,1682.0,1685.0,1634.732,1521.1510009765625,0.0,0.0,0.0,0.0
1633000,62.0,0.0,0.0,4516.410256410257,4165.128205128206,4335.8974358974365,4814.871794871796,3787.1794871794878,4220.000000000001,4260.000000000001,4102.051282051282,4382.051282051282,4061.538461538462,4265.128205128206,4316.923076923077,4379.48717948718,4397.435897435898,1682.0,1684.0,1634.74,1521.1510009765625,0.0,0.0,0.0,0.0
1633000,63.0,0.0,0.0,4517.948717948719,4168.205128205129,4334.871794871796,4813.333333333334,3788.205128205129,4217.948717948719,4263.589743589744,4107.6923076923085,4393.846153846154,4068.717948717949,4263.076923076924,4316.410256410257,4378.974358974359,4391.282051282052,1682.0,1685.0,1634.748,1521.1510009765625,0.0,0.0,0.0,0.0
1633001,64.0,0.0,512.0,4528.205128205129,4175.8974358974365,4343.589743589744,4812.307692307693,3792.307692307693,4216.410256410257,4261.538461538462,4106.666666666667,4393.333333333334,4078.461538461539,4263.589743589744,4320.512820512821,4390.256410256411,4398.461538461539,1682.0,1684.0,1634.756,1521.1510009765625,0.0,0.0,0.0,0.0
1633001,65.0,0.0,0.0,4531.282051282052,4178.461538461539,4345.128205128206,4805.641025641026,3791.2820512820517,4217.435897435898,4259.48717948718,4106.153846153847,4384.615384615385,4079.48717948718,4264.615384615385,4318.974358974359,4395.8974358974365,4403.076923076924,1682.0,1685.0,1634.764,1521.1510009765625,0.0,0.0,0.0,0.0
1633022,66.0,0.0,508.0,4527.179487179488,4177.948717948719,4344.102564102564,4813.846153846154,3786.1538461538466,4217.948717948719,4260.512820512821,4109.2307692307695,4388.205128205129,4077.9487179487187,4269.74358974359,4321.025641025642,4394.358974358975,4405.641025641026,1682.0,1686.0,1634.771,1521.276123046875,0.0,0.0,0.0,0.0
1633022,67.0,0.0,531.0,4531.794871794872,4182.564102564103,4351.282051282052,4815.384615384616,3786.666666666667,4221.538461538462,4264.102564102564,4114.358974358975,4403.589743589744,4083.589743589744,4267.179487179487,4324.615384615385,4398.974358974359,4412.307692307693,1681.0,1686.0,1634.779,1521.276123046875,0.0,0.0,0.0,0.0
1633022,68.0,0.0,501.0,4534.358974358975,4181.025641025642,4348.717948717949,4809.2307692307695,3788.717948717949,4222.051282051282,4264.615384615385,4108.717948717949,4401.025641025642,4082.0512820512827,4262.564102564103,4319.48717948718,4398.461538461539,4408.205128205129,1682.0,1687.0,1634.788,1521.276123046875,0.0,0.0,0.0,0.0
1633022,69.0,0.0,551.0,4523.076923076924,4167.179487179487,4332.820512820514,4814.358974358975,3782.0512820512827,4217.948717948719,4260.000000000001,4098.461538461539,4382.564102564103,4069.23076923077,4265.641025641026,4311.282051282052,4384.615384615385,4392.820512820514,1681.0,1686.0,1634.795,1521.276123046875,0.0,0.0,0.0,0.0
1633519,70.0,0.0,548.0,4508.205128205129,4154.871794871796,4325.641025641026,4811.282051282052,3775.3846153846157,4215.8974358974365,4257.948717948719,4096.410256410257,4377.948717948719,4058.461538461539,4266.153846153847,4307.6923076923085,4373.333333333334,4381.538461538462,1681.0,1685.0,1634.803,1521.307373046875,0.0,0.0,0.0,0.0
1633519,71.0,0.0,327.0,4503.589743589744,4150.769230769231,4327.6923076923085,4812.307692307693,3780.512820512821,4218.461538461539,4263.076923076924,4097.435897435898,4381.025641025642,4057.9487179487182,4264.615384615385,4309.2307692307695,4372.820512820514,4381.538461538462,1680.0,1684.0,1634.81,1521.307373046875,0.0,0.0,0.0,0.0
1633519,72.0,0.0,457.0,4510.769230769231,4155.8974358974365,4330.769230769231,4816.410256410257,3784.615384615385,4223.589743589744,4265.641025641026,4090.7692307692314,4372.307692307693,4064.615384615385,4264.615384615385,4310.769230769231,4381.025641025642,4388.717948717949,1681.0,1684.0,1634.818,1521.307373046875,0.0,0.0,0.0,0.0
1633519,73.0,0.0,477.0,4516.410256410257,4157.435897435898,4332.307692307693,4810.256410256411,3780.0000000000005,4230.256410256411,4261.538461538462,4084.1025641025644,4358.974358974359,4056.9230769230776,4265.641025641026,4309.2307692307695,4384.102564102564,4391.282051282052,1681.0,1682.0,1634.826,1521.307373046875,0.0,0.0,0.0,0.0
1633519,74.0,0.0,493.0,4516.410256410257,4153.846153846154,4334.358974358975,4810.769230769231,3780.512820512821,4230.769230769231,4263.076923076924,4086.1538461538466,4364.102564102564,4046.666666666667,4266.153846153847,4311.282051282052,4380.000000000001,4389.743589743591,1680.0,1684.0,1634.834,1521.307373046875,0.0,0.0,0.0,0.0
1633519,75.0,0.0,489.0,4521.538461538462,4161.025641025642,4341.025641025642,4812.820512820514,3787.692307692308,4223.076923076924,4269.2307692307695,4084.615384615385,4380.512820512821,4058.9743589743593,4266.153846153847,4315.8974358974365,4388.717948717949,4396.410256410257,1682.0,1683.0,1634.842,1521.307373046875,0.0,0.0,0.0,0.0
1633519,76.0,0.0,0.0,4527.179487179488,4171.282051282052,4348.205128205129,4814.871794871796,3787.1794871794878,4212.307692307693,4266.153846153847,4079.48717948718,4381.538461538462,4072.820512820513,4267.179487179487,4316.923076923077,4401.538461538462,4402.051282051282,1681.0,1684.0,1634.85,1521.307373046875,0.0,0.0,0.0,0.0
1633520,77.0,0.0,316.0,4526.666666666667,4167.6923076923085,4350.256410256411,4811.794871794872,3785.1282051282055,4212.307692307693,4265.128205128206,4085.6410256410263,4376.923076923077,4067.1794871794878,4265.641025641026,4319.48717948718,4400.000000000001,4402.564102564103,1682.0,1685.0,1634.857,1521.307373046875,0.0,0.0,0.0,0.0
1633520,78.0,0.0,493.0,4526.666666666667,4164.615384615385,4352.307692307693,4806.153846153847,3786.1538461538466,4216.410256410257,4273.333333333334,4094.358974358975,4387.179487179487,4065.1282051282055,4263.076923076924,4321.538461538462,4398.461538461539,4406.153846153847,1681.0,1685.0,1634.865,1521.307373046875,0.0,0.0,0.0,0.0
1633520,79.0,0.0,489.0,4531.794871794872,4169.74358974359,4354.871794871796,4815.384615384616,3784.1025641025644,4208.205128205129,4273.846153846154,4090.2564102564106,4393.846153846154,4073.333333333334,4265.641025641026,4320.000000000001,4401.538461538462,4407.6923076923085,1681.0,1685.0,1634.873,1521.307373046875,0.0,0.0,0.0,0.0
1633520,80.0,0.0,0.0,4531.794871794872,4169.74358974359,4352.307692307693,4815.384615384616,3783.076923076924,4212.307692307693,4274.871794871796,4084.1025641025644,4380.000000000001,4068.717948717949,4266.666666666667,4317.948717948719,4395.384615384616,4400.512820512821,1680.0,1684.0,1634.881,1521.307373046875,0.0,0.0,0.0,0.0
1633520,81.0,0.0,316.0,4524.102564102564,4159.48717948718,4345.641025641026,4811.794871794872,3785.6410256410263,4227.6923076923085,4277.435897435898,4083.076923076924,4364.615384615385,4050.7692307692314,4265.641025641026,4315.384615384616,4382.051282051282,4389.2307692307695,1681.0,1684.0,1634.889,1521.307373046875,0.0,0.0,0.0,0.0
1633521,82.0,0.0,493.0,4524.102564102564,4157.435897435898,4344.615384615385,4815.384615384616,3784.615384615385,4225.641025641026,4272.307692307693,4080.5128205128212,4364.102564102564,4046.666666666667,4266.666666666667,4315.8974358974365,4382.564102564103,4390.256410256411,1680.0,1684.0,1634.897,1521.307373046875,0.0,0.0,0.0,0.0
1633521,83.0,0.0,489.0,4529.743589743591,4165.128205128206,4350.769230769231,4810.256410256411,3781.538461538462,4224.102564102564,4273.846153846154,4085.1282051282055,4371.794871794872,4056.410256410257,4266.666666666667,4316.410256410257,4392.820512820514,4398.461538461539,1681.0,1684.0,1634.904,1521.307373046875,0.0,0.0,0.0,0.0
1633521,84.0,0.0,0.0,4523.076923076924,4162.564102564103,4347.6923076923085,4813.333333333334,3781.538461538462,4229.74358974359,4273.846153846154,4089.7435897435903,4368.717948717949,4053.333333333334,4267.6923076923085,4313.333333333334,4386.153846153847,4394.358974358975,1679.0,1684.0,1634.912,1521.307373046875,0.0,0.0,0.0,0.0
1633521,85.0,0.0,316.0,4511.282051282052,4152.307692307693,4333.846153846154,4814.358974358975,3778.461538461539,4226.153846153847,4263.076923076924,4084.1025641025644,4354.358974358975,4040.0000000000005,4266.666666666667,4307.179487179487,4374.358974358975,4382.051282051282,1680.0,1683.0,1634.92,1521.307373046875,0.0,0.0,0.0,0.0
1633521,86.0,0.0,493.0,4511.282051282052,4153.846153846154,4328.717948717949,4812.307692307693,3776.9230769230776,4222.564102564103,4255.8974358974365,4080.5128205128212,4349.2307692307695,4040.0000000000005,4263.589743589744,4305.128205128206,4379.48717948718,4381.025641025642,1680.0,1683.0,1634.928,1521.307373046875,0.0,0.0,0.0,0.0
1633521,87.0,0.0,489.0,4523.589743589744,4163.589743589744,4337.948717948719,4813.333333333334,3780.512820512821,4224.615384615385,4258.974358974359,4092.307692307693,4368.205128205129,4055.3846153846157,4262.051282051282,4311.794871794872,4392.820512820514,4392.307692307693,1680.0,1683.0,1634.936,1521.307373046875,0.0,0.0,0.0,0.0
1633522,88.0,0.0,0.0,4528.205128205129,4165.641025641026,4347.6923076923085,4807.179487179488,3778.9743589743593,4216.410256410257,4261.025641025642,4102.051282051282,4393.333333333334,4068.717948717949,4260.512820512821,4314.871794871796,4396.923076923077,4396.923076923077,1680.0,1682.0,1634.943,1521.307373046875,0.0,0.0,0.0,0.0
1633522,89.0,0.0,316.0,4521.538461538462,4160.000000000001,4344.615384615385,4813.333333333334,3775.8974358974365,4208.205128205129,4255.384615384616,4092.820512820513,4391.794871794872,4065.1282051282055,4263.589743589744,4314.358974358975,4390.256410256411,4391.282051282052,1680.0,1682.0,1634.951,1521.307373046875,0.0,0.0,0.0,0.0
1633522,90.0,0.0,493.0,4526.153846153847,4164.102564102564,4344.615384615385,4816.410256410257,3778.9743589743593,4212.307692307693,4255.384615384616,4079.48717948718,4376.410256410257,4058.461538461539,4263.589743589744,4317.435897435898,4389.743589743591,4396.410256410257,1679.0,1682.0,1634.959,1521.307373046875,0.0,0.0,0.0,0.0
1633522,91.0,0.0,489.0,4536.410256410257,4169.2307692307695,4350.256410256411,4809.743589743591,3781.0256410256416,4216.923076923077,4260.000000000001,4076.410256410257,4376.410256410257,4064.1025641025644,4262.051282051282,4321.025641025642,4397.948717948719,4407.6923076923085,1680.0,1682.0,1634.967,1521.307373046875,0.0,0.0,0.0,0.0
1633522,92.0,0.0,0.0,4528.205128205129,4157.435897435898,4341.538461538462,4811.282051282052,3781.0256410256416,4217.948717948719,4261.538461538462,4077.435897435898,4383.589743589744,4063.589743589744,4266.153846153847,4314.871794871796,4391.794871794872,4404.615384615385,1681.0,1681.0,1634.975,1521.307373046875,0.0,0.0,0.0,0.0
1633522,93.0,0.0,316.0,4520.512820512821,4150.769230769231,4337.435897435898,4808.717948717949,3786.1538461538466,4223.076923076924,4264.615384615385,4074.8717948717954,4382.051282051282,4058.9743589743593,4269.2307692307695,4309.743589743591,4383.589743589744,4397.948717948719,1680.0,1682.0,1634.983,1521.307373046875,0.0,0.0,0.0,0.0
1633523,94.0,0.0,493.0,4527.6923076923085,4160.512820512821,4348.717948717949,4812.820512820514,3790.2564102564106,4229.74358974359,4268.717948717949,4070.2564102564106,4363.076923076924,4061.538461538462,4269.2307692307695,4317.435897435898,4391.282051282052,4402.564102564103,1682.0,1681.0,1634.99,1521.307373046875,0.0,0.0,0.0,0.0
1633523,95.0,0.0,489.0,4528.717948717949,4160.512820512821,4349.743589743591,4815.8974358974365,3789.7435897435903,4234.358974358975,4267.6923076923085,4067.692307692308,4351.794871794872,4061.0256410256416,4265.128205128206,4318.461538461539,4396.410256410257,4404.102564102564,1680.0,1682.0,1634.998,1521.307373046875,0.0,0.0,0.0,0.0
1633523,96.0,0.0,0.0,4524.615384615385,4152.820512820514,4341.538461538462,4809.743589743591,3788.205128205129,4229.2307692307695,4264.615384615385,4068.205128205129,4370.769230769231,4057.9487179487182,4263.589743589744,4310.769230769231,4390.769230769231,4400.512820512821,1681.0,1683.0,1635.006,1521.307373046875,0.0,0.0,0.0,0.0
1633523,97.0,0.0,316.0,4528.205128205129,4157.948717948719,4345.641025641026,4811.794871794872,3786.666666666667,4217.435897435898,4263.076923076924,4065.6410256410263,4386.153846153847,4059.48717948718,4269.74358974359,4312.820512820514,4390.769230769231,4404.102564102564,1682.0,1682.0,1635.014,1521.307373046875,0.0,0.0,0.0,0.0
1633523,98.0,0.0,493.0,4533.333333333334,4166.153846153847,4353.333333333334,4809.2307692307695,3785.6410256410263,4216.923076923077,4264.102564102564,4065.1282051282055,4382.051282051282,4066.666666666667,4267.179487179487,4316.923076923077,4398.974358974359,4407.179487179487,1682.0,1682.0,1635.022,1521.307373046875,0.0,0.0,0.0,0.0
1633524,99.0,0.0,489.0,4527.179487179488,4158.461538461539,4346.153846153847,4810.256410256411,3784.1025641025644,4222.051282051282,4264.615384615385,4067.1794871794878,4377.435897435898,4065.6410256410263,4263.589743589744,4310.769230769231,4393.846153846154,4395.8974358974365,1681.0,1683.0,1635.029,1521.307373046875,0.0,0.0,0.0,0.0
1633524,100.0,0.0,0.0,4518.461538461539,4147.179487179487,4334.358974358975,4811.282051282052,3780.0000000000005,4220.512820512821,4260.000000000001,4065.1282051282055,4378.974358974359,4056.9230769230776,4265.641025641026,4306.666666666667,4381.025641025642,4385.641025641026,1682.0,1684.0,1635.037,1521.307373046875,0.0,0.0,0.0,0.0
1633524,101.0,0.0,316.0,4520.512820512821,4150.769230769231,4337.435897435898,4808.205128205129,3778.9743589743593,4215.8974358974365,4262.564102564103,4065.6410256410263,4389.743589743591,4066.666666666667,4264.615384615385,4312.307692307693,4386.666666666667,4394.871794871796,1681.0,1684.0,1635.045,1521.307373046875,0.0,0.0,0.0,0.0
1633525,102.0,0.0,493.0,4524.102564102564,4157.948717948719,4348.717948717949,4817.435897435898,3783.589743589744,4210.769230769231,4271.794871794872,4072.307692307693,4403.589743589744,4084.1025641025644,4264.615384615385,4318.974358974359,4398.974358974359,4403.076923076924,1681.0,1684.0,1635.054,1521.307373046875,0.0,0.0,0.0,0.0
1633525,103.0,0.0,489.0,4520.000000000001,4157.948717948719,4346.666666666667,4815.384615384616,3786.1538461538466,4215.8974358974365,4273.333333333334,4072.307692307693,4398.974358974359,4078.9743589743593,4264.615384615385,4314.358974358975,4399.48717948718,4397.948717948719,1681.0,1684.0,1635.061,1521.307373046875,0.0,0.0,0.0,0.0
1633526,104.0,0.0,0.0,4522.051282051282,4158.974358974359,4341.025641025642,4809.2307692307695,3786.1538461538466,4228.205128205129,4271.794871794872,4064.615384615385,4391.282051282052,4069.23076923077,4264.615384615385,4311.794871794872,4395.8974358974365,4396.410256410257,1680.0,1685.0,1635.07,1521.307373046875,0.0,0.0,0.0,0.0
1633526,105.0,0.0,316.0,4532.307692307693,4166.153846153847,4348.205128205129,4814.358974358975,3788.205128205129,4227.179487179487,4275.8974358974365,4064.1025641025644,4403.076923076924,4077.9487179487187,4266.153846153847,4317.435897435898,4400.512820512821,4401.538461538462,1681.0,1684.0,1635.076,1521.307373046875,0.0,0.0,0.0,0.0
1633527,106.0,0.0,493.0,4529.743589743591,4167.6923076923085,4351.282051282052,4811.794871794872,3786.666666666667,4222.564102564103,4274.871794871796,4066.1538461538466,4404.615384615385,4082.564102564103,4265.128205128206,4314.871794871796,4404.615384615385,4396.923076923077,1680.0,1685.0,1635.085,1521.307373046875,0.0,0.0,0.0,0.0
1633527,107.0,0.0,489.0,4516.410256410257,4162.051282051282,4341.538461538462,4813.846153846154,3783.589743589744,4224.615384615385,4265.128205128206,4069.23076923077,4393.846153846154,4076.9230769230776,4264.615384615385,4309.2307692307695,4405.128205128206,4389.2307692307695,1680.0,1685.0,1635.092,1521.307373046875,0.0,0.0,0.0,0.0
1633527,108.0,0.0,0.0,4509.2307692307695,4157.948717948719,4334.358974358975,4813.846153846154,3784.615384615385,4230.256410256411,4265.641025641026,4074.358974358975,4394.358974358975,4074.358974358975,4265.128205128206,4307.6923076923085,4400.000000000001,4386.153846153847,1679.0,1683.0,1635.1,1521.307373046875,0.0,0.0,0.0,0.0
1633528,109.0,0.0,316.0,4507.6923076923085,4148.205128205129,4328.717948717949,4812.820512820514,3782.564102564103,4233.846153846154,4267.6923076923085,4078.9743589743593,4395.384615384616,4067.1794871794878,4265.641025641026,4305.128205128206,4389.743589743591,4378.461538461539,1680.0,1683.0,1635.108,1521.307373046875,0.0,0.0,0.0,0.0
1633528,110.0,0.0,493.0,4509.743589743591,4144.615384615385,4325.128205128206,4814.871794871796,3778.461538461539,4225.641025641026,4258.461538461539,4082.564102564103,4386.153846153847,4061.0256410256416,4264.615384615385,4304.615384615385,4386.153846153847,4375.8974358974365,1680.0,1682.0,1635.156,1521.307373046875,0.0,0.0,0.0,0.0
1633528,111.0,0.0,489.0,4515.384615384616,4157.435897435898,4333.846153846154,4808.717948717949,3783.589743589744,4216.923076923077,4256.923076923077,4086.666666666667,4389.743589743591,4070.7692307692314,4265.641025641026,4306.666666666667,4396.923076923077,4383.589743589744,1680.0,1682.0,1635.16,1521.307373046875,0.0,0.0,0.0,0.0
1633528,112.0,0.0,0.0,4516.923076923077,4162.051282051282,4341.538461538462,4810.769230769231,3794.8717948717954,4228.205128205129,4267.6923076923085,4089.23076923077,4402.564102564103,4080.0000000000005,4269.2307692307695,4308.205128205129,4405.128205128206,4383.589743589744,1680.0,1683.0,1635.16,1521.307373046875,0.0,0.0,0.0,0.0
1633529,113.0,0.0,316.0,4514.358974358975,4155.8974358974365,4336.923076923077,4814.358974358975,3794.358974358975,4237.435897435898,4268.717948717949,4088.717948717949,4402.051282051282,4077.9487179487187,4269.2307692307695,4306.153846153847,4402.051282051282,4381.025641025642,1679.0,1685.0,1635.16,1521.307373046875,0.0,0.0,0.0,0.0
1633529,114.0,0.0,493.0,4515.8974358974365,4156.410256410257,4333.333333333334,4812.307692307693,3785.6410256410263,4223.076923076924,4259.48717948718,4083.076923076924,4393.846153846154,4073.8461538461543,4266.666666666667,4305.641025641026,4398.974358974359,4385.128205128206,1681.0,1685.0,1635.16,1521.307373046875,0.0,0.0,0.0,0.0
1633529,115.0,0.0,489.0,4514.871794871796,4154.358974358975,4330.769230769231,4813.333333333334,3786.1538461538466,4216.923076923077,4257.435897435898,4075.8974358974365,4386.153846153847,4069.7435897435903,4267.6923076923085,4306.153846153847,4395.384615384616,4381.538461538462,1680.0,1686.0,1635.16,1521.307373046875,0.0,0.0,0.0,0.0
1633529,116.0,0.0,0.0,4507.6923076923085,4148.205128205129,4327.6923076923085,4808.205128205129,3788.717948717949,4230.256410256411,4265.641025641026,4080.5128205128212,4391.282051282052,4067.692307692308,4266.666666666667,4305.128205128206,4390.256410256411,4368.205128205129,1682.0,1685.0,1635.165,1521.307373046875,0.0,0.0,0.0,0.0
1633530,117.0,0.0,316.0,4506.666666666667,4149.74358974359,4330.769230769231,4813.846153846154,3786.1538461538466,4233.333333333334,4269.2307692307695,4090.7692307692314,4403.076923076924,4074.358974358975,4266.666666666667,4309.743589743591,4393.333333333334,4371.282051282052,1681.0,1685.0,1635.173,1521.307373046875,0.0,0.0,0.0,0.0
1633530,118.0,0.0,493.0,4516.923076923077,4159.48717948718,4337.435897435898,4815.8974358974365,3789.2307692307695,4233.846153846154,4270.769230769231,4092.820512820513,4411.794871794872,4087.692307692308,4266.153846153847,4317.435897435898,4405.128205128206,4387.6923076923085,1681.0,1685.0,1635.18,1521.307373046875,0.0,0.0,0.0,0.0
1633530,119.0,0.0,489.0,4524.102564102564,4165.128205128206,4342.051282051282,4806.153846153847,3792.820512820513,4241.538461538462,4274.358974358975,4096.410256410257,4414.358974358975,4092.307692307693,4263.076923076924,4316.923076923077,4410.769230769231,4389.743589743591,1680.0,1685.0,1635.188,1521.307373046875,0.0,0.0,0.0,0.0
1633530,120.0,0.0,0.0,4521.025641025642,4163.589743589744,4342.564102564103,4809.743589743591,3791.2820512820517,4236.923076923077,4273.333333333334,4104.102564102564,4409.2307692307695,4086.666666666667,4265.128205128206,4315.384615384616,4407.6923076923085,4387.179487179487,1680.0,1686.0,1635.195,1521.307373046875,0.0,0.0,0.0,0.0
1633530,121.0,0.0,316.0,4520.000000000001,4160.000000000001,4342.564102564103,4810.769230769231,3790.2564102564106,4231.282051282052,4269.74358974359,4107.6923076923085,4407.6923076923085,4086.666666666667,4267.6923076923085,4313.846153846154,4410.769230769231,4391.282051282052,1680.0,1686.0,1635.203,1521.307373046875,0.0,0.0,0.0,0.0
1633530,122.0,0.0,493.0,4517.435897435898,4156.410256410257,4336.410256410257,4812.307692307693,3790.2564102564106,4233.846153846154,4267.6923076923085,4097.435897435898,4400.512820512821,4083.589743589744,4267.6923076923085,4307.6923076923085,4406.666666666667,4383.076923076924,1679.0,1687.0,1635.211,1521.307373046875,0.0,0.0,0.0,0.0
1633531,123.0,0.0,489.0,4512.307692307693,4155.384615384616,4330.769230769231,4813.333333333334,3790.2564102564106,4233.333333333334,4268.717948717949,4082.564102564103,4384.102564102564,4073.8461538461543,4265.641025641026,4305.128205128206,4396.410256410257,4372.820512820514,1679.0,1687.0,1635.218,1521.307373046875,0.0,0.0,0.0,0.0
1633531,124.0,0.0,0.0,4512.307692307693,4155.8974358974365,4331.794871794872,4806.666666666667,3788.717948717949,4226.153846153847,4268.717948717949,4081.538461538462,4377.948717948719,4071.2820512820517,4264.102564102564,4309.743589743591,4398.974358974359,4377.948717948719,1678.0,1688.0,1635.226,1521.307373046875,0.0,0.0,0.0,0.0
1633531,125.0,0.0,316.0,4513.333333333334,4153.846153846154,4331.282051282052,4813.846153846154,3786.666666666667,4216.923076923077,4264.615384615385,4086.666666666667,4374.358974358975,4068.205128205129,4268.205128205129,4311.282051282052,4401.538461538462,4383.076923076924,1679.0,1688.0,1635.234,1521.307373046875,0.0,0.0,0.0,0.0
1633531,126.0,0.0,493.0,4514.871794871796,4153.333333333334,4331.282051282052,4812.307692307693,3784.615384615385,4217.948717948719,4261.538461538462,4084.615384615385,4369.743589743591,4063.076923076924,4269.74358974359,4306.666666666667,4396.410256410257,4381.538461538462,1679.0,1690.0,1635.242,1521.307373046875,0.0,0.0,0.0,0.0
1633531,127.0,0.0,489.0,4516.923076923077,4156.410256410257,4336.410256410257,4807.6923076923085,3786.1538461538466,4227.6923076923085,4263.589743589744,4086.666666666667,4378.461538461539,4068.717948717949,4267.6923076923085,4308.205128205129,4394.871794871796,4383.589743589744,1680.0,1691.0,1635.248,1521.307373046875,0.0,0.0,0.0,0.0
1633531,128.0,0.0,0.0,4519.48717948718,4155.8974358974365,4337.948717948719,4813.333333333334,3785.1282051282055,4228.205128205129,4265.128205128206,4092.307692307693,4389.2307692307695,4073.333333333334,4265.641025641026,4312.307692307693,4394.871794871796,4387.6923076923085,1679.0,1692.0,1635.256,1521.307373046875,0.0,0.0,0.0,0.0
1633531,0.0,0.0,512.0,4514.871794871796,4152.307692307693,4330.769230769231,4811.282051282052,3778.9743589743593,4222.051282051282,4261.025641025642,4082.564102564103,4380.000000000001,4063.589743589744,4262.564102564103,4308.205128205129,4387.6923076923085,4384.615384615385,1681.0,1693.0,1635.264,1521.307373046875,0.0,0.0,0.0,0.0
1633543,1.0,0.0,0.0,4503.589743589744,4147.179487179487,4322.051282051282,4813.333333333334,3777.435897435898,4223.076923076924,4257.435897435898,4072.307692307693,4373.333333333334,4054.8717948717954,4264.102564102564,4305.128205128206,4377.435897435898,4376.923076923077,1682.0,1690.0,1635.272,1521.7921142578125,0.0,0.0,0.0,0.0
1633543,2.0,0.0,508.0,4499.48717948718,4142.564102564103,4321.538461538462,4812.820512820514,3778.9743589743593,4226.153846153847,4260.000000000001,4079.48717948718,4388.205128205129,4060.5128205128212,4264.102564102564,4308.205128205129,4374.871794871796,4372.820512820514,1682.0,1688.0,1635.28,1521.7921142578125,0.0,0.0,0.0,0.0
1633543,3.0,0.0,531.0,4500.512820512821,4138.461538461539,4319.48717948718,4809.743589743591,3780.0000000000005,4232.307692307693,4266.666666666667,4084.1025641025644,4396.923076923077,4065.6410256410263,4262.051282051282,4306.153846153847,4372.820512820514,4370.769230769231,1683.0,1685.0,1635.287,1521.7921142578125,0.0,0.0,0.0,0.0
1633543,4.0,0.0,501.0,4495.8974358974365,4133.846153846154,4310.769230769231,4813.333333333334,3780.0000000000005,4240.512820512821,4263.076923076924,4071.7948717948725,4380.000000000001,4055.8974358974365,4265.641025641026,4299.48717948718,4367.179487179487,4362.564102564103,1683.0,1683.0,1635.295,1521.7921142578125,0.0,0.0,0.0,0.0
1634021,5.0,0.0,551.0,4498.461538461539,4138.461538461539,4313.846153846154,4811.282051282052,3775.8974358974365,4230.256410256411,4256.410256410257,4065.1282051282055,4371.282051282052,4053.333333333334,4265.128205128206,4301.025641025642,4374.871794871796,4368.205128205129,1684.0,1682.0,1635.303,1521.823486328125,0.0,0.0,0.0,0.0
1634021,6.0,0.0,548.0,4511.282051282052,4150.256410256411,4328.205128205129,4815.8974358974365,3775.3846153846157,4207.6923076923085,4255.384615384616,4071.7948717948725,4381.025641025642,4071.7948717948725,4265.641025641026,4311.794871794872,4395.8974358974365,4388.717948717949,1684.0,1682.0,1635.311,1521.823486328125,0.0,0.0,0.0,0.0
1634021,7.0,0.0,327.0,4519.48717948718,4160.000000000001,4335.8974358974365,4818.461538461539,3783.076923076924,4207.179487179487,4257.948717948719,4074.8717948717954,4385.128205128206,4084.615384615385,4267.6923076923085,4316.923076923077,4406.153846153847,4395.384615384616,1685.0,1683.0,1635.32,1521.823486328125,0.0,0.0,0.0,0.0
1634022,8.0,0.0,457.0,4521.538461538462,4163.589743589744,4334.358974358975,4812.307692307693,3788.717948717949,4217.948717948719,4260.512820512821,4072.307692307693,4384.615384615385,4079.48717948718,4265.128205128206,4312.307692307693,4401.538461538462,4385.641025641026,1684.0,1685.0,1635.327,1521.823486328125,0.0,0.0,0.0,0.0
1634022,9.0,0.0,477.0,4522.564102564103,4158.974358974359,4330.256410256411,4813.333333333334,3787.692307692308,4216.410256410257,4263.076923076924,4076.410256410257,4391.282051282052,4073.8461538461543,4263.589743589744,4308.717948717949,4395.384615384616,4383.076923076924,1683.0,1686.0,1635.335,1521.823486328125,0.0,0.0,0.0,0.0
1634022,10.0,0.0,493.0,4524.615384615385,4158.974358974359,4331.282051282052,4811.282051282052,3791.7948717948725,4222.564102564103,4270.256410256411,4084.615384615385,4398.974358974359,4084.1025641025644,4264.615384615385,4311.282051282052,4398.461538461539,4390.769230769231,1682.0,1686.0,1635.342,1521.823486328125,0.0,0.0,0.0,0.0
1634023,11.0,0.0,489.0,4524.615384615385,4161.538461538462,4331.794871794872,4813.846153846154,3793.8461538461543,4228.205128205129,4273.333333333334,4083.589743589744,4399.48717948718,4090.7692307692314,4266.666666666667,4315.384615384616,4402.051282051282,4393.333333333334,1682.0,1684.0,1635.351,1521.823486328125,0.0,0.0,0.0,0.0
1634023,12.0,0.0,0.0,4517.948717948719,4153.333333333334,4325.128205128206,4815.8974358974365,3783.076923076924,4221.025641025642,4266.153846153847,4075.3846153846157,4389.2307692307695,4075.3846153846157,4265.128205128206,4309.743589743591,4395.8974358974365,4385.128205128206,1680.0,1684.0,1635.358,1521.823486328125,0.0,0.0,0.0,0.0
1634024,13.0,0.0,316.0,4513.846153846154,4143.589743589744,4315.8974358974365,4811.282051282052,3778.9743589743593,4224.102564102564,4260.512820512821,4070.2564102564106,4378.974358974359,4062.0512820512827,4262.564102564103,4301.538461538462,4388.717948717949,4380.512820512821,1681.0,1683.0,1635.417,1521.823486328125,0.0,0.0,0.0,0.0
1634024,14.0,0.0,493.0,4515.8974358974365,4145.641025641026,4316.923076923077,4814.871794871796,3784.615384615385,4235.8974358974365,4264.615384615385,4075.3846153846157,4387.6923076923085,4069.7435897435903,4264.102564102564,4305.128205128206,4391.794871794872,4388.205128205129,1680.0,1684.0,1635.42,1521.823486328125,0.0,0.0,0.0,0.0
1634024,15.0,0.0,489.0,4521.538461538462,4155.384615384616,4329.2307692307695,4811.794871794872,3786.1538461538466,4235.384615384616,4269.2307692307695,4081.0256410256416,4404.102564102564,4081.0256410256416,4265.641025641026,4311.794871794872,4404.615384615385,4395.384615384616,1681.0,1683.0,1635.42,1521.823486328125,0.0,0.0,0.0,0.0
1634024,16.0,0.0,0.0,4531.794871794872,4164.102564102564,4340.512820512821,4812.307692307693,3785.1282051282055,4225.641025641026,4265.641025641026,4082.0512820512827,4401.538461538462,4087.1794871794878,4266.153846153847,4315.8974358974365,4414.871794871796,4398.974358974359,1680.0,1684.0,1635.42,1521.823486328125,0.0,0.0,0.0,0.0
1634025,17.0,0.0,0.0,4537.435897435898,4165.641025641026,4336.410256410257,4815.8974358974365,3785.1282051282055,4226.666666666667,4262.564102564103,4086.666666666667,4395.384615384616,4088.205128205129,4266.153846153847,4312.820512820514,4413.846153846154,4401.538461538462,1681.0,1683.0,1635.42,1521.823486328125,0.0,0.0,0.0,0.0
1634025,18.0,0.0,0.0,4528.717948717949,4158.974358974359,4326.153846153847,4811.282051282052,3783.076923076924,4229.74358974359,4258.974358974359,4086.1538461538466,4398.974358974359,4080.5128205128212,4265.641025641026,4304.615384615385,4405.128205128206,4395.384615384616,1680.0,1684.0,1635.42,1521.823486328125,0.0,0.0,0.0,0.0
1634026,19.0,0.0,0.0,4521.025641025642,4155.384615384616,4328.717948717949,4815.384615384616,3782.564102564103,4221.025641025642,4252.307692307693,4076.410256410257,4394.871794871796,4075.8974358974365,4267.6923076923085,4307.179487179487,4401.538461538462,4390.769230769231,1681.0,1684.0,1635.42,1521.823486328125,0.0,0.0,0.0,0.0
1634027,20.0,0.0,0.0,4522.051282051282,4156.410256410257,4332.820512820514,4813.846153846154,3784.615384615385,4218.461538461539,4251.794871794872,4073.333333333334,4389.743589743591,4080.5128205128212,4268.205128205129,4310.769230769231,4404.615384615385,4391.282051282052,1681.0,1683.0,1635.423,1521.823486328125,0.0,0.0,0.0,0.0
1634027,21.0,0.0,0.0,4520.000000000001,4149.2307692307695,4324.102564102564,4810.256410256411,3781.538461538462,4221.025641025642,4252.307692307693,4077.9487179487187,4393.333333333334,4079.48717948718,4265.641025641026,4304.615384615385,4402.051282051282,4386.153846153847,1680.0,1685.0,1635.428,1521.823486328125,0.0,0.0,0.0,0.0
1634028,22.0,0.0,0.0,4525.641025641026,4149.2307692307695,4322.051282051282,4813.846153846154,3775.8974358974365,4209.2307692307695,4245.641025641026,4075.8974358974365,4385.128205128206,4072.820512820513,4266.153846153847,4304.102564102564,4399.48717948718,4387.179487179487,1681.0,1683.0,1635.437,1521.823486328125,0.0,0.0,0.0,0.0
1634028,23.0,0.0,0.0,4532.307692307693,4158.461538461539,4329.2307692307695,4809.743589743591,3775.8974358974365,4202.051282051282,4244.102564102564,4073.8461538461543,4374.871794871796,4071.2820512820517,4266.666666666667,4307.6923076923085,4403.589743589744,4394.871794871796,1680.0,1683.0,1635.444,1521.823486328125,0.0,0.0,0.0,0.0
