timestamp,cnt,inerpolated,raw_cq,af3,f7,f3,fc5,t7,p7,o1,o2,p8,t8,fc6,f4,f8,af4,gyrox,gyroy,epoc_timestamp,epoc_es_timestamp,func_id,func_value,marker,sync_signal
1479861,74.0,0.0,496.0,4429.743589743591,4128.205128205129,4296.923076923077,4811.794871794872,3751.2820512820517,4204.102564102564,4212.307692307693,4085.1282051282055,4346.666666666667,4029.7435897435903,4263.589743589744,4289.74358974359,4333.846153846154,4213.846153846154,1682.0,1684.0,1481.507,1368.0272216796875,0.0,0.0,0.0,0.0
1479861,75.0,0.0,487.0,4434.871794871796,4131.282051282052,4306.153846153847,4816.410256410257,3753.8461538461543,4202.051282051282,4215.384615384616,4092.820512820513,4357.948717948719,4041.0256410256416,4265.128205128206,4293.846153846154,4339.48717948718,4218.974358974359,1682.0,1684.0,1481.516,1368.0272216796875,0.0,0.0,0.0,0.0
1479861,76.0,0.0,0.0,4447.179487179487,4143.076923076924,4317.948717948719,4815.8974358974365,3760.512820512821,4200.512820512821,4219.48717948718,4100.512820512821,4376.923076923077,4054.8717948717954,4264.615384615385,4298.461538461539,4349.743589743591,4231.282051282052,1682.0,1684.0,1481.523,1368.0272216796875,0.0,0.0,0.0,0.0
1479861,77.0,0.0,292.0,4453.333333333334,4149.2307692307695,4323.076923076924,4815.384615384616,3763.076923076924,4208.205128205129,4227.6923076923085,4102.564102564103,4385.128205128206,4064.615384615385,4264.102564102564,4300.512820512821,4360.000000000001,4239.48717948718,1684.0,1684.0,1481.532,1368.0272216796875,0.0,0.0,0.0,0.0
1479861,78.0,0.0,496.0,4448.205128205129,4143.589743589744,4317.948717948719,4816.923076923077,3760.0000000000005,4212.307692307693,4229.74358974359,4100.512820512821,4383.076923076924,4066.1538461538466,4266.153846153847,4297.435897435898,4357.435897435898,4231.282051282052,1683.0,1684.0,1481.538,1368.0272216796875,0.0,0.0,0.0,0.0
1479861,79.0,0.0,487.0,4443.076923076924,4142.051282051282,4312.820512820514,4812.820512820514,3760.0000000000005,4214.871794871796,4225.641025641026,4093.333333333334,4377.435897435898,4058.9743589743593,4264.615384615385,4290.256410256411,4349.2307692307695,4220.512820512821,1684.0,1685.0,1481.547,1368.0272216796875,0.0,0.0,0.0,0.0
1479862,80.0,0.0,0.0,4437.948717948719,4140.512820512821,4309.2307692307695,4815.8974358974365,3760.512820512821,4215.384615384616,4221.025641025642,4088.205128205129,4374.358974358975,4048.205128205129,4264.102564102564,4284.615384615385,4342.564102564103,4217.948717948719,1683.0,1685.0,1481.554,1368.0272216796875,0.0,0.0,0.0,0.0
1479863,81.0,0.0,292.0,4431.794871794872,4131.282051282052,4302.564102564103,4817.948717948719,3754.8717948717954,4205.128205128206,4216.410256410257,4088.717948717949,4377.435897435898,4042.0512820512827,4265.128205128206,4283.589743589744,4333.846153846154,4214.358974358975,1684.0,1685.0,1481.563,1368.0272216796875,0.0,0.0,0.0,0.0
1479863,82.0,0.0,496.0,4429.2307692307695,4124.615384615385,4296.410256410257,4814.358974358975,3750.7692307692314,4201.025641025642,4213.846153846154,4084.1025641025644,4360.512820512821,4032.820512820513,4266.153846153847,4283.076923076924,4324.615384615385,4207.179487179487,1684.0,1685.0,1481.57,1368.0272216796875,0.0,0.0,0.0,0.0
1479863,83.0,0.0,487.0,4429.2307692307695,4124.615384615385,4296.923076923077,4812.820512820514,3750.7692307692314,4208.205128205129,4214.358974358975,4076.9230769230776,4338.974358974359,4023.589743589744,4266.153846153847,4284.102564102564,4323.589743589744,4205.128205128206,1685.0,1686.0,1481.578,1368.0272216796875,0.0,0.0,0.0,0.0
1479863,84.0,0.0,0.0,4432.820512820514,4129.2307692307695,4303.076923076924,4813.846153846154,3750.2564102564106,4207.6923076923085,4215.8974358974365,4078.9743589743593,4348.205128205129,4029.7435897435903,4263.589743589744,4288.717948717949,4331.282051282052,4207.6923076923085,1685.0,1684.0,1481.585,1368.0272216796875,0.0,0.0,0.0,0.0
1479863,85.0,0.0,292.0,4437.435897435898,4132.820512820514,4306.666666666667,4820.000000000001,3749.2307692307695,4198.461538461539,4216.410256410257,4080.5128205128212,4360.512820512821,4036.410256410257,4263.589743589744,4292.820512820514,4337.435897435898,4212.307692307693,1683.0,1685.0,1481.593,1368.0272216796875,0.0,0.0,0.0,0.0
1479863,86.0,0.0,496.0,4441.025641025642,4137.948717948719,4309.743589743591,4815.8974358974365,3752.307692307693,4201.538461538462,4221.538461538462,4082.564102564103,4357.948717948719,4035.8974358974365,4264.615384615385,4290.256410256411,4341.538461538462,4218.974358974359,1684.0,1684.0,1481.601,1368.0272216796875,0.0,0.0,0.0,0.0
1479864,87.0,0.0,487.0,4442.564102564103,4141.538461538462,4309.743589743591,4811.282051282052,3756.410256410257,4206.666666666667,4222.564102564103,4087.692307692308,4360.512820512821,4036.9230769230776,4265.641025641026,4289.2307692307695,4342.564102564103,4222.051282051282,1683.0,1685.0,1481.609,1368.0272216796875,0.0,0.0,0.0,0.0
1479864,88.0,0.0,0.0,4445.641025641026,4141.538461538462,4309.743589743591,4814.871794871796,3753.8461538461543,4197.948717948719,4214.358974358975,4088.717948717949,4365.641025641026,4044.615384615385,4266.666666666667,4292.820512820514,4344.615384615385,4222.564102564103,1684.0,1686.0,1481.617,1368.0272216796875,0.0,0.0,0.0,0.0
1479864,89.0,0.0,292.0,4449.743589743591,4143.076923076924,4316.923076923077,4813.333333333334,3748.717948717949,4191.282051282052,4212.820512820514,4090.2564102564106,4366.666666666667,4052.820512820513,4263.589743589744,4294.358974358975,4352.820512820514,4230.769230769231,1683.0,1685.0,1481.624,1368.0272216796875,0.0,0.0,0.0,0.0
1479895,90.0,0.0,496.0,4441.025641025642,4144.615384615385,4322.051282051282,4816.923076923077,3749.2307692307695,4197.435897435898,4217.435897435898,4092.307692307693,4368.717948717949,4053.8461538461543,4264.102564102564,4296.410256410257,4356.410256410257,4235.384615384616,1683.0,1685.0,1481.633,1368.15234375,0.0,0.0,0.0,0.0
1479895,91.0,0.0,487.0,4431.282051282052,4143.076923076924,4319.48717948718,4819.48717948718,3754.358974358975,4206.666666666667,4223.589743589744,4090.2564102564106,4371.282051282052,4051.2820512820517,4265.128205128206,4298.461538461539,4352.307692307693,4229.74358974359,1682.0,1685.0,1481.64,1368.15234375,0.0,0.0,0.0,0.0
1479895,92.0,0.0,0.0,4433.846153846154,4137.435897435898,4315.8974358974365,4812.307692307693,3753.8461538461543,4202.564102564103,4224.615384615385,4089.23076923077,4375.8974358974365,4049.23076923077,4264.102564102564,4296.410256410257,4348.717948717949,4226.666666666667,1682.0,1685.0,1481.648,1368.15234375,0.0,0.0,0.0,0.0
1479895,93.0,0.0,292.0,4432.307692307693,4130.769230769231,4312.820512820514,4813.846153846154,3748.205128205129,4194.358974358975,4218.461538461539,4088.205128205129,4374.358974358975,4045.1282051282055,4263.589743589744,4294.871794871796,4344.615384615385,4229.74358974359,1682.0,1684.0,1481.656,1368.15234375,0.0,0.0,0.0,0.0
1479990,94.0,0.0,496.0,4418.974358974359,4124.102564102564,4306.666666666667,4815.384615384616,3746.666666666667,4202.051282051282,4213.333333333334,4076.9230769230776,4352.307692307693,4032.307692307693,4264.615384615385,4288.205128205129,4335.384615384616,4222.564102564103,1682.0,1685.0,1481.664,1368.18359375,0.0,0.0,0.0,0.0
1479990,95.0,0.0,487.0,4407.6923076923085,4117.948717948719,4297.948717948719,4814.871794871796,3750.2564102564106,4210.769230769231,4215.384615384616,4069.23076923077,4333.846153846154,4020.5128205128212,4267.6923076923085,4281.538461538462,4327.6923076923085,4208.205128205129,1682.0,1684.0,1481.672,1368.18359375,0.0,0.0,0.0,0.0
1479990,96.0,0.0,0.0,4415.384615384616,4124.615384615385,4302.564102564103,4814.871794871796,3753.8461538461543,4203.589743589744,4220.512820512821,4080.0000000000005,4344.615384615385,4030.2564102564106,4266.153846153847,4288.205128205129,4338.461538461539,4214.358974358975,1682.0,1685.0,1481.68,1368.18359375,0.0,0.0,0.0,0.0
1479990,97.0,0.0,292.0,4427.179487179487,4136.410256410257,4313.333333333334,4812.307692307693,3753.333333333334,4195.8974358974365,4227.179487179487,4090.2564102564106,4365.128205128206,4051.7948717948725,4261.538461538462,4295.8974358974365,4355.384615384616,4231.794871794872,1683.0,1684.0,1481.687,1368.18359375,0.0,0.0,0.0,0.0
1479991,98.0,0.0,496.0,4422.051282051282,4130.769230769231,4309.743589743591,4816.410256410257,3752.307692307693,4199.48717948718,4230.256410256411,4085.6410256410263,4367.6923076923085,4051.2820512820517,4264.615384615385,4291.282051282052,4352.307692307693,4226.666666666667,1681.0,1684.0,1481.696,1368.18359375,0.0,0.0,0.0,0.0
1479991,99.0,0.0,487.0,4415.384615384616,4124.102564102564,4303.076923076924,4815.8974358974365,3755.3846153846157,4206.666666666667,4227.179487179487,4081.0256410256416,4368.205128205129,4041.538461538462,4265.128205128206,4287.6923076923085,4345.641025641026,4214.871794871796,1683.0,1685.0,1481.703,1368.18359375,0.0,0.0,0.0,0.0
1479991,100.0,0.0,0.0,4415.8974358974365,4125.641025641026,4302.051282051282,4813.333333333334,3756.410256410257,4210.256410256411,4223.076923076924,4078.9743589743593,4366.666666666667,4042.0512820512827,4264.102564102564,4291.282051282052,4346.153846153847,4212.307692307693,1683.0,1684.0,1481.71,1368.18359375,0.0,0.0,0.0,0.0
1479991,101.0,0.0,292.0,4414.358974358975,4126.666666666667,4298.974358974359,4813.333333333334,3755.3846153846157,4207.6923076923085,4222.051282051282,4074.8717948717954,4351.282051282052,4039.48717948718,4265.641025641026,4291.282051282052,4344.102564102564,4210.769230769231,1682.0,1685.0,1481.718,1368.18359375,0.0,0.0,0.0,0.0
1479991,102.0,0.0,496.0,4423.076923076924,4134.871794871796,4303.076923076924,4810.769230769231,3754.8717948717954,4199.48717948718,4225.128205128206,4079.48717948718,4353.846153846154,4045.1282051282055,4264.102564102564,4292.820512820514,4351.794871794872,4223.076923076924,1683.0,1684.0,1481.726,1368.18359375,0.0,0.0,0.0,0.0
1479991,103.0,0.0,487.0,4434.871794871796,4142.051282051282,4314.871794871796,4815.8974358974365,3755.8974358974365,4198.974358974359,4227.179487179487,4085.1282051282055,4371.794871794872,4056.9230769230776,4265.128205128206,4297.948717948719,4363.076923076924,4238.974358974359,1683.0,1685.0,1481.734,1368.18359375,0.0,0.0,0.0,0.0
1479991,104.0,0.0,0.0,4428.205128205129,4134.358974358975,4316.923076923077,4815.8974358974365,3756.9230769230776,4207.179487179487,4227.179487179487,4083.076923076924,4371.282051282052,4052.820512820513,4266.153846153847,4294.358974358975,4358.461538461539,4231.282051282052,1683.0,1685.0,1481.742,1368.18359375,0.0,0.0,0.0,0.0
1479991,105.0,0.0,292.0,4425.128205128206,4130.769230769231,4315.8974358974365,4812.820512820514,3755.8974358974365,4205.128205128206,4226.153846153847,4081.538461538462,4366.666666666667,4047.692307692308,4265.641025641026,4291.282051282052,4350.769230769231,4220.512820512821,1683.0,1687.0,1481.75,1368.18359375,0.0,0.0,0.0,0.0
1480109,106.0,0.0,496.0,4436.410256410257,4137.948717948719,4321.025641025642,4813.846153846154,3758.461538461539,4198.974358974359,4222.051282051282,4078.461538461539,4370.256410256411,4054.358974358975,4265.128205128206,4293.846153846154,4351.794871794872,4229.2307692307695,1684.0,1687.0,1481.757,1368.2774658203125,0.0,0.0,0.0,0.0
1480109,107.0,0.0,487.0,4437.948717948719,4142.051282051282,4323.076923076924,4813.333333333334,3764.1025641025644,4208.205128205129,4224.102564102564,4071.2820512820517,4363.589743589744,4052.820512820513,4264.615384615385,4291.794871794872,4354.871794871796,4234.358974358975,1683.0,1688.0,1481.766,1368.2774658203125,0.0,0.0,0.0,0.0
1480109,108.0,0.0,0.0,4431.794871794872,4135.8974358974365,4318.461538461539,4816.410256410257,3761.0256410256416,4212.820512820514,4225.128205128206,4069.23076923077,4352.307692307693,4045.1282051282055,4265.641025641026,4289.74358974359,4354.871794871796,4221.538461538462,1685.0,1688.0,1481.773,1368.2774658203125,0.0,0.0,0.0,0.0
1480109,109.0,0.0,292.0,4427.179487179487,4126.153846153847,4310.769230769231,4816.923076923077,3751.794871794872,4203.076923076924,4220.000000000001,4072.820512820513,4351.794871794872,4042.0512820512827,4266.153846153847,4289.2307692307695,4349.2307692307695,4208.205128205129,1683.0,1688.0,1481.782,1368.2774658203125,0.0,0.0,0.0,0.0
1480109,110.0,0.0,496.0,4426.666666666667,4126.666666666667,4310.769230769231,4814.358974358975,3752.820512820513,4199.48717948718,4221.025641025642,4076.410256410257,4359.48717948718,4041.538461538462,4265.128205128206,4289.74358974359,4345.641025641026,4214.358974358975,1683.0,1688.0,1481.789,1368.2774658203125,0.0,0.0,0.0,0.0
1480110,111.0,0.0,487.0,4429.2307692307695,4133.333333333334,4315.384615384616,4814.871794871796,3758.9743589743593,4205.128205128206,4226.666666666667,4077.9487179487187,4364.615384615385,4041.0256410256416,4265.641025641026,4291.282051282052,4350.256410256411,4230.256410256411,1681.0,1687.0,1481.797,1368.2774658203125,0.0,0.0,0.0,0.0
1480110,112.0,0.0,0.0,4424.102564102564,4126.666666666667,4308.717948717949,4811.794871794872,3753.333333333334,4208.205128205129,4222.564102564103,4073.8461538461543,4354.358974358975,4036.9230769230776,4264.102564102564,4287.6923076923085,4347.179487179487,4228.717948717949,1680.0,1689.0,1481.804,1368.2774658203125,0.0,0.0,0.0,0.0
1480110,113.0,0.0,292.0,4415.384615384616,4115.384615384616,4300.000000000001,4814.871794871796,3749.7435897435903,4204.615384615385,4215.8974358974365,4071.2820512820517,4341.538461538462,4032.307692307693,4263.589743589744,4287.179487179487,4341.025641025642,4216.923076923077,1679.0,1689.0,1481.812,1368.2774658203125,0.0,0.0,0.0,0.0
1480110,114.0,0.0,496.0,4425.128205128206,4126.153846153847,4310.769230769231,4815.8974358974365,3754.358974358975,4201.025641025642,4222.051282051282,4081.0256410256416,4355.384615384616,4042.564102564103,4265.128205128206,4294.358974358975,4354.871794871796,4224.615384615385,1677.0,1690.0,1481.82,1368.2774658203125,0.0,0.0,0.0,0.0
1480110,115.0,0.0,487.0,4442.051282051282,4142.564102564103,4326.153846153847,4811.794871794872,3758.461538461539,4203.076923076924,4230.256410256411,4091.2820512820517,4384.615384615385,4060.0000000000005,4264.615384615385,4298.974358974359,4370.769230769231,4241.538461538462,1677.0,1690.0,1481.828,1368.2774658203125,0.0,0.0,0.0,0.0
1480110,116.0,0.0,0.0,4439.48717948718,4136.923076923077,4324.102564102564,4816.923076923077,3760.512820512821,4204.615384615385,4226.153846153847,4090.2564102564106,4389.743589743591,4061.538461538462,4265.128205128206,4295.8974358974365,4367.179487179487,4244.615384615385,1675.0,1691.0,1481.836,1368.2774658203125,0.0,0.0,0.0,0.0
1480110,117.0,0.0,292.0,4431.794871794872,4131.794871794872,4319.48717948718,4816.923076923077,3761.0256410256416,4204.102564102564,4219.48717948718,4083.076923076924,4376.923076923077,4056.410256410257,4265.128205128206,4291.794871794872,4365.128205128206,4240.000000000001,1675.0,1690.0,1481.843,1368.2774658203125,0.0,0.0,0.0,0.0
1480110,118.0,0.0,496.0,4434.871794871796,4138.461538461539,4323.589743589744,4815.384615384616,3758.461538461539,4201.538461538462,4218.974358974359,4081.538461538462,4373.333333333334,4060.0000000000005,4265.128205128206,4293.333333333334,4373.333333333334,4238.974358974359,1673.0,1689.0,1481.851,1368.2774658203125,0.0,0.0,0.0,0.0
1480111,119.0,0.0,487.0,4436.410256410257,4138.974358974359,4324.102564102564,4816.410256410257,3754.358974358975,4199.48717948718,4221.025641025642,4088.205128205129,4377.948717948719,4061.0256410256416,4264.102564102564,4294.358974358975,4372.307692307693,4240.512820512821,1675.0,1688.0,1481.859,1368.2774658203125,0.0,0.0,0.0,0.0
1480111,120.0,0.0,0.0,4427.6923076923085,4131.794871794872,4316.410256410257,4811.282051282052,3752.307692307693,4196.923076923077,4217.948717948719,4091.7948717948725,4372.820512820514,4051.7948717948725,4262.564102564103,4290.769230769231,4362.564102564103,4242.051282051282,1674.0,1687.0,1481.867,1368.2774658203125,0.0,0.0,0.0,0.0
1480111,121.0,0.0,292.0,4417.435897435898,4124.102564102564,4309.743589743591,4813.846153846154,3751.2820512820517,4195.8974358974365,4213.846153846154,4090.2564102564106,4362.564102564103,4044.1025641025644,4264.615384615385,4288.205128205129,4354.358974358975,4235.8974358974365,1675.0,1688.0,1481.875,1368.2774658203125,0.0,0.0,0.0,0.0
1480239,122.0,0.0,496.0,4418.461538461539,4121.538461538462,4310.256410256411,4816.923076923077,3751.794871794872,4202.564102564103,4218.974358974359,4089.7435897435903,4364.615384615385,4045.1282051282055,4266.666666666667,4287.179487179487,4355.384615384616,4231.794871794872,1674.0,1686.0,1481.882,1368.402587890625,0.0,0.0,0.0,0.0
1480239,123.0,0.0,487.0,4422.564102564103,4118.974358974359,4308.717948717949,4815.8974358974365,3751.794871794872,4204.102564102564,4220.000000000001,4089.7435897435903,4364.102564102564,4047.1794871794878,4266.666666666667,4286.666666666667,4355.8974358974365,4233.333333333334,1674.0,1687.0,1481.89,1368.402587890625,0.0,0.0,0.0,0.0
1480239,124.0,0.0,0.0,4426.666666666667,4122.564102564103,4310.769230769231,4816.410256410257,3753.8461538461543,4197.948717948719,4219.48717948718,4093.333333333334,4361.538461538462,4053.333333333334,4265.641025641026,4292.307692307693,4359.48717948718,4241.538461538462,1676.0,1686.0,1481.899,1368.402587890625,0.0,0.0,0.0,0.0
1480239,125.0,0.0,292.0,4432.307692307693,4130.256410256411,4321.025641025642,4811.282051282052,3760.512820512821,4201.538461538462,4230.769230769231,4098.974358974359,4377.435897435898,4065.1282051282055,4264.615384615385,4296.923076923077,4369.2307692307695,4253.846153846154,1676.0,1685.0,1481.906,1368.402587890625,0.0,0.0,0.0,0.0
1480240,126.0,0.0,496.0,4429.2307692307695,4126.153846153847,4317.948717948719,4814.358974358975,3762.0512820512827,4206.666666666667,4234.871794871796,4094.8717948717954,4389.743589743591,4062.564102564103,4264.615384615385,4292.820512820514,4364.615384615385,4251.794871794872,1677.0,1684.0,1481.914,1368.402587890625,0.0,0.0,0.0,0.0
1480240,127.0,0.0,487.0,4426.666666666667,4123.076923076924,4313.333333333334,4815.8974358974365,3759.48717948718,4202.051282051282,4226.666666666667,4086.666666666667,4378.974358974359,4053.333333333334,4265.641025641026,4289.2307692307695,4356.923076923077,4244.615384615385,1678.0,1684.0,1481.922,1368.402587890625,0.0,0.0,0.0,0.0
1480240,128.0,0.0,0.0,4436.923076923077,4131.794871794872,4322.051282051282,4813.846153846154,3758.9743589743593,4199.48717948718,4226.153846153847,4087.1794871794878,4374.358974358975,4056.9230769230776,4266.153846153847,4293.846153846154,4364.615384615385,4251.794871794872,1679.0,1684.0,1481.93,1368.402587890625,0.0,0.0,0.0,0.0
1480240,0.0,0.0,513.0,4445.128205128206,4140.512820512821,4327.179487179487,4814.871794871796,3760.512820512821,4202.051282051282,4229.2307692307695,4089.23076923077,4382.051282051282,4067.1794871794878,4264.615384615385,4297.948717948719,4374.358974358975,4260.512820512821,1679.0,1684.0,1481.937,1368.402587890625,0.0,0.0,0.0,0.0
1480240,1.0,0.0,0.0,4442.051282051282,4139.48717948718,4325.641025641026,4812.820512820514,3761.0256410256416,4204.102564102564,4227.6923076923085,4092.307692307693,4385.128205128206,4067.692307692308,4264.615384615385,4293.846153846154,4370.769230769231,4256.923076923077,1680.0,1686.0,1481.945,1368.402587890625,0.0,0.0,0.0,0.0
1480241,2.0,0.0,508.0,4434.358974358975,4133.846153846154,4324.102564102564,4815.8974358974365,3765.1282051282055,4202.051282051282,4225.641025641026,4096.923076923077,4387.179487179487,4062.0512820512827,4269.2307692307695,4291.282051282052,4363.589743589744,4250.769230769231,1680.0,1686.0,1481.953,1368.402587890625,0.0,0.0,0.0,0.0
1480241,3.0,0.0,530.0,4432.820512820514,4131.794871794872,4318.974358974359,4814.871794871796,3767.1794871794878,4197.948717948719,4224.615384615385,4090.2564102564106,4385.128205128206,4060.0000000000005,4267.6923076923085,4292.307692307693,4362.051282051282,4246.666666666667,1681.0,1685.0,1481.961,1368.402587890625,0.0,0.0,0.0,0.0
1480241,4.0,0.0,494.0,4432.820512820514,4132.307692307693,4312.307692307693,4810.256410256411,3760.512820512821,4194.871794871796,4224.615384615385,4078.461538461539,4367.179487179487,4055.8974358974365,4261.538461538462,4287.6923076923085,4359.48717948718,4239.48717948718,1680.0,1686.0,1481.969,1368.402587890625,0.0,0.0,0.0,0.0
1480241,5.0,0.0,549.0,4430.769230769231,4131.794871794872,4312.820512820514,4814.871794871796,3757.9487179487182,4196.410256410257,4221.538461538462,4074.8717948717954,4351.794871794872,4045.6410256410263,4264.102564102564,4283.589743589744,4350.769230769231,4235.384615384616,1681.0,1685.0,1481.976,1368.402587890625,0.0,0.0,0.0,0.0
1480241,6.0,0.0,546.0,4432.307692307693,4129.74358974359,4315.384615384616,4814.358974358975,3758.9743589743593,4201.025641025642,4217.948717948719,4077.435897435898,4358.974358974359,4042.0512820512827,4264.615384615385,4284.615384615385,4348.717948717949,4236.410256410257,1681.0,1686.0,1481.984,1368.402587890625,0.0,0.0,0.0,0.0
1480241,7.0,0.0,293.0,4435.384615384616,4128.205128205129,4314.358974358975,4813.333333333334,3756.410256410257,4198.974358974359,4215.8974358974365,4075.8974358974365,4363.076923076924,4045.6410256410263,4263.076923076924,4288.205128205129,4352.820512820514,4236.410256410257,1682.0,1685.0,1481.992,1368.402587890625,0.0,0.0,0.0,0.0
1480242,8.0,0.0,457.0,4430.769230769231,4125.641025641026,4312.820512820514,4814.871794871796,3752.307692307693,4195.8974358974365,4215.384615384616,4074.358974358975,4361.538461538462,4047.692307692308,4265.641025641026,4287.6923076923085,4353.846153846154,4236.923076923077,1681.0,1684.0,1482.0,1368.402587890625,0.0,0.0,0.0,0.0
1480369,9.0,0.0,475.0,4426.153846153847,4124.615384615385,4310.256410256411,4813.846153846154,3751.2820512820517,4198.461538461539,4212.307692307693,4076.410256410257,4367.6923076923085,4045.6410256410263,4266.153846153847,4285.641025641026,4353.333333333334,4235.384615384616,1683.0,1684.0,1482.008,1368.527587890625,0.0,0.0,0.0,0.0
1480369,10.0,0.0,496.0,4426.153846153847,4123.589743589744,4305.641025641026,4815.8974358974365,3751.2820512820517,4197.435897435898,4209.74358974359,4069.7435897435903,4353.846153846154,4034.358974358975,4264.615384615385,4286.666666666667,4349.743589743591,4233.333333333334,1681.0,1683.0,1482.016,1368.527587890625,0.0,0.0,0.0,0.0
1480369,11.0,0.0,488.0,4427.6923076923085,4125.128205128206,4306.153846153847,4813.333333333334,3752.820512820513,4193.846153846154,4212.307692307693,4063.589743589744,4333.846153846154,4026.1538461538466,4264.615384615385,4287.179487179487,4348.205128205129,4239.48717948718,1682.0,1683.0,1482.024,1368.527587890625,0.0,0.0,0.0,0.0
1480369,12.0,0.0,0.0,4433.846153846154,4129.2307692307695,4312.307692307693,4815.384615384616,3754.8717948717954,4193.333333333334,4212.307692307693,4071.7948717948725,4347.179487179487,4036.9230769230776,4267.6923076923085,4288.717948717949,4355.8974358974365,4247.179487179487,1681.0,1682.0,1482.032,1368.527587890625,0.0,0.0,0.0,0.0
1480370,13.0,0.0,292.0,4440.000000000001,4132.820512820514,4316.923076923077,4816.410256410257,3753.8461538461543,4194.358974358975,4209.2307692307695,4082.0512820512827,4377.435897435898,4052.307692307693,4265.641025641026,4292.820512820514,4364.102564102564,4249.74358974359,1681.0,1684.0,1482.039,1368.527587890625,0.0,0.0,0.0,0.0
1480370,14.0,0.0,496.0,4433.846153846154,4132.307692307693,4313.846153846154,4809.743589743591,3756.9230769230776,4197.948717948719,4210.256410256411,4074.358974358975,4376.923076923077,4051.2820512820517,4262.564102564103,4291.794871794872,4361.025641025642,4246.666666666667,1682.0,1683.0,1482.048,1368.527587890625,0.0,0.0,0.0,0.0
1480370,15.0,0.0,488.0,4431.794871794872,4129.2307692307695,4311.794871794872,4814.358974358975,3763.076923076924,4201.025641025642,4210.769230769231,4067.1794871794878,4354.871794871796,4041.0256410256416,4265.128205128206,4289.74358974359,4356.923076923077,4245.128205128206,1680.0,1683.0,1482.055,1368.527587890625,0.0,0.0,0.0,0.0
1480370,16.0,0.0,0.0,4445.128205128206,4133.333333333334,4319.48717948718,4816.410256410257,3763.076923076924,4203.589743589744,4212.820512820514,4072.820512820513,4355.384615384616,4047.692307692308,4264.615384615385,4292.820512820514,4362.564102564103,4250.769230769231,1681.0,1683.0,1482.063,1368.527587890625,0.0,0.0,0.0,0.0
1480370,17.0,0.0,0.0,4449.743589743591,4138.461538461539,4326.153846153847,4815.384615384616,3758.9743589743593,4201.538461538462,4216.923076923077,4075.8974358974365,4364.615384615385,4056.9230769230776,4264.615384615385,4293.846153846154,4364.615384615385,4256.410256410257,1681.0,1683.0,1482.071,1368.527587890625,0.0,0.0,0.0,0.0
1480371,18.0,0.0,0.0,4442.051282051282,4135.384615384616,4322.564102564103,4816.410256410257,3757.435897435898,4189.2307692307695,4212.307692307693,4073.333333333334,4356.923076923077,4044.615384615385,4267.179487179487,4292.307692307693,4362.051282051282,4255.8974358974365,1682.0,1683.0,1482.078,1368.527587890625,0.0,0.0,0.0,0.0
1480371,19.0,0.0,0.0,4442.051282051282,4135.384615384616,4319.48717948718,4814.358974358975,3754.8717948717954,4183.589743589744,4208.205128205129,4074.8717948717954,4351.794871794872,4035.3846153846157,4265.641025641026,4291.282051282052,4361.538461538462,4252.820512820514,1681.0,1684.0,1482.086,1368.527587890625,0.0,0.0,0.0,0.0
1480371,20.0,0.0,0.0,4443.589743589744,4137.948717948719,4320.000000000001,4817.435897435898,3752.820512820513,4192.820512820514,4214.358974358975,4076.410256410257,4356.923076923077,4043.076923076924,4265.641025641026,4289.74358974359,4359.48717948718,4250.256410256411,1682.0,1685.0,1482.094,1368.527587890625,0.0,0.0,0.0,0.0
1480372,21.0,0.0,0.0,4436.923076923077,4130.256410256411,4317.948717948719,4815.384615384616,3755.3846153846157,4198.974358974359,4218.461538461539,4076.9230769230776,4354.871794871796,4044.615384615385,4266.666666666667,4287.179487179487,4356.923076923077,4246.666666666667,1681.0,1684.0,1482.102,1368.527587890625,0.0,0.0,0.0,0.0
1480372,22.0,0.0,0.0,4437.948717948719,4126.666666666667,4316.410256410257,4815.384615384616,3760.0000000000005,4196.410256410257,4215.8974358974365,4078.9743589743593,4356.923076923077,4044.1025641025644,4266.153846153847,4293.333333333334,4363.076923076924,4252.307692307693,1682.0,1685.0,1482.109,1368.527587890625,0.0,0.0,0.0,0.0
1480372,23.0,0.0,0.0,4445.641025641026,4134.871794871796,4321.538461538462,4819.48717948718,3762.564102564103,4199.48717948718,4220.000000000001,4080.0000000000005,4379.48717948718,4060.0000000000005,4266.153846153847,4301.538461538462,4372.820512820514,4264.102564102564,1682.0,1683.0,1482.117,1368.527587890625,0.0,0.0,0.0,0.0
1480372,24.0,0.0,0.0,4441.538461538462,4132.820512820514,4321.025641025642,4814.358974358975,3762.564102564103,4212.820512820514,4226.666666666667,4081.0256410256416,4398.974358974359,4068.205128205129,4265.128205128206,4294.358974358975,4368.205128205129,4261.538461538462,1682.0,1683.0,1482.125,1368.527587890625,0.0,0.0,0.0,0.0
1480393,25.0,0.0,0.0,4430.769230769231,4123.076923076924,4311.282051282052,4814.358974358975,3759.48717948718,4215.384615384616,4221.025641025642,4076.410256410257,4388.205128205129,4055.3846153846157,4264.615384615385,4286.666666666667,4357.435897435898,4248.205128205129,1683.0,1682.0,1482.134,1368.6527099609375,0.0,0.0,0.0,0.0
1480393,26.0,0.0,0.0,4433.846153846154,4128.717948717949,4312.820512820514,4817.948717948719,3754.8717948717954,4203.076923076924,4213.846153846154,4068.205128205129,4368.205128205129,4052.307692307693,4263.589743589744,4289.74358974359,4360.512820512821,4248.205128205129,1682.0,1683.0,1482.141,1368.6527099609375,0.0,0.0,0.0,0.0
1480393,27.0,0.0,0.0,4441.025641025642,4135.8974358974365,4320.000000000001,4814.871794871796,3753.333333333334,4194.358974358975,4213.333333333334,4069.7435897435903,4366.153846153847,4062.0512820512827,4264.615384615385,4293.846153846154,4369.2307692307695,4253.333333333334,1683.0,1684.0,1482.148,1368.6527099609375,0.0,0.0,0.0,0.0
1480393,28.0,0.0,0.0,4436.923076923077,4129.74358974359,4312.307692307693,4815.384615384616,3754.8717948717954,4193.333333333334,4212.820512820514,4076.410256410257,4370.256410256411,4057.9487179487182,4268.205128205129,4292.307692307693,4365.641025641026,4249.2307692307695,1682.0,1684.0,1482.156,1368.6527099609375,0.0,0.0,0.0,0.0
1480868,29.0,0.0,0.0,4431.282051282052,4125.641025641026,4308.717948717949,4814.358974358975,3756.410256410257,4194.871794871796,4214.358974358975,4074.8717948717954,4365.128205128206,4048.205128205129,4267.179487179487,4287.6923076923085,4359.48717948718,4246.153846153847,1682.0,1684.0,1482.165,1368.68408203125,0.0,0.0,0.0,0.0
1480868,30.0,0.0,0.0,4427.179487179487,4122.051282051282,4310.256410256411,4816.923076923077,3757.9487179487182,4197.435897435898,4210.256410256411,4067.692307692308,4357.435897435898,4042.564102564103,4265.128205128206,4284.615384615385,4357.435897435898,4244.615384615385,1681.0,1685.0,1482.172,1368.68408203125,0.0,0.0,0.0,0.0
1480868,31.0,0.0,0.0,4425.641025641026,4116.410256410257,4302.564102564103,4816.923076923077,3754.358974358975,4198.974358974359,4206.153846153847,4065.6410256410263,4354.358974358975,4036.410256410257,4264.615384615385,4285.128205128206,4353.846153846154,4238.974358974359,1681.0,1685.0,1482.18,1368.68408203125,0.0,0.0,0.0,0.0
1480868,32.0,0.0,0.0,4432.307692307693,4120.512820512821,4303.589743589744,4813.333333333334,3752.307692307693,4199.48717948718,4214.358974358975,4070.7692307692314,4361.025641025642,4040.5128205128212,4265.641025641026,4289.2307692307695,4359.48717948718,4241.025641025642,1681.0,1684.0,1482.187,1368.68408203125,0.0,0.0,0.0,0.0
1480868,33.0,0.0,0.0,4443.589743589744,4131.794871794872,4316.923076923077,4816.410256410257,3760.0000000000005,4201.025641025642,4221.025641025642,4080.0000000000005,4385.128205128206,4058.9743589743593,4266.666666666667,4294.358974358975,4373.333333333334,4251.794871794872,1680.0,1685.0,1482.195,1368.68408203125,0.0,0.0,0.0,0.0
1480868,34.0,0.0,0.0,4451.794871794872,4141.538461538462,4326.153846153847,4814.358974358975,3763.076923076924,4208.717948717949,4218.461538461539,4077.9487179487187,4401.025641025642,4074.358974358975,4264.615384615385,4298.461538461539,4383.589743589744,4258.461538461539,1681.0,1684.0,1482.203,1368.68408203125,0.0,0.0,0.0,0.0
1480869,35.0,0.0,0.0,4454.358974358975,4143.076923076924,4327.179487179487,4813.846153846154,3761.538461538462,4212.307692307693,4218.461538461539,4068.205128205129,4385.641025641026,4073.8461538461543,4266.153846153847,4298.461538461539,4388.205128205129,4263.076923076924,1679.0,1686.0,1482.212,1368.68408203125,0.0,0.0,0.0,0.0
1480869,36.0,0.0,0.0,4451.794871794872,4136.923076923077,4326.153846153847,4817.435897435898,3764.1025641025644,4214.871794871796,4221.538461538462,4067.1794871794878,4369.743589743591,4063.076923076924,4267.6923076923085,4293.846153846154,4385.641025641026,4266.153846153847,1681.0,1685.0,1482.219,1368.68408203125,0.0,0.0,0.0,0.0
1480869,37.0,0.0,0.0,4447.6923076923085,4135.384615384616,4324.102564102564,4812.820512820514,3765.6410256410263,4212.820512820514,4222.564102564103,4072.307692307693,4377.948717948719,4057.9487179487182,4265.641025641026,4292.307692307693,4378.974358974359,4260.512820512821,1679.0,1685.0,1482.227,1368.68408203125,0.0,0.0,0.0,0.0
1480869,38.0,0.0,0.0,4446.666666666667,4138.974358974359,4322.564102564103,4814.358974358975,3764.1025641025644,4203.589743589744,4221.538461538462,4075.8974358974365,4387.6923076923085,4062.0512820512827,4266.153846153847,4295.384615384616,4377.435897435898,4256.923076923077,1680.0,1685.0,1482.234,1368.68408203125,0.0,0.0,0.0,0.0
1480869,39.0,0.0,0.0,4446.153846153847,4136.410256410257,4321.538461538462,4815.8974358974365,3763.076923076924,4204.615384615385,4222.051282051282,4075.8974358974365,4390.256410256411,4066.1538461538466,4265.641025641026,4293.333333333334,4381.025641025642,4256.410256410257,1679.0,1684.0,1482.242,1368.68408203125,0.0,0.0,0.0,0.0
1480869,40.0,0.0,0.0,4444.615384615385,4130.769230769231,4319.48717948718,4815.384615384616,3760.512820512821,4206.666666666667,4220.000000000001,4073.8461538461543,4387.179487179487,4064.615384615385,4265.641025641026,4291.794871794872,4380.000000000001,4250.256410256411,1679.0,1684.0,1482.25,1368.68408203125,0.0,0.0,0.0,0.0
1480869,41.0,0.0,0.0,4447.179487179487,4131.282051282052,4318.461538461539,4817.435897435898,3756.9230769230776,4194.358974358975,4217.435897435898,4070.2564102564106,4373.333333333334,4059.48717948718,4265.641025641026,4293.333333333334,4375.8974358974365,4246.666666666667,1678.0,1683.0,1482.258,1368.68408203125,0.0,0.0,0.0,0.0
1480869,42.0,0.0,0.0,4452.307692307693,4135.384615384616,4323.076923076924,4813.333333333334,3758.461538461539,4196.410256410257,4220.000000000001,4069.7435897435903,4369.743589743591,4061.538461538462,4263.076923076924,4294.358974358975,4381.025641025642,4255.384615384616,1679.0,1684.0,1482.267,1368.68408203125,0.0,0.0,0.0,0.0
1480869,43.0,0.0,0.0,4451.794871794872,4140.000000000001,4326.666666666667,4814.871794871796,3763.076923076924,4213.846153846154,4223.589743589744,4071.2820512820517,4377.435897435898,4065.1282051282055,4264.102564102564,4298.461538461539,4386.153846153847,4261.025641025642,1678.0,1683.0,1482.273,1368.68408203125,0.0,0.0,0.0,0.0
1480870,44.0,0.0,0.0,4449.743589743591,4145.128205128206,4328.205128205129,4817.435897435898,3764.615384615385,4215.8974358974365,4224.615384615385,4071.2820512820517,4378.974358974359,4064.615384615385,4267.6923076923085,4297.435897435898,4383.589743589744,4252.820512820514,1678.0,1684.0,1482.281,1368.68408203125,0.0,0.0,0.0,0.0
1480870,45.0,0.0,0.0,4450.769230769231,4145.128205128206,4325.641025641026,4817.435897435898,3766.1538461538466,4210.769230769231,4226.666666666667,4072.307692307693,4376.923076923077,4061.538461538462,4266.666666666667,4288.717948717949,4378.461538461539,4242.564102564103,1679.0,1684.0,1482.289,1368.68408203125,0.0,0.0,0.0,0.0
1480870,46.0,0.0,0.0,4451.794871794872,4138.461538461539,4320.512820512821,4816.923076923077,3768.205128205129,4217.948717948719,4231.282051282052,4070.2564102564106,4371.794871794872,4055.8974358974365,4266.153846153847,4287.179487179487,4374.871794871796,4240.512820512821,1678.0,1686.0,1482.297,1368.68408203125,0.0,0.0,0.0,0.0
1480870,47.0,0.0,0.0,4451.282051282052,4137.435897435898,4321.538461538462,4813.333333333334,3766.1538461538466,4218.461538461539,4232.307692307693,4067.1794871794878,4366.666666666667,4055.3846153846157,4265.641025641026,4292.820512820514,4377.435897435898,4243.589743589744,1680.0,1685.0,1482.306,1368.68408203125,0.0,0.0,0.0,0.0
1480870,48.0,0.0,0.0,4446.153846153847,4138.461538461539,4323.589743589744,4819.48717948718,3761.0256410256416,4204.102564102564,4227.179487179487,4066.1538461538466,4364.102564102564,4057.9487179487182,4265.641025641026,4294.871794871796,4376.923076923077,4241.025641025642,1678.0,1686.0,1482.315,1368.68408203125,0.0,0.0,0.0,0.0
1480870,49.0,0.0,0.0,4442.051282051282,4135.8974358974365,4321.538461538462,4817.948717948719,3763.589743589744,4206.153846153847,4227.179487179487,4066.666666666667,4367.6923076923085,4056.410256410257,4265.641025641026,4291.282051282052,4374.871794871796,4237.435897435898,1679.0,1687.0,1482.322,1368.68408203125,0.0,0.0,0.0,0.0
1480870,50.0,0.0,0.0,4448.717948717949,4137.435897435898,4322.564102564103,4810.256410256411,3769.2307692307695,4221.025641025642,4233.333333333334,4071.2820512820517,4380.000000000001,4058.461538461539,4265.641025641026,4293.846153846154,4379.48717948718,4243.076923076924,1678.0,1685.0,1482.331,1368.68408203125,0.0,0.0,0.0,0.0
1480871,51.0,0.0,0.0,4457.948717948719,4144.102564102564,4326.153846153847,4816.410256410257,3766.1538461538466,4217.948717948719,4231.282051282052,4072.307692307693,4383.076923076924,4064.1025641025644,4266.666666666667,4300.512820512821,4384.102564102564,4248.717948717949,1678.0,1686.0,1482.338,1368.68408203125,0.0,0.0,0.0,0.0
1480871,52.0,0.0,0.0,4456.923076923077,4145.128205128206,4323.589743589744,4817.948717948719,3761.538461538462,4210.256410256411,4223.589743589744,4065.1282051282055,4371.794871794872,4062.0512820512827,4267.179487179487,4294.358974358975,4381.025641025642,4244.102564102564,1680.0,1685.0,1482.347,1368.68408203125,0.0,0.0,0.0,0.0
1480871,53.0,0.0,0.0,4455.8974358974365,4145.128205128206,4326.153846153847,4814.871794871796,3761.538461538462,4211.794871794872,4221.025641025642,4064.1025641025644,4370.256410256411,4060.0000000000005,4267.179487179487,4294.358974358975,4382.051282051282,4244.102564102564,1679.0,1684.0,1482.354,1368.68408203125,0.0,0.0,0.0,0.0
1480872,54.0,0.0,0.0,4465.128205128206,4151.282051282052,4338.974358974359,4813.333333333334,3762.0512820512827,4210.256410256411,4222.051282051282,4073.333333333334,4382.051282051282,4068.717948717949,4265.641025641026,4305.641025641026,4394.871794871796,4255.8974358974365,1680.0,1683.0,1482.361,1368.68408203125,0.0,0.0,0.0,0.0
1480872,55.0,0.0,0.0,4467.179487179487,4150.769230769231,4339.48717948718,4812.307692307693,3765.1282051282055,4208.205128205129,4224.615384615385,4073.333333333334,4380.512820512821,4071.2820512820517,4264.615384615385,4302.051282051282,4395.384615384616,4256.410256410257,1680.0,1685.0,1482.368,1368.68408203125,0.0,0.0,0.0,0.0
1480872,56.0,0.0,0.0,4461.538461538462,4149.2307692307695,4331.794871794872,4815.8974358974365,3768.717948717949,4211.282051282052,4228.205128205129,4068.205128205129,4378.974358974359,4072.307692307693,4267.179487179487,4294.358974358975,4389.743589743591,4250.256410256411,1680.0,1684.0,1482.376,1368.68408203125,0.0,0.0,0.0,0.0
1480873,57.0,0.0,0.0,4464.102564102564,4157.435897435898,4334.358974358975,4813.846153846154,3765.1282051282055,4216.410256410257,4229.2307692307695,4069.7435897435903,4390.256410256411,4082.0512820512827,4266.666666666667,4296.923076923077,4397.435897435898,4255.8974358974365,1680.0,1685.0,1482.384,1368.68408203125,0.0,0.0,0.0,0.0
1480873,58.0,0.0,0.0,4463.589743589744,4158.461538461539,4334.871794871796,4814.358974358975,3761.538461538462,4213.333333333334,4221.538461538462,4069.23076923077,4385.128205128206,4077.435897435898,4263.589743589744,4294.871794871796,4396.923076923077,4254.358974358975,1680.0,1685.0,1482.392,1368.68408203125,0.0,0.0,0.0,0.0
1480873,59.0,0.0,0.0,4460.512820512821,4153.846153846154,4333.846153846154,4816.923076923077,3764.615384615385,4201.025641025642,4217.435897435898,4071.2820512820517,4371.282051282052,4069.7435897435903,4265.128205128206,4293.846153846154,4387.6923076923085,4250.769230769231,1680.0,1685.0,1482.4,1368.68408203125,0.0,0.0,0.0,0.0
1480873,60.0,0.0,0.0,4469.2307692307695,4156.923076923077,4340.000000000001,4812.820512820514,3765.6410256410263,4201.538461538462,4227.6923076923085,4075.8974358974365,4378.974358974359,4076.410256410257,4266.153846153847,4301.025641025642,4394.358974358975,4263.076923076924,1681.0,1684.0,1482.406,1368.68408203125,0.0,0.0,0.0,0.0
1480873,61.0,0.0,0.0,4467.179487179487,4152.820512820514,4332.307692307693,4815.8974358974365,3763.076923076924,4211.282051282052,4232.820512820514,4069.7435897435903,4379.48717948718,4069.23076923077,4265.128205128206,4297.435897435898,4392.820512820514,4266.666666666667,1682.0,1684.0,1482.415,1368.68408203125,0.0,0.0,0.0,0.0
1480874,62.0,0.0,0.0,4452.307692307693,4143.589743589744,4319.48717948718,4817.948717948719,3764.1025641025644,4210.256410256411,4228.717948717949,4061.538461538462,4364.102564102564,4055.3846153846157,4264.615384615385,4289.74358974359,4378.974358974359,4253.846153846154,1682.0,1683.0,1482.423,1368.68408203125,0.0,0.0,0.0,0.0
1480874,63.0,0.0,0.0,4455.8974358974365,4149.74358974359,4328.717948717949,4815.8974358974365,3768.717948717949,4203.076923076924,4231.282051282052,4067.692307692308,4368.205128205129,4066.1538461538466,4268.717948717949,4297.435897435898,4388.205128205129,4255.8974358974365,1683.0,1685.0,1482.431,1368.68408203125,0.0,0.0,0.0,0.0
1480874,64.0,0.0,513.0,4476.410256410257,4161.025641025642,4345.128205128206,4814.358974358975,3769.7435897435903,4208.205128205129,4235.384615384616,4076.9230769230776,4388.717948717949,4082.564102564103,4271.282051282052,4304.102564102564,4408.205128205129,4272.820512820514,1683.0,1684.0,1482.439,1368.68408203125,0.0,0.0,0.0,0.0
1480874,65.0,0.0,0.0,4480.000000000001,4161.025641025642,4346.666666666667,4812.307692307693,3768.717948717949,4218.974358974359,4232.307692307693,4080.5128205128212,4395.384615384616,4084.1025641025644,4265.641025641026,4299.48717948718,4407.179487179487,4281.538461538462,1683.0,1685.0,1482.447,1368.68408203125,0.0,0.0,0.0,0.0
1480875,66.0,0.0,508.0,4466.666666666667,4154.871794871796,4337.948717948719,4818.974358974359,3769.7435897435903,4222.051282051282,4232.307692307693,4078.461538461539,4391.794871794872,4083.589743589744,4264.615384615385,4297.435897435898,4396.410256410257,4277.948717948719,1685.0,1684.0,1482.455,1368.68408203125,0.0,0.0,0.0,0.0
1480875,67.0,0.0,531.0,4461.538461538462,4156.410256410257,4334.358974358975,4818.461538461539,3771.794871794872,4225.128205128206,4237.435897435898,4073.8461538461543,4388.717948717949,4083.076923076924,4266.666666666667,4298.974358974359,4395.8974358974365,4273.846153846154,1682.0,1684.0,1482.461,1368.68408203125,0.0,0.0,0.0,0.0
1480875,68.0,0.0,494.0,4467.6923076923085,4164.102564102564,4337.435897435898,4811.794871794872,3772.307692307693,4226.666666666667,4238.974358974359,4070.2564102564106,4381.538461538462,4072.307692307693,4267.6923076923085,4300.000000000001,4399.48717948718,4275.384615384616,1683.0,1685.0,1482.469,1368.68408203125,0.0,0.0,0.0,0.0
1480875,69.0,0.0,549.0,4473.333333333334,4165.128205128206,4338.461538461539,4814.871794871796,3769.7435897435903,4222.051282051282,4238.974358974359,4066.1538461538466,4371.282051282052,4064.1025641025644,4267.179487179487,4300.000000000001,4395.384615384616,4276.923076923077,1682.0,1684.0,1482.477,1368.68408203125,0.0,0.0,0.0,0.0
1480876,70.0,0.0,546.0,4465.128205128206,4155.8974358974365,4331.794871794872,4813.333333333334,3764.1025641025644,4213.846153846154,4238.461538461539,4064.615384615385,4364.615384615385,4063.076923076924,4265.128205128206,4292.307692307693,4388.717948717949,4272.820512820514,1681.0,1686.0,1482.485,1368.68408203125,0.0,0.0,0.0,0.0
1480876,71.0,0.0,293.0,4455.8974358974365,4149.2307692307695,4327.6923076923085,4814.871794871796,3764.1025641025644,4211.794871794872,4235.384615384616,4071.7948717948725,4368.205128205129,4060.0000000000005,4265.641025641026,4291.794871794872,4385.641025641026,4273.333333333334,1681.0,1686.0,1482.492,1368.68408203125,0.0,0.0,0.0,0.0
1480876,72.0,0.0,457.0,4467.6923076923085,4158.974358974359,4339.48717948718,4817.435897435898,3770.7692307692314,4221.538461538462,4239.48717948718,4086.666666666667,4388.205128205129,4067.692307692308,4265.641025641026,4305.128205128206,4396.923076923077,4288.205128205129,1681.0,1686.0,1482.5,1368.68408203125,0.0,0.0,0.0,0.0
1480876,73.0,0.0,475.0,4480.000000000001,4164.102564102564,4347.179487179487,4813.846153846154,3772.307692307693,4226.666666666667,4246.153846153847,4090.7692307692314,4397.948717948719,4080.0000000000005,4264.102564102564,4305.128205128206,4405.641025641026,4299.48717948718,1680.0,1687.0,1482.508,1368.68408203125,0.0,0.0,0.0,0.0
1480876,74.0,0.0,496.0,4468.205128205129,4146.666666666667,4332.307692307693,4815.8974358974365,3765.6410256410263,4220.000000000001,4235.384615384616,4080.5128205128212,4380.512820512821,4069.7435897435903,4265.128205128206,4293.333333333334,4392.820512820514,4288.205128205129,1680.0,1687.0,1482.516,1368.68408203125,0.0,0.0,0.0,0.0
1480877,75.0,0.0,488.0,4455.8974358974365,4137.435897435898,4322.051282051282,4816.410256410257,3762.0512820512827,4216.923076923077,4229.2307692307695,4078.461538461539,4376.923076923077,4060.0000000000005,4265.128205128206,4291.794871794872,4383.589743589744,4276.923076923077,1680.0,1686.0,1482.524,1368.68408203125,0.0,0.0,0.0,0.0
1480877,76.0,0.0,0.0,4458.974358974359,4145.641025641026,4330.256410256411,4816.923076923077,3767.1794871794878,4219.48717948718,4238.974358974359,4086.666666666667,4388.717948717949,4066.666666666667,4267.6923076923085,4294.871794871796,4389.743589743591,4282.564102564103,1679.0,1686.0,1482.531,1368.68408203125,0.0,0.0,0.0,0.0
1480877,77.0,0.0,292.0,4459.48717948718,4144.615384615385,4329.2307692307695,4816.410256410257,3766.666666666667,4216.410256410257,4241.025641025642,4086.1538461538466,4384.102564102564,4063.076923076924,4268.205128205129,4291.282051282052,4389.743589743591,4287.179487179487,1680.0,1684.0,1482.539,1368.68408203125,0.0,0.0,0.0,0.0
1480877,78.0,0.0,496.0,4454.871794871796,4133.333333333334,4319.48717948718,4812.820512820514,3760.0000000000005,4209.2307692307695,4233.333333333334,4081.0256410256416,4380.512820512821,4055.8974358974365,4262.564102564103,4290.769230769231,4385.641025641026,4285.641025641026,1679.0,1684.0,1482.547,1368.68408203125,0.0,0.0,0.0,0.0
1480877,79.0,0.0,488.0,4450.769230769231,4128.205128205129,4320.512820512821,4816.923076923077,3759.48717948718,4208.205128205129,4232.307692307693,4082.564102564103,4387.179487179487,4061.538461538462,4263.589743589744,4294.358974358975,4384.615384615385,4287.179487179487,1680.0,1684.0,1482.555,1368.68408203125,0.0,0.0,0.0,0.0
1480878,80.0,0.0,0.0,4451.282051282052,4129.2307692307695,4325.128205128206,4816.410256410257,3765.1282051282055,4218.461538461539,4238.974358974359,4086.666666666667,4382.564102564103,4062.564102564103,4267.6923076923085,4290.769230769231,4383.076923076924,4291.794871794872,1680.0,1683.0,1482.563,1368.68408203125,0.0,0.0,0.0,0.0
1480878,81.0,0.0,292.0,4457.435897435898,4131.794871794872,4324.102564102564,4816.410256410257,3770.2564102564106,4224.102564102564,4244.615384615385,4091.7948717948725,4385.641025641026,4062.0512820512827,4268.717948717949,4291.794871794872,4383.589743589744,4296.410256410257,1680.0,1684.0,1482.571,1368.68408203125,0.0,0.0,0.0,0.0
1480878,82.0,0.0,496.0,4460.000000000001,4134.358974358975,4327.179487179487,4816.410256410257,3770.7692307692314,4215.8974358974365,4247.179487179487,4096.410256410257,4403.076923076924,4070.2564102564106,4266.666666666667,4300.000000000001,4389.743589743591,4302.564102564103,1682.0,1684.0,1482.578,1368.68408203125,0.0,0.0,0.0,0.0
1480878,83.0,0.0,488.0,4454.871794871796,4134.871794871796,4330.769230769231,4810.769230769231,3768.717948717949,4213.333333333334,4247.6923076923085,4092.820512820513,4398.974358974359,4074.358974358975,4264.615384615385,4298.461538461539,4391.794871794872,4304.102564102564,1682.0,1685.0,1482.586,1368.68408203125,0.0,0.0,0.0,0.0
1480878,84.0,0.0,0.0,4451.794871794872,4131.794871794872,4325.641025641026,4815.384615384616,3768.205128205129,4217.948717948719,4245.641025641026,4089.7435897435903,4387.6923076923085,4072.307692307693,4266.666666666667,4294.358974358975,4386.666666666667,4302.564102564103,1682.0,1685.0,1482.594,1368.68408203125,0.0,0.0,0.0,0.0
1480879,85.0,0.0,292.0,4457.435897435898,4131.282051282052,4324.615384615385,4815.384615384616,3768.205128205129,4220.000000000001,4245.641025641026,4093.333333333334,4400.512820512821,4076.9230769230776,4265.641025641026,4295.384615384616,4388.717948717949,4304.615384615385,1682.0,1685.0,1482.602,1368.68408203125,0.0,0.0,0.0,0.0
1480879,86.0,0.0,496.0,4467.179487179487,4137.435897435898,4333.333333333334,4811.282051282052,3766.666666666667,4220.512820512821,4246.666666666667,4093.333333333334,4406.153846153847,4079.48717948718,4263.589743589744,4296.410256410257,4399.48717948718,4309.743589743591,1683.0,1684.0,1482.61,1368.68408203125,0.0,0.0,0.0,0.0
1480879,87.0,0.0,488.0,4471.794871794872,4143.589743589744,4337.948717948719,4813.846153846154,3769.7435897435903,4218.974358974359,4245.128205128206,4089.7435897435903,4395.8974358974365,4075.8974358974365,4266.153846153847,4295.384615384616,4403.589743589744,4314.871794871796,1682.0,1686.0,1482.618,1368.68408203125,0.0,0.0,0.0,0.0
1480879,88.0,0.0,0.0,4467.6923076923085,4143.076923076924,4336.923076923077,4813.846153846154,3772.820512820513,4216.410256410257,4243.076923076924,4090.7692307692314,4396.410256410257,4075.8974358974365,4266.666666666667,4293.846153846154,4397.948717948719,4310.256410256411,1683.0,1685.0,1482.625,1368.68408203125,0.0,0.0,0.0,0.0
1480890,89.0,0.0,292.0,4466.666666666667,4141.538461538462,4338.974358974359,4816.410256410257,3769.7435897435903,4220.512820512821,4243.076923076924,4094.358974358975,4398.974358974359,4078.461538461539,4268.205128205129,4294.871794871796,4398.461538461539,4306.153846153847,1682.0,1685.0,1482.633,1369.1531982421875,0.0,0.0,0.0,0.0
1480890,90.0,0.0,496.0,4475.8974358974365,4149.74358974359,4346.666666666667,4815.8974358974365,3768.205128205129,4227.6923076923085,4246.153846153847,4094.358974358975,4394.358974358975,4081.0256410256416,4268.717948717949,4297.948717948719,4406.153846153847,4317.435897435898,1682.0,1684.0,1482.641,1369.1531982421875,0.0,0.0,0.0,0.0
1480890,91.0,0.0,488.0,4476.923076923077,4155.8974358974365,4347.179487179487,4813.846153846154,3769.7435897435903,4225.128205128206,4245.128205128206,4087.692307692308,4387.6923076923085,4080.0000000000005,4266.666666666667,4296.410256410257,4403.589743589744,4318.974358974359,1681.0,1683.0,1482.649,1369.1531982421875,0.0,0.0,0.0,0.0
1480890,92.0,0.0,0.0,4467.6923076923085,4149.2307692307695,4337.948717948719,4815.8974358974365,3771.794871794872,4222.564102564103,4243.589743589744,4083.589743589744,4385.128205128206,4073.333333333334,4266.153846153847,4290.769230769231,4392.820512820514,4305.641025641026,1681.0,1684.0,1482.657,1369.1531982421875,0.0,0.0,0.0,0.0
1481365,93.0,0.0,292.0,4466.666666666667,4148.205128205129,4337.948717948719,4814.358974358975,3775.8974358974365,4230.256410256411,4249.2307692307695,4088.717948717949,4396.923076923077,4077.435897435898,4265.641025641026,4291.282051282052,4391.282051282052,4303.589743589744,1683.0,1683.0,1482.664,1369.1844482421875,0.0,0.0,0.0,0.0
1481365,94.0,0.0,496.0,4465.641025641026,4150.256410256411,4340.000000000001,4816.410256410257,3776.410256410257,4226.666666666667,4247.6923076923085,4088.205128205129,4401.025641025642,4085.6410256410263,4264.615384615385,4295.384615384616,4392.307692307693,4308.717948717949,1681.0,1684.0,1482.672,1369.1844482421875,0.0,0.0,0.0,0.0
1481365,95.0,0.0,488.0,4456.410256410257,4142.051282051282,4327.6923076923085,4815.8974358974365,3772.820512820513,4215.8974358974365,4238.974358974359,4075.8974358974365,4386.153846153847,4077.435897435898,4264.615384615385,4291.282051282052,4385.641025641026,4304.102564102564,1682.0,1684.0,1482.68,1369.1844482421875,0.0,0.0,0.0,0.0
1481365,96.0,0.0,0.0,4454.871794871796,4133.846153846154,4320.000000000001,4810.769230769231,3773.8461538461543,4223.589743589744,4237.948717948719,4074.8717948717954,4386.666666666667,4070.7692307692314,4266.153846153847,4290.769230769231,4383.589743589744,4302.564102564103,1681.0,1684.0,1482.688,1369.1844482421875,0.0,0.0,0.0,0.0
1481366,97.0,0.0,292.0,4458.461538461539,4131.794871794872,4326.153846153847,4814.358974358975,3773.8461538461543,4230.769230769231,4241.538461538462,4085.1282051282055,4395.384615384616,4076.9230769230776,4267.6923076923085,4296.923076923077,4387.179487179487,4306.666666666667,1681.0,1684.0,1482.697,1369.1844482421875,0.0,0.0,0.0,0.0
1481366,98.0,0.0,496.0,4456.923076923077,4132.820512820514,4329.2307692307695,4813.333333333334,3768.717948717949,4221.538461538462,4240.512820512821,4085.6410256410263,4384.615384615385,4078.461538461539,4265.128205128206,4297.948717948719,4388.717948717949,4306.153846153847,1679.0,1684.0,1482.704,1369.1844482421875,0.0,0.0,0.0,0.0
1481366,99.0,0.0,488.0,4453.846153846154,4131.794871794872,4325.128205128206,4814.871794871796,3765.6410256410263,4213.333333333334,4233.846153846154,4081.0256410256416,4368.717948717949,4066.1538461538466,4264.102564102564,4294.871794871796,4384.102564102564,4307.6923076923085,1680.0,1685.0,1482.712,1369.1844482421875,0.0,0.0,0.0,0.0
1481366,100.0,0.0,0.0,4461.538461538462,4134.871794871796,4329.2307692307695,4817.948717948719,3770.2564102564106,4217.948717948719,4235.384615384616,4085.1282051282055,4375.384615384616,4066.1538461538466,4265.128205128206,4297.435897435898,4386.666666666667,4316.410256410257,1679.0,1684.0,1482.719,1369.1844482421875,0.0,0.0,0.0,0.0
1481366,101.0,0.0,292.0,4469.2307692307695,4139.48717948718,4337.435897435898,4814.871794871796,3774.358974358975,4224.615384615385,4247.179487179487,4091.2820512820517,4392.820512820514,4080.5128205128212,4264.615384615385,4302.051282051282,4396.923076923077,4321.538461538462,1680.0,1685.0,1482.727,1369.1844482421875,0.0,0.0,0.0,0.0
1481366,102.0,0.0,496.0,4464.615384615385,4137.948717948719,4336.410256410257,4817.435897435898,3775.8974358974365,4221.538461538462,4250.256410256411,4088.717948717949,4393.846153846154,4078.461538461539,4265.128205128206,4301.538461538462,4396.923076923077,4314.871794871796,1680.0,1683.0,1482.735,1369.1844482421875,0.0,0.0,0.0,0.0
1481366,103.0,0.0,488.0,4467.6923076923085,4143.589743589744,4340.512820512821,4817.948717948719,3780.0000000000005,4217.435897435898,4250.256410256411,4085.6410256410263,4391.282051282052,4074.358974358975,4265.128205128206,4302.564102564103,4400.512820512821,4323.076923076924,1679.0,1685.0,1482.743,1369.1844482421875,0.0,0.0,0.0,0.0
1481367,104.0,0.0,0.0,4481.025641025642,4152.820512820514,4350.256410256411,4815.8974358974365,3779.48717948718,4218.974358974359,4253.333333333334,4087.1794871794878,4393.333333333334,4086.666666666667,4268.205128205129,4307.6923076923085,4412.820512820514,4340.000000000001,1680.0,1683.0,1482.75,1369.1844482421875,0.0,0.0,0.0,0.0
1481367,105.0,0.0,292.0,4480.512820512821,4149.2307692307695,4346.666666666667,4814.871794871796,3775.3846153846157,4227.179487179487,4249.74358974359,4089.23076923077,4391.282051282052,4090.2564102564106,4269.74358974359,4306.153846153847,4413.333333333334,4336.410256410257,1679.0,1684.0,1482.758,1369.1844482421875,0.0,0.0,0.0,0.0
1481367,106.0,0.0,496.0,4470.769230769231,4141.538461538462,4340.000000000001,4811.794871794872,3777.9487179487182,4233.846153846154,4247.179487179487,4091.2820512820517,4396.410256410257,4088.717948717949,4266.153846153847,4298.974358974359,4407.179487179487,4328.717948717949,1679.0,1684.0,1482.767,1369.1844482421875,0.0,0.0,0.0,0.0
1481367,107.0,0.0,488.0,4461.538461538462,4137.435897435898,4333.333333333334,4817.435897435898,3779.48717948718,4231.794871794872,4245.128205128206,4089.23076923077,4400.512820512821,4090.7692307692314,4267.179487179487,4293.846153846154,4403.076923076924,4322.564102564103,1679.0,1683.0,1482.774,1369.1844482421875,0.0,0.0,0.0,0.0
1481367,108.0,0.0,0.0,4453.846153846154,4132.820512820514,4322.051282051282,4818.461538461539,3770.7692307692314,4226.666666666667,4240.000000000001,4081.0256410256416,4387.6923076923085,4082.0512820512827,4268.717948717949,4289.2307692307695,4396.410256410257,4311.282051282052,1680.0,1684.0,1482.782,1369.1844482421875,0.0,0.0,0.0,0.0
1481367,109.0,0.0,292.0,4459.48717948718,4138.461538461539,4324.102564102564,4813.333333333334,3767.692307692308,4221.538461538462,4237.948717948719,4079.48717948718,4383.076923076924,4074.358974358975,4267.6923076923085,4290.769230769231,4398.461538461539,4316.923076923077,1680.0,1683.0,1482.79,1369.1844482421875,0.0,0.0,0.0,0.0
1481367,110.0,0.0,496.0,4473.846153846154,4151.794871794872,4337.435897435898,4815.384615384616,3774.358974358975,4223.589743589744,4242.051282051282,4084.615384615385,4398.461538461539,4082.0512820512827,4266.666666666667,4295.384615384616,4408.205128205129,4331.794871794872,1681.0,1683.0,1482.798,1369.1844482421875,0.0,0.0,0.0,0.0
1481367,111.0,0.0,488.0,4475.384615384616,4152.820512820514,4341.025641025642,4814.871794871796,3770.7692307692314,4224.102564102564,4243.076923076924,4085.6410256410263,4408.205128205129,4089.7435897435903,4265.128205128206,4291.794871794872,4407.6923076923085,4328.205128205129,1681.0,1682.0,1482.805,1369.1844482421875,0.0,0.0,0.0,0.0
1481368,112.0,0.0,0.0,4467.179487179487,4145.641025641026,4334.871794871796,4815.384615384616,3765.6410256410263,4210.769230769231,4239.48717948718,4084.1025641025644,4402.051282051282,4086.1538461538466,4268.717948717949,4292.820512820514,4402.051282051282,4321.538461538462,1681.0,1682.0,1482.814,1369.1844482421875,0.0,0.0,0.0,0.0
1481368,113.0,0.0,292.0,4465.641025641026,4143.076923076924,4333.846153846154,4815.8974358974365,3770.7692307692314,4207.179487179487,4238.461538461539,4079.48717948718,4390.769230769231,4080.0000000000005,4270.256410256411,4299.48717948718,4403.589743589744,4329.743589743591,1681.0,1683.0,1482.825,1369.1844482421875,0.0,0.0,0.0,0.0
1481368,114.0,0.0,496.0,4469.743589743591,4145.128205128206,4337.948717948719,4815.384615384616,3774.8717948717954,4220.512820512821,4242.564102564103,4077.9487179487187,4385.641025641026,4078.461538461539,4267.6923076923085,4299.48717948718,4408.205128205129,4334.871794871796,1682.0,1684.0,1482.829,1369.1844482421875,0.0,0.0,0.0,0.0
1481368,115.0,0.0,488.0,4472.820512820514,4146.666666666667,4342.051282051282,4816.923076923077,3773.333333333334,4223.589743589744,4245.641025641026,4078.9743589743593,4382.051282051282,4075.8974358974365,4266.666666666667,4297.948717948719,4409.2307692307695,4336.410256410257,1681.0,1685.0,1482.836,1369.1844482421875,0.0,0.0,0.0,0.0
1481369,116.0,0.0,0.0,4472.307692307693,4144.615384615385,4341.538461538462,4813.333333333334,3773.8461538461543,4220.000000000001,4242.564102564103,4073.8461538461543,4371.282051282052,4066.666666666667,4267.179487179487,4297.948717948719,4406.153846153847,4338.461538461539,1682.0,1684.0,1482.844,1369.1844482421875,0.0,0.0,0.0,0.0
1481369,117.0,0.0,292.0,4470.769230769231,4140.000000000001,4340.512820512821,4816.923076923077,3776.9230769230776,4220.512820512821,4237.948717948719,4068.205128205129,4366.666666666667,4066.1538461538466,4268.717948717949,4299.48717948718,4403.076923076924,4338.974358974359,1681.0,1684.0,1482.852,1369.1844482421875,0.0,0.0,0.0,0.0
1481369,118.0,0.0,496.0,4476.923076923077,4138.974358974359,4344.615384615385,4818.461538461539,3775.8974358974365,4214.358974358975,4242.051282051282,4072.820512820513,4376.410256410257,4074.358974358975,4268.205128205129,4301.025641025642,4405.641025641026,4343.076923076924,1682.0,1684.0,1482.86,1369.1844482421875,0.0,0.0,0.0,0.0
1481370,119.0,0.0,488.0,4473.846153846154,4133.846153846154,4337.948717948719,4813.846153846154,3770.2564102564106,4212.820512820514,4244.102564102564,4076.410256410257,4382.051282051282,4067.692307692308,4265.128205128206,4294.358974358975,4403.076923076924,4340.000000000001,1680.0,1684.0,1482.869,1369.1844482421875,0.0,0.0,0.0,0.0
1481370,120.0,0.0,0.0,4457.435897435898,4122.051282051282,4325.641025641026,4816.410256410257,3772.307692307693,4220.000000000001,4237.948717948719,4075.3846153846157,4380.000000000001,4058.461538461539,4266.666666666667,4290.256410256411,4393.333333333334,4328.717948717949,1681.0,1685.0,1482.876,1369.1844482421875,0.0,0.0,0.0,0.0
1481370,121.0,0.0,292.0,4460.512820512821,4122.564102564103,4331.794871794872,4814.871794871796,3776.410256410257,4220.512820512821,4238.974358974359,4082.564102564103,4392.307692307693,4073.8461538461543,4269.2307692307695,4298.461538461539,4400.000000000001,4331.282051282052,1681.0,1684.0,1482.883,1369.1844482421875,0.0,0.0,0.0,0.0
1481371,122.0,0.0,496.0,4480.512820512821,4136.410256410257,4346.666666666667,4816.923076923077,3774.358974358975,4213.846153846154,4247.6923076923085,4092.820512820513,4407.179487179487,4093.8461538461543,4268.717948717949,4307.179487179487,4417.435897435898,4346.666666666667,1680.0,1685.0,1482.891,1369.1844482421875,0.0,0.0,0.0,0.0
1481371,123.0,0.0,488.0,4483.076923076924,4141.538461538462,4346.153846153847,4818.461538461539,3772.307692307693,4209.74358974359,4247.179487179487,4088.717948717949,4406.153846153847,4093.333333333334,4265.641025641026,4300.000000000001,4418.461538461539,4351.794871794872,1681.0,1684.0,1482.9,1369.1844482421875,0.0,0.0,0.0,0.0
1481372,124.0,0.0,0.0,4458.974358974359,4126.666666666667,4327.179487179487,4814.358974358975,3771.794871794872,4217.435897435898,4235.8974358974365,4075.8974358974365,4385.128205128206,4070.7692307692314,4263.589743589744,4286.666666666667,4396.923076923077,4332.307692307693,1679.0,1684.0,1482.908,1369.1844482421875,0.0,0.0,0.0,0.0
1481372,125.0,0.0,292.0,4443.076923076924,4111.794871794872,4315.8974358974365,4819.48717948718,3770.7692307692314,4226.153846153847,4232.820512820514,4072.820512820513,4362.051282051282,4051.2820512820517,4266.666666666667,4285.128205128206,4378.974358974359,4309.2307692307695,1680.0,1685.0,1482.916,1369.1844482421875,0.0,0.0,0.0,0.0
1481372,126.0,0.0,496.0,4452.820512820514,4119.48717948718,4325.641025641026,4817.435897435898,3772.820512820513,4222.564102564103,4243.589743589744,4080.5128205128212,4374.871794871796,4062.0512820512827,4267.179487179487,4290.256410256411,4386.666666666667,4314.871794871796,1679.0,1684.0,1482.923,1369.1844482421875,0.0,0.0,0.0,0.0
1481373,127.0,0.0,488.0,4462.051282051282,4130.256410256411,4330.769230769231,4811.794871794872,3775.3846153846157,4215.8974358974365,4246.153846153847,4081.0256410256416,4393.333333333334,4072.820512820513,4267.179487179487,4290.256410256411,4392.820512820514,4329.2307692307695,1680.0,1684.0,1482.931,1369.1844482421875,0.0,0.0,0.0,0.0
1481373,128.0,0.0,0.0,4458.461538461539,4130.256410256411,4324.615384615385,4814.871794871796,3774.358974358975,4216.923076923077,4236.410256410257,4072.820512820513,4373.333333333334,4060.5128205128212,4267.179487179487,4289.74358974359,4383.589743589744,4327.179487179487,1679.0,1684.0,1482.938,1369.1844482421875,0.0,0.0,0.0,0.0
1481373,0.0,0.0,513.0,4462.564102564103,4134.358974358975,4330.769230769231,4812.820512820514,3770.2564102564106,4216.410256410257,4232.820512820514,4072.820512820513,4356.410256410257,4064.1025641025644,4264.102564102564,4295.8974358974365,4389.743589743591,4326.666666666667,1680.0,1684.0,1482.947,1369.1844482421875,0.0,0.0,0.0,0.0
1481373,1.0,0.0,0.0,4469.743589743591,4141.025641025642,4341.025641025642,4815.8974358974365,3765.6410256410263,4211.282051282052,4233.333333333334,4075.8974358974365,4370.769230769231,4080.5128205128212,4265.641025641026,4299.48717948718,4406.153846153847,4337.948717948719,1680.0,1683.0,1482.954,1369.1844482421875,0.0,0.0,0.0,0.0
1481373,2.0,0.0,508.0,4468.717948717949,4141.025641025642,4341.538461538462,4817.948717948719,3764.1025641025644,4215.8974358974365,4230.769230769231,4072.307692307693,4384.102564102564,4076.9230769230776,4267.6923076923085,4296.410256410257,4404.102564102564,4347.179487179487,1680.0,1684.0,1482.963,1369.1844482421875,0.0,0.0,0.0,0.0
1481374,3.0,0.0,532.0,4471.282051282052,4139.48717948718,4340.000000000001,4813.846153846154,3769.2307692307695,4218.461538461539,4231.282051282052,4068.205128205129,4384.102564102564,4068.205128205129,4266.666666666667,4296.923076923077,4397.948717948719,4350.769230769231,1680.0,1683.0,1482.97,1369.1844482421875,0.0,0.0,0.0,0.0
1481374,4.0,0.0,494.0,4474.358974358975,4137.435897435898,4335.8974358974365,4812.307692307693,3768.205128205129,4207.179487179487,4231.282051282052,4068.717948717949,4386.153846153847,4073.333333333334,4266.666666666667,4299.48717948718,4398.974358974359,4348.717948717949,1680.0,1684.0,1482.977,1369.1844482421875,0.0,0.0,0.0,0.0
1481374,5.0,0.0,549.0,4469.2307692307695,4136.410256410257,4333.846153846154,4811.794871794872,3763.589743589744,4203.076923076924,4229.74358974359,4071.2820512820517,4387.179487179487,4078.461538461539,4265.641025641026,4296.410256410257,4402.564102564103,4344.615384615385,1681.0,1683.0,1482.985,1369.1844482421875,0.0,0.0,0.0,0.0
1481374,6.0,0.0,546.0,4469.743589743591,4141.538461538462,4339.48717948718,4819.48717948718,3767.1794871794878,4210.256410256411,4229.74358974359,4076.410256410257,4389.2307692307695,4077.435897435898,4267.6923076923085,4298.974358974359,4409.743589743591,4348.717948717949,1680.0,1684.0,1482.994,1369.1844482421875,0.0,0.0,0.0,0.0
1481374,7.0,0.0,293.0,4479.48717948718,4147.6923076923085,4346.666666666667,4820.000000000001,3771.2820512820517,4211.282051282052,4231.794871794872,4080.0000000000005,4400.512820512821,4082.564102564103,4268.717948717949,4302.051282051282,4414.871794871796,4355.8974358974365,1681.0,1684.0,1483.001,1369.1844482421875,0.0,0.0,0.0,0.0
1481375,8.0,0.0,457.0,4483.589743589744,4152.307692307693,4348.717948717949,4813.846153846154,3768.205128205129,4207.179487179487,4233.333333333334,4076.410256410257,4411.282051282052,4093.8461538461543,4266.666666666667,4298.461538461539,4416.410256410257,4359.48717948718,1681.0,1683.0,1483.01,1369.1844482421875,0.0,0.0,0.0,0.0
1481375,9.0,0.0,475.0,4475.8974358974365,4150.769230769231,4343.076923076924,4816.410256410257,3768.717948717949,4209.74358974359,4232.820512820514,4070.7692307692314,4405.128205128206,4092.307692307693,4268.205128205129,4294.871794871796,4411.794871794872,4356.923076923077,1682.0,1684.0,1483.017,1369.1844482421875,0.0,0.0,0.0,0.0
1481375,10.0,0.0,496.0,4469.2307692307695,4144.102564102564,4337.948717948719,4814.871794871796,3775.8974358974365,4218.974358974359,4236.410256410257,4066.666666666667,4394.358974358975,4080.0000000000005,4268.717948717949,4291.282051282052,4404.615384615385,4347.179487179487,1681.0,1684.0,1483.024,1369.1844482421875,0.0,0.0,0.0,0.0
1481375,11.0,0.0,488.0,4464.615384615385,4141.025641025642,4335.8974358974365,4814.358974358975,3774.358974358975,4222.564102564103,4241.538461538462,4064.1025641025644,4390.769230769231,4074.358974358975,4266.153846153847,4287.179487179487,4400.512820512821,4337.435897435898,1681.0,1687.0,1483.033,1369.1844482421875,0.0,0.0,0.0,0.0
1481375,12.0,0.0,0.0,4462.564102564103,4140.000000000001,4333.333333333334,4816.410256410257,3772.307692307693,4223.076923076924,4244.102564102564,4061.538461538462,4388.205128205129,4076.410256410257,4264.102564102564,4288.717948717949,4401.538461538462,4337.435897435898,1681.0,1687.0,1483.041,1369.1844482421875,0.0,0.0,0.0,0.0
1481375,13.0,0.0,292.0,4462.564102564103,4134.871794871796,4330.256410256411,4814.358974358975,3775.3846153846157,4227.179487179487,4245.641025641026,4062.0512820512827,4381.538461538462,4071.7948717948725,4266.153846153847,4292.307692307693,4400.512820512821,4340.512820512821,1680.0,1687.0,1483.049,1369.1844482421875,0.0,0.0,0.0,0.0
1481375,14.0,0.0,496.0,4455.8974358974365,4127.6923076923085,4327.6923076923085,4817.435897435898,3774.358974358975,4230.769230769231,4242.051282051282,4065.1282051282055,4373.846153846154,4061.538461538462,4268.205128205129,4290.256410256411,4392.307692307693,4333.846153846154,1681.0,1686.0,1483.056,1369.1844482421875,0.0,0.0,0.0,0.0
1481375,15.0,0.0,488.0,4448.717948717949,4128.205128205129,4325.641025641026,4815.384615384616,3768.205128205129,4227.6923076923085,4233.846153846154,4066.666666666667,4376.923076923077,4063.076923076924,4267.179487179487,4287.6923076923085,4390.256410256411,4330.769230769231,1679.0,1687.0,1483.064,1369.1844482421875,0.0,0.0,0.0,0.0
1481376,16.0,0.0,0.0,4451.794871794872,4131.794871794872,4326.153846153847,4813.333333333334,3766.1538461538466,4216.923076923077,4231.282051282052,4066.1538461538466,4388.205128205129,4070.2564102564106,4269.74358974359,4294.871794871796,4395.384615384616,4334.871794871796,1680.0,1684.0,1483.071,1369.1844482421875,0.0,0.0,0.0,0.0
1481376,17.0,0.0,0.0,4457.435897435898,4130.769230769231,4329.2307692307695,4814.871794871796,3768.205128205129,4213.333333333334,4237.435897435898,4063.076923076924,4389.743589743591,4071.2820512820517,4269.74358974359,4298.461538461539,4397.435897435898,4336.410256410257,1680.0,1684.0,1483.079,1369.1844482421875,0.0,0.0,0.0,0.0
1481376,18.0,0.0,0.0,4454.358974358975,4125.128205128206,4327.179487179487,4813.333333333334,3767.692307692308,4221.538461538462,4240.512820512821,4062.0512820512827,4378.974358974359,4064.615384615385,4267.179487179487,4290.769230769231,4388.717948717949,4333.333333333334,1681.0,1684.0,1483.087,1369.1844482421875,0.0,0.0,0.0,0.0
1481376,19.0,0.0,0.0,4444.102564102564,4115.384615384616,4318.974358974359,4815.384615384616,3767.692307692308,4224.615384615385,4235.384615384616,4062.564102564103,4373.333333333334,4054.8717948717954,4267.179487179487,4286.666666666667,4376.410256410257,4329.2307692307695,1681.0,1684.0,1483.095,1369.1844482421875,0.0,0.0,0.0,0.0
1481376,20.0,0.0,0.0,4443.589743589744,4113.333333333334,4318.461538461539,4814.358974358975,3768.205128205129,4221.538461538462,4238.461538461539,4067.692307692308,4384.615384615385,4060.0000000000005,4266.666666666667,4291.794871794872,4382.051282051282,4333.333333333334,1680.0,1686.0,1483.102,1369.1844482421875,0.0,0.0,0.0,0.0
1481376,21.0,0.0,0.0,4449.743589743591,4118.461538461539,4325.128205128206,4813.333333333334,3769.2307692307695,4216.410256410257,4243.076923076924,4072.307692307693,4400.512820512821,4073.333333333334,4267.6923076923085,4295.8974358974365,4392.307692307693,4342.051282051282,1681.0,1686.0,1483.11,1369.1844482421875,0.0,0.0,0.0,0.0
1481376,22.0,0.0,0.0,4452.307692307693,4114.358974358975,4326.153846153847,4813.333333333334,3767.692307692308,4209.74358974359,4239.48717948718,4068.205128205129,4399.48717948718,4073.333333333334,4269.2307692307695,4295.384615384616,4387.179487179487,4344.102564102564,1681.0,1685.0,1483.118,1369.1844482421875,0.0,0.0,0.0,0.0
1481376,23.0,0.0,0.0,4447.6923076923085,4103.589743589744,4321.538461538462,4810.769230769231,3763.589743589744,4209.2307692307695,4239.48717948718,4061.0256410256416,4391.282051282052,4067.692307692308,4265.641025641026,4291.282051282052,4381.025641025642,4336.923076923077,1682.0,1684.0,1483.126,1369.1844482421875,0.0,0.0,0.0,0.0
1481397,24.0,0.0,0.0,4444.615384615385,4098.974358974359,4322.051282051282,4816.410256410257,3766.666666666667,4217.435897435898,4241.538461538462,4058.461538461539,4391.794871794872,4069.23076923077,4266.153846153847,4290.256410256411,4382.564102564103,4333.333333333334,1681.0,1684.0,1483.135,1369.653564453125,0.0,0.0,0.0,0.0
1481397,25.0,0.0,0.0,4453.333333333334,4106.153846153847,4328.717948717949,4816.410256410257,3774.358974358975,4226.666666666667,4246.153846153847,4060.5128205128212,4395.384615384616,4074.8717948717954,4267.179487179487,4293.846153846154,4389.743589743591,4341.538461538462,1682.0,1684.0,1483.141,1369.653564453125,0.0,0.0,0.0,0.0
1481397,26.0,0.0,0.0,4463.589743589744,4112.820512820514,4334.871794871796,4812.820512820514,3775.8974358974365,4225.641025641026,4254.871794871796,4063.589743589744,4396.410256410257,4079.48717948718,4265.128205128206,4298.461538461539,4397.435897435898,4348.717948717949,1680.0,1685.0,1483.149,1369.653564453125,0.0,0.0,0.0,0.0
1481397,27.0,0.0,0.0,4462.564102564103,4111.282051282052,4333.333333333334,4815.384615384616,3775.3846153846157,4216.923076923077,4254.358974358975,4064.1025641025644,4393.846153846154,4077.435897435898,4266.666666666667,4298.461538461539,4395.8974358974365,4347.6923076923085,1681.0,1685.0,1483.157,1369.653564453125,0.0,0.0,0.0,0.0
1481869,28.0,0.0,0.0,4452.820512820514,4104.102564102564,4326.153846153847,4812.820512820514,3775.8974358974365,4218.461538461539,4246.666666666667,4061.538461538462,4386.153846153847,4067.1794871794878,4268.717948717949,4291.794871794872,4387.179487179487,4340.512820512821,1680.0,1685.0,1483.166,1369.6849365234375,0.0,0.0,0.0,0.0
1481870,29.0,0.0,0.0,4447.179487179487,4097.435897435898,4321.538461538462,4815.384615384616,3774.358974358975,4223.076923076924,4246.666666666667,4058.9743589743593,4382.051282051282,4063.589743589744,4268.205128205129,4291.794871794872,4385.641025641026,4337.948717948719,1681.0,1685.0,1483.173,1369.6849365234375,0.0,0.0,0.0,0.0
1481870,30.0,0.0,0.0,4455.384615384616,4105.641025641026,4329.2307692307695,4816.923076923077,3773.333333333334,4221.538461538462,4252.820512820514,4065.1282051282055,4395.384615384616,4077.435897435898,4266.666666666667,4298.974358974359,4397.435897435898,4350.256410256411,1680.0,1684.0,1483.182,1369.6849365234375,0.0,0.0,0.0,0.0
1481871,31.0,0.0,0.0,4464.102564102564,4116.410256410257,4334.871794871796,4813.333333333334,3773.8461538461543,4218.461538461539,4251.794871794872,4068.205128205129,4404.615384615385,4088.205128205129,4266.153846153847,4298.974358974359,4403.589743589744,4355.8974358974365,1680.0,1685.0,1483.188,1369.6849365234375,0.0,0.0,0.0,0.0
1481871,32.0,0.0,0.0,4453.846153846154,4107.6923076923085,4324.615384615385,4814.871794871796,3769.2307692307695,4220.512820512821,4245.128205128206,4062.0512820512827,4390.256410256411,4075.8974358974365,4266.153846153847,4292.820512820514,4393.333333333334,4341.025641025642,1680.0,1683.0,1483.197,1369.6849365234375,0.0,0.0,0.0,0.0
1481872,33.0,0.0,0.0,4442.564102564103,4101.025641025642,4318.461538461539,4814.871794871796,3763.589743589744,4223.589743589744,4240.000000000001,4058.9743589743593,4383.076923076924,4067.1794871794878,4264.102564102564,4288.717948717949,4388.717948717949,4336.410256410257,1679.0,1684.0,1483.204,1369.6849365234375,0.0,0.0,0.0,0.0
1481873,34.0,0.0,0.0,4445.641025641026,4110.256410256411,4322.051282051282,4817.435897435898,3763.076923076924,4217.435897435898,4236.923076923077,4061.538461538462,4395.384615384616,4078.9743589743593,4267.179487179487,4292.820512820514,4395.8974358974365,4346.153846153847,1680.0,1683.0,1483.213,1369.6849365234375,0.0,0.0,0.0,0.0
1481874,35.0,0.0,0.0,4446.666666666667,4111.794871794872,4317.435897435898,4817.435897435898,3761.0256410256416,4210.769230769231,4236.923076923077,4060.0000000000005,4395.384615384616,4082.0512820512827,4267.6923076923085,4295.384615384616,4396.923076923077,4345.128205128206,1680.0,1684.0,1483.221,1369.6849365234375,0.0,0.0,0.0,0.0
1481874,36.0,0.0,0.0,4436.410256410257,4100.512820512821,4305.641025641026,4811.794871794872,3757.435897435898,4210.256410256411,4233.846153846154,4053.333333333334,4377.948717948719,4062.564102564103,4264.102564102564,4288.717948717949,4386.666666666667,4334.358974358975,1681.0,1683.0,1483.228,1369.6849365234375,0.0,0.0,0.0,0.0
1481875,37.0,0.0,0.0,4427.179487179487,4094.8717948717954,4300.000000000001,4813.846153846154,3759.48717948718,4210.256410256411,4227.179487179487,4049.23076923077,4371.282051282052,4049.7435897435903,4266.666666666667,4285.128205128206,4377.948717948719,4329.2307692307695,1681.0,1684.0,1483.236,1369.6849365234375,0.0,0.0,0.0,0.0
1481875,38.0,0.0,0.0,4426.153846153847,4094.358974358975,4298.974358974359,4814.358974358975,3759.48717948718,4214.358974358975,4227.179487179487,4047.692307692308,4375.384615384616,4048.717948717949,4267.6923076923085,4288.717948717949,4376.923076923077,4327.6923076923085,1683.0,1684.0,1483.244,1369.6849365234375,0.0,0.0,0.0,0.0
1481875,39.0,0.0,0.0,4432.307692307693,4095.8974358974365,4301.538461538462,4814.871794871796,3755.8974358974365,4211.282051282052,4232.307692307693,4047.1794871794878,4371.794871794872,4050.2564102564106,4266.666666666667,4291.282051282052,4381.025641025642,4331.794871794872,1683.0,1686.0,1483.252,1369.6849365234375,0.0,0.0,0.0,0.0
1481876,40.0,0.0,0.0,4441.025641025642,4106.153846153847,4310.769230769231,4814.871794871796,3756.410256410257,4200.000000000001,4236.410256410257,4052.307692307693,4373.333333333334,4060.0000000000005,4268.717948717949,4292.820512820514,4388.205128205129,4344.102564102564,1683.0,1685.0,1483.26,1369.6849365234375,0.0,0.0,0.0,0.0
1481876,41.0,0.0,0.0,4442.564102564103,4113.846153846154,4320.512820512821,4810.769230769231,3762.564102564103,4202.564102564103,4237.435897435898,4056.9230769230776,4378.974358974359,4064.615384615385,4269.2307692307695,4294.871794871796,4391.282051282052,4352.307692307693,1683.0,1686.0,1483.267,1369.6849365234375,0.0,0.0,0.0,0.0
1481876,42.0,0.0,0.0,4440.000000000001,4111.282051282052,4322.564102564103,4816.923076923077,3764.615384615385,4209.2307692307695,4233.846153846154,4057.9487179487182,4373.333333333334,4052.820512820513,4268.205128205129,4294.358974358975,4384.615384615385,4349.2307692307695,1684.0,1686.0,1483.274,1369.6849365234375,0.0,0.0,0.0,0.0
1481876,43.0,0.0,0.0,4445.641025641026,4116.923076923077,4322.564102564103,4816.923076923077,3763.589743589744,4204.615384615385,4234.358974358975,4060.0000000000005,4373.333333333334,4055.8974358974365,4266.666666666667,4291.282051282052,4384.102564102564,4348.717948717949,1683.0,1687.0,1483.282,1369.6849365234375,0.0,0.0,0.0,0.0
1481876,44.0,0.0,0.0,4452.307692307693,4127.179487179487,4324.102564102564,4811.794871794872,3767.1794871794878,4202.051282051282,4242.051282051282,4065.1282051282055,4388.205128205129,4075.3846153846157,4268.205128205129,4294.871794871796,4392.307692307693,4351.282051282052,1683.0,1685.0,1483.29,1369.6849365234375,0.0,0.0,0.0,0.0
1481877,45.0,0.0,0.0,4450.769230769231,4126.666666666667,4323.589743589744,4815.384615384616,3769.7435897435903,4209.2307692307695,4244.102564102564,4064.615384615385,4393.333333333334,4074.358974358975,4268.717948717949,4296.923076923077,4390.769230769231,4348.717948717949,1682.0,1685.0,1483.299,1369.6849365234375,0.0,0.0,0.0,0.0
1481877,46.0,0.0,0.0,4446.153846153847,4123.589743589744,4322.051282051282,4815.384615384616,3766.1538461538466,4218.461538461539,4240.000000000001,4057.9487179487182,4384.615384615385,4060.0000000000005,4268.205128205129,4293.333333333334,4385.128205128206,4343.076923076924,1682.0,1685.0,1483.306,1369.6849365234375,0.0,0.0,0.0,0.0
1481877,47.0,0.0,0.0,4444.102564102564,4123.589743589744,4321.538461538462,4814.871794871796,3765.1282051282055,4218.974358974359,4237.435897435898,4056.9230769230776,4387.179487179487,4064.615384615385,4269.74358974359,4294.871794871796,4388.205128205129,4338.974358974359,1680.0,1685.0,1483.314,1369.6849365234375,0.0,0.0,0.0,0.0
1481877,48.0,0.0,0.0,4444.102564102564,4119.48717948718,4318.974358974359,4813.846153846154,3764.615384615385,4210.769230769231,4238.974358974359,4057.435897435898,4398.974358974359,4076.410256410257,4265.641025641026,4295.8974358974365,4391.794871794872,4341.025641025642,1681.0,1686.0,1483.321,1369.6849365234375,0.0,0.0,0.0,0.0
1481878,49.0,0.0,0.0,4451.282051282052,4120.512820512821,4316.923076923077,4812.820512820514,3761.538461538462,4206.153846153847,4240.000000000001,4052.820512820513,4396.923076923077,4076.9230769230776,4265.128205128206,4295.384615384616,4394.871794871796,4347.6923076923085,1681.0,1684.0,1483.33,1369.6849365234375,0.0,0.0,0.0,0.0
1481878,50.0,0.0,0.0,4451.794871794872,4124.615384615385,4317.948717948719,4814.871794871796,3761.538461538462,4208.717948717949,4234.358974358975,4046.1538461538466,4374.871794871796,4065.6410256410263,4270.769230769231,4295.384615384616,4393.333333333334,4348.205128205129,1680.0,1685.0,1483.337,1369.6849365234375,0.0,0.0,0.0,0.0
1481878,51.0,0.0,0.0,4439.48717948718,4120.512820512821,4317.435897435898,4811.282051282052,3763.589743589744,4213.846153846154,4230.256410256411,4041.538461538462,4361.025641025642,4052.307692307693,4268.717948717949,4289.74358974359,4383.076923076924,4338.461538461539,1681.0,1684.0,1483.346,1369.6849365234375,0.0,0.0,0.0,0.0
1481878,52.0,0.0,0.0,4438.461538461539,4123.589743589744,4319.48717948718,4814.871794871796,3764.615384615385,4214.358974358975,4233.333333333334,4042.564102564103,4367.6923076923085,4049.7435897435903,4265.128205128206,4288.717948717949,4380.000000000001,4335.384615384616,1679.0,1685.0,1483.353,1369.6849365234375,0.0,0.0,0.0,0.0
1481878,53.0,0.0,0.0,4448.717948717949,4131.794871794872,4323.589743589744,4816.923076923077,3763.076923076924,4207.179487179487,4236.410256410257,4046.666666666667,4376.410256410257,4057.9487179487182,4265.128205128206,4294.358974358975,4386.666666666667,4340.000000000001,1680.0,1684.0,1483.36,1369.6849365234375,0.0,0.0,0.0,0.0
1481878,54.0,0.0,0.0,4448.717948717949,4125.641025641026,4318.461538461539,4811.282051282052,3761.538461538462,4203.589743589744,4232.820512820514,4047.1794871794878,4370.256410256411,4052.307692307693,4266.666666666667,4290.769230769231,4382.051282051282,4337.435897435898,1679.0,1684.0,1483.369,1369.6849365234375,0.0,0.0,0.0,0.0
1481879,55.0,0.0,0.0,4444.102564102564,4118.461538461539,4313.333333333334,4813.333333333334,3761.0256410256416,4205.641025641026,4228.205128205129,4045.1282051282055,4360.000000000001,4041.538461538462,4267.6923076923085,4285.641025641026,4376.923076923077,4335.384615384616,1680.0,1684.0,1483.376,1369.6849365234375,0.0,0.0,0.0,0.0
1481879,56.0,0.0,0.0,4451.794871794872,4128.717948717949,4323.589743589744,4812.820512820514,3761.538461538462,4204.102564102564,4229.2307692307695,4048.205128205129,4364.102564102564,4057.9487179487182,4265.641025641026,4295.384615384616,4391.794871794872,4347.6923076923085,1679.0,1684.0,1483.384,1369.6849365234375,0.0,0.0,0.0,0.0
1481879,57.0,0.0,0.0,4458.974358974359,4135.384615384616,4329.743589743591,4814.871794871796,3760.512820512821,4198.974358974359,4227.6923076923085,4051.2820512820517,4376.923076923077,4075.8974358974365,4267.6923076923085,4303.076923076924,4401.538461538462,4355.384615384616,1681.0,1684.0,1483.392,1369.6849365234375,0.0,0.0,0.0,0.0
1481879,58.0,0.0,0.0,4452.307692307693,4125.641025641026,4320.512820512821,4816.923076923077,3760.0000000000005,4199.48717948718,4222.564102564103,4052.307692307693,4388.717948717949,4070.2564102564106,4269.2307692307695,4298.461538461539,4392.307692307693,4345.128205128206,1679.0,1684.0,1483.399,1369.6849365234375,0.0,0.0,0.0,0.0
1481879,59.0,0.0,0.0,4445.641025641026,4123.589743589744,4318.974358974359,4813.846153846154,3760.0000000000005,4196.410256410257,4222.564102564103,4053.8461538461543,4395.8974358974365,4069.7435897435903,4266.153846153847,4295.8974358974365,4390.769230769231,4341.025641025642,1680.0,1685.0,1483.407,1369.6849365234375,0.0,0.0,0.0,0.0
1481880,60.0,0.0,0.0,4448.205128205129,4126.666666666667,4325.128205128206,4817.435897435898,3760.0000000000005,4189.74358974359,4225.641025641026,4052.307692307693,4391.282051282052,4077.9487179487187,4266.666666666667,4298.974358974359,4395.384615384616,4351.794871794872,1680.0,1683.0,1483.416,1369.6849365234375,0.0,0.0,0.0,0.0
1481881,61.0,0.0,0.0,4454.871794871796,4126.666666666667,4326.666666666667,4813.846153846154,3762.0512820512827,4194.871794871796,4228.205128205129,4050.2564102564106,4383.589743589744,4074.8717948717954,4267.6923076923085,4300.000000000001,4394.358974358975,4356.410256410257,1680.0,1684.0,1483.449,1369.6849365234375,0.0,0.0,0.0,0.0
1481882,62.0,0.0,0.0,4453.333333333334,4127.6923076923085,4325.641025641026,4810.769230769231,3766.1538461538466,4203.589743589744,4229.2307692307695,4049.23076923077,4383.076923076924,4066.1538461538466,4265.641025641026,4299.48717948718,4393.846153846154,4351.282051282052,1681.0,1683.0,1483.453,1369.6849365234375,0.0,0.0,0.0,0.0
1481882,63.0,0.0,0.0,4451.794871794872,4133.846153846154,4325.641025641026,4813.333333333334,3768.205128205129,4209.2307692307695,4231.794871794872,4045.6410256410263,4386.153846153847,4068.717948717949,4266.153846153847,4300.000000000001,4398.461538461539,4355.384615384616,1680.0,1684.0,1483.453,1369.6849365234375,0.0,0.0,0.0,0.0
1481882,64.0,0.0,513.0,4453.846153846154,4133.846153846154,4326.153846153847,4810.769230769231,3767.692307692308,4212.307692307693,4233.846153846154,4036.410256410257,4382.051282051282,4072.307692307693,4266.666666666667,4296.410256410257,4401.025641025642,4361.538461538462,1681.0,1684.0,1483.453,1369.6849365234375,0.0,0.0,0.0,0.0
1481883,65.0,0.0,0.0,4448.205128205129,4125.641025641026,4323.076923076924,4814.358974358975,3767.1794871794878,4203.589743589744,4230.769230769231,4031.2820512820517,4367.179487179487,4062.0512820512827,4267.6923076923085,4293.333333333334,4392.820512820514,4350.769230769231,1681.0,1684.0,1483.457,1369.6849365234375,0.0,0.0,0.0,0.0
1481883,66.0,0.0,508.0,4445.128205128206,4125.641025641026,4322.564102564103,4814.871794871796,3766.1538461538466,4198.461538461539,4232.307692307693,4033.8461538461543,4357.435897435898,4048.205128205129,4266.153846153847,4293.333333333334,4387.6923076923085,4346.666666666667,1681.0,1684.0,1483.464,1369.6849365234375,0.0,0.0,0.0,0.0
1481883,67.0,0.0,532.0,4453.846153846154,4132.820512820514,4327.179487179487,4812.820512820514,3764.1025641025644,4207.179487179487,4236.923076923077,4035.3846153846157,4361.025641025642,4047.1794871794878,4264.615384615385,4296.410256410257,4394.358974358975,4357.435897435898,1681.0,1684.0,1483.473,1369.6849365234375,0.0,0.0,0.0,0.0
1481883,68.0,0.0,494.0,4456.410256410257,4130.769230769231,4327.6923076923085,4814.871794871796,3763.589743589744,4208.205128205129,4232.820512820514,4036.9230769230776,4364.615384615385,4050.2564102564106,4266.666666666667,4296.410256410257,4394.358974358975,4355.384615384616,1682.0,1685.0,1483.48,1369.6849365234375,0.0,0.0,0.0,0.0
1481883,69.0,0.0,549.0,4449.743589743591,4126.153846153847,4325.128205128206,4813.333333333334,3762.564102564103,4197.948717948719,4228.205128205129,4041.538461538462,4365.641025641026,4050.2564102564106,4267.6923076923085,4292.820512820514,4388.717948717949,4346.153846153847,1681.0,1685.0,1483.487,1369.6849365234375,0.0,0.0,0.0,0.0
1481884,70.0,0.0,546.0,4455.384615384616,4133.846153846154,4333.333333333334,4816.923076923077,3762.564102564103,4192.307692307693,4230.256410256411,4045.1282051282055,4373.846153846154,4058.461538461539,4268.717948717949,4300.000000000001,4396.410256410257,4358.974358974359,1681.0,1685.0,1483.496,1369.6849365234375,0.0,0.0,0.0,0.0
1481884,71.0,0.0,293.0,4467.179487179487,4148.205128205129,4345.641025641026,4817.948717948719,3763.589743589744,4195.8974358974365,4230.769230769231,4044.615384615385,4388.205128205129,4070.7692307692314,4267.6923076923085,4305.641025641026,4409.743589743591,4375.384615384616,1682.0,1684.0,1483.503,1369.6849365234375,0.0,0.0,0.0,0.0
1481884,72.0,0.0,457.0,4456.923076923077,4142.564102564103,4335.8974358974365,4814.358974358975,3761.0256410256416,4201.538461538462,4227.6923076923085,4042.0512820512827,4389.743589743591,4063.076923076924,4266.153846153847,4295.8974358974365,4399.48717948718,4361.538461538462,1681.0,1685.0,1483.509,1369.6849365234375,0.0,0.0,0.0,0.0
1481885,73.0,0.0,475.0,4443.076923076924,4127.179487179487,4318.974358974359,4813.846153846154,3758.9743589743593,4203.589743589744,4228.205128205129,4041.0256410256416,4381.538461538462,4047.1794871794878,4267.6923076923085,4288.717948717949,4377.435897435898,4336.923076923077,1681.0,1684.0,1483.518,1369.6849365234375,0.0,0.0,0.0,0.0
1481885,74.0,0.0,496.0,4448.717948717949,4131.282051282052,4324.615384615385,4809.743589743591,3760.512820512821,4200.512820512821,4232.820512820514,4041.0256410256416,4376.923076923077,4045.1282051282055,4266.666666666667,4291.282051282052,4378.461538461539,4336.923076923077,1681.0,1684.0,1483.525,1369.6849365234375,0.0,0.0,0.0,0.0
1481886,75.0,0.0,489.0,4448.205128205129,4132.307692307693,4327.179487179487,4815.384615384616,3759.48717948718,4196.923076923077,4231.794871794872,4038.9743589743593,4368.205128205129,4041.0256410256416,4267.179487179487,4291.282051282052,4382.051282051282,4345.128205128206,1682.0,1684.0,1483.533,1369.6849365234375,0.0,0.0,0.0,0.0
1481886,76.0,0.0,0.0,4440.512820512821,4122.564102564103,4318.461538461539,4819.48717948718,3754.8717948717954,4198.974358974359,4225.641025641026,4034.358974358975,4362.051282051282,4035.8974358974365,4268.205128205129,4294.358974358975,4375.8974358974365,4346.666666666667,1681.0,1683.0,1483.54,1369.6849365234375,0.0,0.0,0.0,0.0
1481887,77.0,0.0,292.0,4450.256410256411,4127.6923076923085,4324.102564102564,4812.307692307693,3753.333333333334,4203.589743589744,4227.179487179487,4036.9230769230776,4373.846153846154,4049.7435897435903,4266.666666666667,4302.564102564103,4385.641025641026,4355.8974358974365,1681.0,1683.0,1483.549,1369.6849365234375,0.0,0.0,0.0,0.0
1481888,78.0,0.0,496.0,4454.358974358975,4134.871794871796,4328.205128205129,4813.333333333334,3755.3846153846157,4201.538461538462,4230.256410256411,4037.9487179487182,4380.512820512821,4055.3846153846157,4265.128205128206,4298.974358974359,4393.333333333334,4355.384615384616,1681.0,1684.0,1483.557,1369.6849365234375,0.0,0.0,0.0,0.0
1481888,79.0,0.0,489.0,4443.589743589744,4129.74358974359,4321.025641025642,4814.871794871796,3754.8717948717954,4191.794871794872,4226.666666666667,4031.2820512820517,4369.2307692307695,4044.1025641025644,4266.153846153847,4288.205128205129,4385.641025641026,4343.076923076924,1681.0,1684.0,1483.565,1369.6849365234375,0.0,0.0,0.0,0.0
1481889,80.0,0.0,0.0,4439.48717948718,4128.717948717949,4316.410256410257,4815.8974358974365,3751.2820512820517,4189.2307692307695,4219.48717948718,4027.1794871794878,4355.384615384616,4036.410256410257,4269.74358974359,4288.717948717949,4378.461538461539,4341.025641025642,1681.0,1684.0,1483.572,1369.6849365234375,0.0,0.0,0.0,0.0
1481889,81.0,0.0,292.0,4443.589743589744,4133.333333333334,4315.384615384616,4815.8974358974365,3748.717948717949,4193.846153846154,4221.025641025642,4031.7948717948725,4353.846153846154,4038.9743589743593,4266.666666666667,4294.871794871796,4379.48717948718,4346.153846153847,1681.0,1685.0,1483.58,1369.6849365234375,0.0,0.0,0.0,0.0
1481889,82.0,0.0,496.0,4449.2307692307695,4133.846153846154,4318.974358974359,4812.820512820514,3749.7435897435903,4192.307692307693,4225.641025641026,4035.3846153846157,4357.435897435898,4042.564102564103,4264.102564102564,4293.846153846154,4382.051282051282,4348.717948717949,1681.0,1684.0,1483.588,1369.6849365234375,0.0,0.0,0.0,0.0
1481890,83.0,0.0,489.0,4448.717948717949,4128.717948717949,4321.538461538462,4816.410256410257,3753.333333333334,4188.205128205129,4220.512820512821,4032.820512820513,4352.307692307693,4037.435897435898,4268.205128205129,4292.820512820514,4380.512820512821,4350.256410256411,1681.0,1685.0,1483.596,1369.6849365234375,0.0,0.0,0.0,0.0
1481890,84.0,0.0,0.0,4446.153846153847,4127.6923076923085,4321.025641025642,4814.871794871796,3755.8974358974365,4193.846153846154,4223.589743589744,4036.9230769230776,4360.512820512821,4035.8974358974365,4269.2307692307695,4294.358974358975,4377.435897435898,4351.794871794872,1682.0,1684.0,1483.604,1369.6849365234375,0.0,0.0,0.0,0.0
1481891,85.0,0.0,292.0,4451.794871794872,4133.333333333334,4324.615384615385,4812.820512820514,3758.9743589743593,4196.923076923077,4237.948717948719,4045.6410256410263,4388.205128205129,4051.2820512820517,4265.641025641026,4299.48717948718,4383.589743589744,4353.333333333334,1680.0,1685.0,1483.612,1369.6849365234375,0.0,0.0,0.0,0.0
1481891,86.0,0.0,496.0,4454.358974358975,4133.333333333334,4326.153846153847,4814.358974358975,3756.410256410257,4191.794871794872,4235.8974358974365,4040.0000000000005,4381.538461538462,4050.2564102564106,4266.153846153847,4297.435897435898,4383.589743589744,4350.256410256411,1682.0,1684.0,1483.619,1369.6849365234375,0.0,0.0,0.0,0.0
1481892,87.0,0.0,489.0,4444.615384615385,4122.564102564103,4314.358974358975,4812.820512820514,3751.2820512820517,4191.794871794872,4223.589743589744,4027.692307692308,4347.179487179487,4026.666666666667,4267.6923076923085,4287.179487179487,4366.666666666667,4341.025641025642,1681.0,1684.0,1483.627,1369.6849365234375,0.0,0.0,0.0,0.0
1481902,88.0,0.0,0.0,4443.076923076924,4124.615384615385,4317.435897435898,4815.8974358974365,3751.2820512820517,4185.128205128206,4227.179487179487,4029.7435897435903,4349.2307692307695,4028.205128205129,4266.666666666667,4290.769230769231,4368.205128205129,4346.153846153847,1682.0,1685.0,1483.635,1370.154052734375,0.0,0.0,0.0,0.0
1481902,89.0,0.0,292.0,4454.358974358975,4138.461538461539,4334.871794871796,4815.8974358974365,3752.820512820513,4177.435897435898,4232.307692307693,4037.9487179487182,4367.179487179487,4044.615384615385,4265.128205128206,4298.461538461539,4385.641025641026,4353.846153846154,1682.0,1684.0,1483.643,1370.154052734375,0.0,0.0,0.0,0.0
1481903,90.0,0.0,496.0,4452.307692307693,4136.923076923077,4329.743589743591,4812.820512820514,3752.820512820513,4185.128205128206,4223.589743589744,4035.8974358974365,4358.974358974359,4037.9487179487182,4266.666666666667,4291.282051282052,4383.076923076924,4343.589743589744,1682.0,1685.0,1483.651,1370.154052734375,0.0,0.0,0.0,0.0
1481904,91.0,0.0,489.0,4443.589743589744,4127.179487179487,4313.846153846154,4814.358974358975,3753.333333333334,4192.820512820514,4222.051282051282,4032.307692307693,4353.333333333334,4033.8461538461543,4268.717948717949,4286.666666666667,4375.384615384616,4342.051282051282,1681.0,1684.0,1483.659,1370.154052734375,0.0,0.0,0.0,0.0
1482371,92.0,0.0,0.0,4442.564102564103,4129.2307692307695,4313.333333333334,4812.820512820514,3750.2564102564106,4190.769230769231,4230.256410256411,4027.1794871794878,4363.076923076924,4041.538461538462,4266.666666666667,4289.74358974359,4378.461538461539,4347.6923076923085,1681.0,1686.0,1483.666,1370.185302734375,0.0,0.0,0.0,0.0
1482371,93.0,0.0,292.0,4444.102564102564,4132.307692307693,4316.410256410257,4816.923076923077,3749.7435897435903,4190.256410256411,4231.794871794872,4028.717948717949,4370.256410256411,4044.1025641025644,4266.666666666667,4292.307692307693,4378.461538461539,4340.512820512821,1681.0,1686.0,1483.675,1370.185302734375,0.0,0.0,0.0,0.0
1482371,94.0,0.0,496.0,4446.666666666667,4134.358974358975,4318.461538461539,4819.48717948718,3757.9487179487182,4199.48717948718,4235.384615384616,4042.564102564103,4384.102564102564,4055.8974358974365,4267.6923076923085,4293.846153846154,4382.564102564103,4336.923076923077,1681.0,1685.0,1483.682,1370.185302734375,0.0,0.0,0.0,0.0
1482371,95.0,0.0,489.0,4441.025641025642,4129.2307692307695,4314.358974358975,4817.435897435898,3757.435897435898,4204.615384615385,4239.48717948718,4044.1025641025644,4389.2307692307695,4060.0000000000005,4267.6923076923085,4290.769230769231,4387.179487179487,4342.051282051282,1680.0,1685.0,1483.689,1370.185302734375,0.0,0.0,0.0,0.0
1482371,96.0,0.0,0.0,4429.743589743591,4115.8974358974365,4303.589743589744,4817.435897435898,3751.2820512820517,4200.000000000001,4230.769230769231,4034.8717948717954,4371.282051282052,4036.9230769230776,4268.717948717949,4285.641025641026,4371.282051282052,4342.051282051282,1681.0,1687.0,1483.698,1370.185302734375,0.0,0.0,0.0,0.0
1482371,97.0,0.0,292.0,4438.461538461539,4120.000000000001,4312.307692307693,4813.333333333334,3753.333333333334,4199.48717948718,4229.2307692307695,4040.0000000000005,4371.794871794872,4036.9230769230776,4266.153846153847,4292.820512820514,4368.205128205129,4349.743589743591,1680.0,1686.0,1483.705,1370.185302734375,0.0,0.0,0.0,0.0
1482372,98.0,0.0,496.0,4456.923076923077,4137.435897435898,4329.743589743591,4815.8974358974365,3757.9487179487182,4200.512820512821,4236.923076923077,4047.692307692308,4387.179487179487,4057.9487179487182,4266.666666666667,4301.025641025642,4385.641025641026,4360.000000000001,1680.0,1686.0,1483.713,1370.185302734375,0.0,0.0,0.0,0.0
1482372,99.0,0.0,489.0,4452.307692307693,4134.358974358975,4323.076923076924,4816.923076923077,3757.435897435898,4197.948717948719,4233.333333333334,4040.5128205128212,4381.538461538462,4050.7692307692314,4267.6923076923085,4293.333333333334,4384.102564102564,4350.256410256411,1679.0,1686.0,1483.721,1370.185302734375,0.0,0.0,0.0,0.0
1482373,100.0,0.0,0.0,4435.384615384616,4120.512820512821,4308.717948717949,4811.282051282052,3754.8717948717954,4201.025641025642,4228.717948717949,4033.8461538461543,4365.641025641026,4035.3846153846157,4264.615384615385,4285.128205128206,4368.205128205129,4336.410256410257,1680.0,1685.0,1483.728,1370.185302734375,0.0,0.0,0.0,0.0
1482373,101.0,0.0,292.0,4434.358974358975,4122.051282051282,4309.743589743591,4814.358974358975,3756.410256410257,4201.538461538462,4233.846153846154,4033.333333333334,4365.128205128206,4037.9487179487182,4265.641025641026,4291.794871794872,4367.179487179487,4337.435897435898,1680.0,1684.0,1483.736,1370.185302734375,0.0,0.0,0.0,0.0
1482373,102.0,0.0,496.0,4442.564102564103,4131.282051282052,4315.8974358974365,4813.846153846154,3758.9743589743593,4198.461538461539,4239.48717948718,4031.2820512820517,4375.8974358974365,4046.666666666667,4266.153846153847,4300.000000000001,4376.410256410257,4345.128205128206,1679.0,1685.0,1483.744,1370.185302734375,0.0,0.0,0.0,0.0
1482373,103.0,0.0,489.0,4443.076923076924,4131.794871794872,4313.846153846154,4812.307692307693,3757.9487179487182,4197.948717948719,4237.435897435898,4031.7948717948725,4371.794871794872,4047.692307692308,4264.615384615385,4296.923076923077,4377.948717948719,4346.666666666667,1682.0,1684.0,1483.751,1370.185302734375,0.0,0.0,0.0,0.0
1482374,104.0,0.0,0.0,4440.000000000001,4128.205128205129,4313.333333333334,4812.820512820514,3755.3846153846157,4193.846153846154,4230.769230769231,4034.358974358975,4363.589743589744,4045.1282051282055,4266.153846153847,4292.820512820514,4378.974358974359,4346.153846153847,1680.0,1685.0,1483.759,1370.185302734375,0.0,0.0,0.0,0.0
1482374,105.0,0.0,292.0,4438.974358974359,4127.179487179487,4317.948717948719,4812.307692307693,3755.3846153846157,4194.358974358975,4230.256410256411,4039.48717948718,4377.435897435898,4051.7948717948725,4268.717948717949,4294.871794871796,4381.538461538462,4345.128205128206,1682.0,1687.0,1483.768,1370.185302734375,0.0,0.0,0.0,0.0
1482374,106.0,0.0,496.0,4435.8974358974365,4124.615384615385,4316.923076923077,4819.48717948718,3760.512820512821,4203.076923076924,4233.846153846154,4048.717948717949,4396.410256410257,4061.0256410256416,4270.769230769231,4294.871794871796,4377.435897435898,4343.076923076924,1682.0,1686.0,1483.776,1370.185302734375,0.0,0.0,0.0,0.0
1482374,107.0,0.0,489.0,4438.974358974359,4126.666666666667,4316.410256410257,4817.435897435898,3763.589743589744,4205.641025641026,4238.974358974359,4049.7435897435903,4396.923076923077,4064.615384615385,4268.717948717949,4293.846153846154,4380.512820512821,4350.256410256411,1682.0,1686.0,1483.784,1370.185302734375,0.0,0.0,0.0,0.0
1482374,108.0,0.0,0.0,4446.153846153847,4131.282051282052,4320.512820512821,4813.846153846154,3760.512820512821,4201.538461538462,4238.974358974359,4035.8974358974365,4376.410256410257,4059.48717948718,4265.641025641026,4298.974358974359,4390.256410256411,4356.410256410257,1682.0,1685.0,1483.791,1370.185302734375,0.0,0.0,0.0,0.0
1482374,109.0,0.0,292.0,4441.025641025642,4129.2307692307695,4316.410256410257,4816.410256410257,3755.3846153846157,4202.051282051282,4233.333333333334,4028.717948717949,4358.461538461539,4051.2820512820517,4265.641025641026,4296.923076923077,4383.589743589744,4345.128205128206,1681.0,1685.0,1483.799,1370.185302734375,0.0,0.0,0.0,0.0
1482374,110.0,0.0,496.0,4433.846153846154,4125.641025641026,4311.282051282052,4812.307692307693,3756.410256410257,4205.641025641026,4235.384615384616,4039.48717948718,4367.6923076923085,4049.23076923077,4266.153846153847,4288.717948717949,4371.282051282052,4340.000000000001,1682.0,1684.0,1483.806,1370.185302734375,0.0,0.0,0.0,0.0
1482375,111.0,0.0,489.0,4438.974358974359,4128.205128205129,4316.923076923077,4815.384615384616,3758.9743589743593,4204.102564102564,4241.025641025642,4045.6410256410263,4386.666666666667,4052.307692307693,4267.179487179487,4292.820512820514,4375.8974358974365,4352.307692307693,1681.0,1685.0,1483.817,1370.185302734375,0.0,0.0,0.0,0.0
1482375,112.0,0.0,0.0,4448.205128205129,4135.8974358974365,4324.615384615385,4817.948717948719,3758.9743589743593,4205.641025641026,4240.000000000001,4038.9743589743593,4381.538461538462,4053.333333333334,4266.153846153847,4298.974358974359,4385.641025641026,4356.923076923077,1681.0,1685.0,1483.823,1370.185302734375,0.0,0.0,0.0,0.0
1482375,113.0,0.0,292.0,4449.2307692307695,4142.564102564103,4326.153846153847,4814.358974358975,3763.076923076924,4203.589743589744,4235.384615384616,4035.3846153846157,4367.6923076923085,4054.8717948717954,4265.641025641026,4296.410256410257,4384.615384615385,4354.871794871796,1680.0,1687.0,1483.831,1370.185302734375,0.0,0.0,0.0,0.0
1482375,114.0,0.0,496.0,4447.6923076923085,4144.102564102564,4327.6923076923085,4815.384615384616,3764.615384615385,4198.974358974359,4238.461538461539,4043.076923076924,4378.974358974359,4063.076923076924,4267.6923076923085,4298.461538461539,4387.179487179487,4364.615384615385,1681.0,1685.0,1483.838,1370.185302734375,0.0,0.0,0.0,0.0
1482376,115.0,0.0,489.0,4446.153846153847,4140.000000000001,4324.102564102564,4815.384615384616,3761.538461538462,4201.025641025642,4245.128205128206,4048.205128205129,4398.461538461539,4065.6410256410263,4268.205128205129,4296.923076923077,4390.769230769231,4368.205128205129,1679.0,1686.0,1483.846,1370.185302734375,0.0,0.0,0.0,0.0
1482376,116.0,0.0,0.0,4436.923076923077,4131.282051282052,4313.846153846154,4817.948717948719,3761.0256410256416,4204.102564102564,4242.564102564103,4037.435897435898,4390.256410256411,4056.9230769230776,4266.153846153847,4289.2307692307695,4380.000000000001,4354.358974358975,1680.0,1686.0,1483.853,1370.185302734375,0.0,0.0,0.0,0.0
1482376,117.0,0.0,292.0,4431.282051282052,4128.717948717949,4310.256410256411,4815.8974358974365,3761.0256410256416,4206.666666666667,4237.948717948719,4026.666666666667,4374.358974358975,4052.307692307693,4264.615384615385,4288.717948717949,4374.358974358975,4349.2307692307695,1679.0,1684.0,1483.862,1370.185302734375,0.0,0.0,0.0,0.0
1482376,118.0,0.0,496.0,4437.948717948719,4132.307692307693,4315.8974358974365,4811.794871794872,3760.0000000000005,4202.564102564103,4237.948717948719,4033.333333333334,4380.000000000001,4057.9487179487182,4265.641025641026,4292.820512820514,4383.076923076924,4357.948717948719,1680.0,1686.0,1483.87,1370.185302734375,0.0,0.0,0.0,0.0
1482377,119.0,0.0,489.0,4444.615384615385,4135.384615384616,4319.48717948718,4814.358974358975,3761.0256410256416,4194.871794871796,4237.948717948719,4039.48717948718,4384.615384615385,4061.538461538462,4268.205128205129,4293.846153846154,4387.179487179487,4362.564102564103,1680.0,1684.0,1483.877,1370.185302734375,0.0,0.0,0.0,0.0
1482377,120.0,0.0,0.0,4446.153846153847,4139.48717948718,4321.025641025642,4813.846153846154,3761.538461538462,4195.8974358974365,4238.974358974359,4032.307692307693,4370.256410256411,4057.435897435898,4267.6923076923085,4290.769230769231,4386.153846153847,4362.051282051282,1680.0,1685.0,1483.885,1370.185302734375,0.0,0.0,0.0,0.0
1482377,121.0,0.0,292.0,4441.538461538462,4135.8974358974365,4320.512820512821,4816.923076923077,3763.076923076924,4205.641025641026,4238.974358974359,4031.2820512820517,4366.666666666667,4051.7948717948725,4268.205128205129,4290.256410256411,4382.051282051282,4358.461538461539,1681.0,1684.0,1483.894,1370.185302734375,0.0,0.0,0.0,0.0
1482377,122.0,0.0,496.0,4435.384615384616,4132.307692307693,4318.461538461539,4813.846153846154,3764.615384615385,4209.74358974359,4236.410256410257,4039.48717948718,4386.153846153847,4053.8461538461543,4267.179487179487,4291.794871794872,4378.461538461539,4357.948717948719,1681.0,1684.0,1483.901,1370.185302734375,0.0,0.0,0.0,0.0
1482377,123.0,0.0,489.0,4443.589743589744,4143.589743589744,4323.589743589744,4807.179487179488,3764.615384615385,4205.641025641026,4240.000000000001,4040.0000000000005,4394.871794871796,4066.1538461538466,4265.641025641026,4297.435897435898,4389.2307692307695,4367.6923076923085,1682.0,1684.0,1483.909,1370.185302734375,0.0,0.0,0.0,0.0
1482377,124.0,0.0,0.0,4456.410256410257,4151.282051282052,4331.794871794872,4813.333333333334,3766.1538461538466,4203.589743589744,4248.205128205129,4036.410256410257,4385.641025641026,4073.333333333334,4268.205128205129,4302.564102564103,4399.48717948718,4375.8974358974365,1682.0,1686.0,1483.917,1370.185302734375,0.0,0.0,0.0,0.0
1482377,125.0,0.0,292.0,4447.6923076923085,4142.564102564103,4327.179487179487,4816.923076923077,3764.1025641025644,4205.128205128206,4244.615384615385,4032.820512820513,4377.948717948719,4066.1538461538466,4269.2307692307695,4296.410256410257,4390.256410256411,4365.641025641026,1684.0,1685.0,1483.924,1370.185302734375,0.0,0.0,0.0,0.0
1482377,126.0,0.0,496.0,4434.871794871796,4133.846153846154,4318.461538461539,4814.871794871796,3758.9743589743593,4201.025641025642,4232.307692307693,4029.23076923077,4376.410256410257,4053.8461538461543,4268.205128205129,4288.717948717949,4377.435897435898,4352.307692307693,1682.0,1685.0,1483.932,1370.185302734375,0.0,0.0,0.0,0.0
1482377,127.0,0.0,489.0,4448.717948717949,4141.025641025642,4327.179487179487,4813.333333333334,3762.564102564103,4195.384615384616,4233.333333333334,4031.2820512820517,4383.076923076924,4057.435897435898,4265.641025641026,4293.333333333334,4387.179487179487,4363.589743589744,1683.0,1686.0,1483.939,1370.185302734375,0.0,0.0,0.0,0.0
1482378,128.0,0.0,0.0,4463.076923076924,4152.307692307693,4340.512820512821,4812.820512820514,3768.205128205129,4201.025641025642,4244.102564102564,4035.3846153846157,4390.256410256411,4070.7692307692314,4265.641025641026,4300.000000000001,4401.538461538462,4380.000000000001,1683.0,1686.0,1483.948,1370.185302734375,0.0,0.0,0.0,0.0
1482378,0.0,0.0,513.0,4451.282051282052,4147.179487179487,4335.384615384616,4817.948717948719,3769.2307692307695,4212.307692307693,4245.128205128206,4032.820512820513,4382.051282051282,4067.692307692308,4269.2307692307695,4293.846153846154,4392.307692307693,4370.769230769231,1684.0,1687.0,1483.955,1370.185302734375,0.0,0.0,0.0,0.0
1482378,1.0,0.0,0.0,4441.538461538462,4138.461538461539,4327.179487179487,4814.871794871796,3770.7692307692314,4214.358974358975,4244.102564102564,4033.8461538461543,4376.923076923077,4057.435897435898,4266.666666666667,4287.6923076923085,4378.461538461539,4360.000000000001,1684.0,1685.0,1483.964,1370.185302734375,0.0,0.0,0.0,0.0
1482378,2.0,0.0,508.0,4444.615384615385,4136.923076923077,4325.641025641026,4813.846153846154,3771.2820512820517,4206.153846153847,4244.102564102564,4034.8717948717954,4384.102564102564,4053.8461538461543,4264.615384615385,4292.307692307693,4376.410256410257,4362.051282051282,1683.0,1685.0,1483.97,1370.185302734375,0.0,0.0,0.0,0.0
1482378,3.0,0.0,532.0,4447.6923076923085,4136.410256410257,4324.102564102564,4816.923076923077,3770.2564102564106,4202.564102564103,4243.076923076924,4029.7435897435903,4382.564102564103,4051.2820512820517,4267.6923076923085,4294.358974358975,4376.410256410257,4361.538461538462,1682.0,1685.0,1483.979,1370.185302734375,0.0,0.0,0.0,0.0
1482378,4.0,0.0,494.0,4447.179487179487,4136.410256410257,4325.641025641026,4811.794871794872,3775.8974358974365,4210.769230769231,4249.74358974359,4028.717948717949,4378.974358974359,4055.3846153846157,4266.666666666667,4292.820512820514,4379.48717948718,4362.051282051282,1681.0,1685.0,1483.986,1370.185302734375,0.0,0.0,0.0,0.0
1482378,5.0,0.0,549.0,4446.666666666667,4137.948717948719,4328.717948717949,4813.846153846154,3782.0512820512827,4215.384615384616,4251.794871794872,4029.23076923077,4378.974358974359,4061.0256410256416,4268.205128205129,4296.923076923077,4385.128205128206,4370.256410256411,1681.0,1685.0,1483.994,1370.185302734375,0.0,0.0,0.0,0.0
1482378,6.0,0.0,546.0,4450.769230769231,4140.512820512821,4331.282051282052,4816.410256410257,3779.48717948718,4213.846153846154,4249.2307692307695,4028.717948717949,4378.461538461539,4060.0000000000005,4267.6923076923085,4302.051282051282,4389.2307692307695,4380.000000000001,1680.0,1685.0,1484.002,1370.185302734375,0.0,0.0,0.0,0.0
1482379,7.0,0.0,293.0,4463.589743589744,4148.205128205129,4337.948717948719,4813.846153846154,3781.538461538462,4216.410256410257,4252.820512820514,4032.820512820513,4388.205128205129,4069.23076923077,4264.615384615385,4303.076923076924,4396.410256410257,4385.128205128206,1681.0,1684.0,1484.009,1370.185302734375,0.0,0.0,0.0,0.0
1482379,8.0,0.0,456.0,4467.6923076923085,4152.820512820514,4340.512820512821,4814.358974358975,3787.692307692308,4221.538461538462,4253.846153846154,4033.8461538461543,4398.974358974359,4081.0256410256416,4266.153846153847,4303.076923076924,4400.000000000001,4385.641025641026,1679.0,1684.0,1484.017,1370.185302734375,0.0,0.0,0.0,0.0
1482379,9.0,0.0,475.0,4457.435897435898,4148.205128205129,4335.8974358974365,4813.333333333334,3782.0512820512827,4222.564102564103,4248.717948717949,4033.333333333334,4398.461538461539,4076.9230769230776,4266.666666666667,4297.948717948719,4395.384615384616,4381.538461538462,1680.0,1684.0,1484.025,1370.185302734375,0.0,0.0,0.0,0.0
1482379,10.0,0.0,496.0,4461.538461538462,4152.820512820514,4340.000000000001,4818.974358974359,3776.9230769230776,4215.8974358974365,4245.128205128206,4033.333333333334,4394.358974358975,4070.7692307692314,4266.153846153847,4298.974358974359,4399.48717948718,4390.256410256411,1680.0,1682.0,1484.033,1370.185302734375,0.0,0.0,0.0,0.0
1482379,11.0,0.0,489.0,4473.846153846154,4164.102564102564,4348.717948717949,4818.461538461539,3782.0512820512827,4210.769230769231,4246.153846153847,4030.7692307692314,4388.717948717949,4072.820512820513,4266.666666666667,4303.076923076924,4409.743589743591,4406.666666666667,1679.0,1684.0,1484.041,1370.185302734375,0.0,0.0,0.0,0.0
1482379,12.0,0.0,0.0,4461.538461538462,4154.871794871796,4338.974358974359,4811.794871794872,3777.435897435898,4215.8974358974365,4246.153846153847,4028.717948717949,4382.564102564103,4065.6410256410263,4268.205128205129,4296.410256410257,4398.461538461539,4394.358974358975,1680.0,1683.0,1484.049,1370.185302734375,0.0,0.0,0.0,0.0
1482379,13.0,0.0,292.0,4445.128205128206,4138.461538461539,4322.564102564103,4814.358974358975,3770.2564102564106,4215.384615384616,4241.025641025642,4030.2564102564106,4379.48717948718,4054.8717948717954,4268.717948717949,4292.307692307693,4381.538461538462,4371.794871794872,1679.0,1684.0,1484.056,1370.185302734375,0.0,0.0,0.0,0.0
1482379,14.0,0.0,496.0,4453.333333333334,4140.000000000001,4324.102564102564,4812.820512820514,3773.333333333334,4207.179487179487,4238.974358974359,4028.717948717949,4384.102564102564,4060.0000000000005,4265.641025641026,4296.923076923077,4389.743589743591,4381.025641025642,1680.0,1684.0,1484.065,1370.185302734375,0.0,0.0,0.0,0.0
1482379,15.0,0.0,489.0,4457.948717948719,4146.153846153847,4332.820512820514,4814.358974358975,3772.820512820513,4203.589743589744,4240.000000000001,4028.717948717949,4387.6923076923085,4068.717948717949,4265.641025641026,4301.025641025642,4398.461538461539,4395.384615384616,1680.0,1684.0,1484.072,1370.185302734375,0.0,0.0,0.0,0.0
1482380,16.0,0.0,0.0,4447.6923076923085,4143.589743589744,4329.2307692307695,4818.461538461539,3767.1794871794878,4202.564102564103,4236.410256410257,4029.23076923077,4387.179487179487,4068.205128205129,4266.666666666667,4296.923076923077,4393.333333333334,4386.666666666667,1681.0,1684.0,1484.08,1370.185302734375,0.0,0.0,0.0,0.0
1482380,17.0,0.0,0.0,4450.769230769231,4143.076923076924,4329.743589743591,4815.8974358974365,3769.2307692307695,4204.615384615385,4236.410256410257,4025.6410256410263,4391.282051282052,4065.6410256410263,4266.153846153847,4294.871794871796,4393.846153846154,4381.538461538462,1681.0,1683.0,1484.088,1370.185302734375,0.0,0.0,0.0,0.0
1482381,18.0,0.0,0.0,4458.974358974359,4144.102564102564,4335.384615384616,4817.435897435898,3775.8974358974365,4209.2307692307695,4243.076923076924,4025.6410256410263,4394.871794871796,4064.615384615385,4265.641025641026,4298.461538461539,4396.410256410257,4385.641025641026,1681.0,1684.0,1484.095,1370.185302734375,0.0,0.0,0.0,0.0
1482381,19.0,0.0,0.0,4460.000000000001,4147.6923076923085,4337.435897435898,4816.410256410257,3775.8974358974365,4210.256410256411,4243.589743589744,4025.1282051282055,4388.717948717949,4064.1025641025644,4267.6923076923085,4298.974358974359,4395.384615384616,4384.615384615385,1682.0,1684.0,1484.103,1370.185302734375,0.0,0.0,0.0,0.0
1482381,20.0,0.0,0.0,4464.615384615385,4156.923076923077,4342.564102564103,4813.333333333334,3774.8717948717954,4212.820512820514,4242.564102564103,4023.589743589744,4388.717948717949,4070.2564102564106,4271.794871794872,4300.512820512821,4402.051282051282,4390.256410256411,1683.0,1684.0,1484.111,1370.185302734375,0.0,0.0,0.0,0.0
1482381,21.0,0.0,0.0,4469.2307692307695,4164.102564102564,4349.2307692307695,4814.358974358975,3777.435897435898,4221.538461538462,4248.717948717949,4029.7435897435903,4400.000000000001,4081.538461538462,4269.74358974359,4303.076923076924,4411.282051282052,4402.051282051282,1683.0,1685.0,1484.119,1370.185302734375,0.0,0.0,0.0,0.0
1482382,22.0,0.0,0.0,4465.641025641026,4158.461538461539,4344.615384615385,4813.333333333334,3775.8974358974365,4224.102564102564,4247.6923076923085,4026.666666666667,4395.8974358974365,4079.48717948718,4265.128205128206,4296.923076923077,4406.666666666667,4396.923076923077,1683.0,1684.0,1484.127,1370.185302734375,0.0,0.0,0.0,0.0
1482392,23.0,0.0,0.0,4459.48717948718,4146.153846153847,4336.410256410257,4817.435897435898,3771.794871794872,4210.769230769231,4234.871794871796,4018.461538461539,4378.974358974359,4066.666666666667,4267.6923076923085,4292.820512820514,4397.948717948719,4381.538461538462,1682.0,1684.0,1484.135,1370.6544189453125,0.0,0.0,0.0,0.0
1482392,24.0,0.0,0.0,4462.051282051282,4150.256410256411,4345.641025641026,4816.410256410257,3769.7435897435903,4201.538461538462,4236.923076923077,4030.2564102564106,4389.743589743591,4074.358974358975,4270.256410256411,4301.538461538462,4406.153846153847,4388.717948717949,1683.0,1685.0,1484.142,1370.6544189453125,0.0,0.0,0.0,0.0
1482392,25.0,0.0,0.0,4466.666666666667,4166.153846153847,4356.923076923077,4811.794871794872,3772.820512820513,4203.076923076924,4248.205128205129,4039.48717948718,4408.205128205129,4090.7692307692314,4269.2307692307695,4310.256410256411,4417.948717948719,4410.256410256411,1682.0,1684.0,1484.15,1370.6544189453125,0.0,0.0,0.0,0.0
1482392,26.0,0.0,0.0,4462.051282051282,4162.051282051282,4346.153846153847,4814.871794871796,3775.3846153846157,4203.589743589744,4246.666666666667,4029.23076923077,4398.974358974359,4082.564102564103,4267.179487179487,4303.076923076924,4411.282051282052,4409.2307692307695,1682.0,1684.0,1484.158,1370.6544189453125,0.0,0.0,0.0,0.0
1482497,27.0,0.0,0.0,4450.256410256411,4144.102564102564,4329.743589743591,4815.384615384616,3775.8974358974365,4207.6923076923085,4243.589743589744,4022.564102564103,4389.2307692307695,4066.666666666667,4264.615384615385,4291.282051282052,4397.435897435898,4389.2307692307695,1681.0,1685.0,1484.166,1370.685791015625,0.0,0.0,0.0,0.0
1482498,28.0,0.0,0.0,4444.615384615385,4139.48717948718,4330.256410256411,4816.923076923077,3776.410256410257,4214.871794871796,4248.717948717949,4018.9743589743593,4394.871794871796,4069.23076923077,4265.641025641026,4294.871794871796,4393.846153846154,4381.538461538462,1681.0,1685.0,1484.174,1370.685791015625,0.0,0.0,0.0,0.0
1482498,29.0,0.0,0.0,4448.717948717949,4148.205128205129,4336.923076923077,4816.923076923077,3776.9230769230776,4220.000000000001,4249.74358974359,4010.7692307692314,4396.410256410257,4077.9487179487187,4268.717948717949,4300.000000000001,4401.025641025642,4390.256410256411,1681.0,1684.0,1484.181,1370.685791015625,0.0,0.0,0.0,0.0
1482498,30.0,0.0,0.0,4450.256410256411,4152.820512820514,4335.8974358974365,4815.8974358974365,3778.9743589743593,4220.000000000001,4249.2307692307695,4012.307692307693,4391.282051282052,4081.0256410256416,4268.717948717949,4297.948717948719,4407.6923076923085,4395.8974358974365,1680.0,1686.0,1484.189,1370.685791015625,0.0,0.0,0.0,0.0
1482498,31.0,0.0,0.0,4449.2307692307695,4149.74358974359,4334.871794871796,4815.8974358974365,3779.48717948718,4219.48717948718,4250.256410256411,4018.461538461539,4392.820512820514,4084.615384615385,4266.153846153847,4298.974358974359,4409.2307692307695,4393.846153846154,1681.0,1685.0,1484.198,1370.685791015625,0.0,0.0,0.0,0.0
1482499,32.0,0.0,0.0,4452.820512820514,4148.717948717949,4336.923076923077,4812.307692307693,3778.9743589743593,4222.051282051282,4249.74358974359,4020.5128205128212,4398.974358974359,4088.205128205129,4264.102564102564,4297.435897435898,4409.743589743591,4392.307692307693,1679.0,1686.0,1484.205,1370.685791015625,0.0,0.0,0.0,0.0
1482499,33.0,0.0,0.0,4450.256410256411,4148.205128205129,4333.333333333334,4816.923076923077,3776.410256410257,4219.48717948718,4247.6923076923085,4020.5128205128212,4396.923076923077,4085.1282051282055,4268.717948717949,4291.794871794872,4408.205128205129,4387.6923076923085,1680.0,1686.0,1484.213,1370.685791015625,0.0,0.0,0.0,0.0
1482499,34.0,0.0,0.0,4446.153846153847,4150.256410256411,4331.282051282052,4820.000000000001,3774.8717948717954,4213.333333333334,4245.641025641026,4019.48717948718,4394.358974358975,4083.076923076924,4270.256410256411,4291.282051282052,4406.153846153847,4386.153846153847,1680.0,1685.0,1484.221,1370.685791015625,0.0,0.0,0.0,0.0
1482499,35.0,0.0,0.0,4450.769230769231,4153.333333333334,4336.410256410257,4815.384615384616,3776.410256410257,4214.871794871796,4244.102564102564,4018.461538461539,4401.025641025642,4086.1538461538466,4265.641025641026,4294.871794871796,4406.153846153847,4391.282051282052,1680.0,1685.0,1484.228,1370.685791015625,0.0,0.0,0.0,0.0
1482499,36.0,0.0,0.0,4450.256410256411,4148.717948717949,4333.333333333334,4816.410256410257,3778.9743589743593,4223.589743589744,4245.128205128206,4017.9487179487182,4401.538461538462,4083.076923076924,4265.128205128206,4294.871794871796,4399.48717948718,4387.6923076923085,1679.0,1684.0,1484.236,1370.685791015625,0.0,0.0,0.0,0.0
1482500,37.0,0.0,0.0,4438.461538461539,4141.538461538462,4323.589743589744,4815.8974358974365,3779.48717948718,4230.769230769231,4248.205128205129,4015.3846153846157,4394.358974358975,4075.3846153846157,4267.6923076923085,4290.769230769231,4391.794871794872,4380.512820512821,1680.0,1684.0,1484.244,1370.685791015625,0.0,0.0,0.0,0.0
1482500,38.0,0.0,0.0,4441.538461538462,4145.641025641026,4325.641025641026,4817.435897435898,3777.435897435898,4226.666666666667,4243.076923076924,4014.358974358975,4391.794871794872,4076.410256410257,4269.74358974359,4295.384615384616,4398.461538461539,4389.2307692307695,1680.0,1684.0,1484.252,1370.685791015625,0.0,0.0,0.0,0.0
1482617,39.0,0.0,0.0,4460.000000000001,4154.871794871796,4340.512820512821,4815.384615384616,3774.8717948717954,4212.307692307693,4238.974358974359,4015.8974358974365,4397.435897435898,4085.6410256410263,4268.205128205129,4303.589743589744,4410.769230769231,4403.589743589744,1680.0,1684.0,1484.26,1370.779541015625,0.0,0.0,0.0,0.0
1482617,40.0,0.0,0.0,4463.589743589744,4153.333333333334,4344.102564102564,4810.256410256411,3774.358974358975,4204.102564102564,4244.102564102564,4013.333333333334,4402.051282051282,4084.615384615385,4267.179487179487,4301.538461538462,4413.333333333334,4400.512820512821,1680.0,1684.0,1484.267,1370.779541015625,0.0,0.0,0.0,0.0
1482617,41.0,0.0,0.0,4449.743589743591,4142.051282051282,4332.820512820514,4814.358974358975,3777.9487179487182,4212.307692307693,4245.641025641026,4003.589743589744,4387.179487179487,4067.1794871794878,4269.74358974359,4294.358974358975,4403.076923076924,4385.641025641026,1680.0,1685.0,1484.275,1370.779541015625,0.0,0.0,0.0,0.0
1482617,42.0,0.0,0.0,4445.128205128206,4133.333333333334,4326.666666666667,4814.358974358975,3780.512820512821,4225.128205128206,4244.102564102564,3997.9487179487182,4363.589743589744,4054.8717948717954,4267.179487179487,4290.256410256411,4391.794871794872,4378.461538461539,1681.0,1685.0,1484.283,1370.779541015625,0.0,0.0,0.0,0.0
1482617,43.0,0.0,0.0,4447.6923076923085,4129.2307692307695,4325.128205128206,4813.846153846154,3774.8717948717954,4218.974358974359,4245.641025641026,4000.5128205128212,4360.000000000001,4053.333333333334,4265.641025641026,4288.717948717949,4387.179487179487,4378.974358974359,1680.0,1686.0,1484.291,1370.779541015625,0.0,0.0,0.0,0.0
1482617,44.0,0.0,0.0,4445.641025641026,4129.2307692307695,4325.128205128206,4816.410256410257,3769.7435897435903,4205.641025641026,4246.666666666667,4007.692307692308,4380.000000000001,4056.9230769230776,4267.6923076923085,4289.74358974359,4387.179487179487,4379.48717948718,1682.0,1685.0,1484.3,1370.779541015625,0.0,0.0,0.0,0.0
1482617,45.0,0.0,0.0,4445.128205128206,4129.74358974359,4327.179487179487,4812.307692307693,3770.7692307692314,4207.6923076923085,4245.641025641026,4011.2820512820517,4392.307692307693,4062.564102564103,4265.128205128206,4290.256410256411,4385.641025641026,4375.8974358974365,1681.0,1685.0,1484.307,1370.779541015625,0.0,0.0,0.0,0.0
