timestamp,cnt,inerpolated,raw_cq,af3,f7,f3,fc5,t7,p7,o1,o2,p8,t8,fc6,f4,f8,af4,gyrox,gyroy,epoc_timestamp,epoc_es_timestamp,func_id,func_value,marker,sync_signal
1813901,92.0,0.0,0.0,4452.820512820514,4157.948717948719,4313.333333333334,4816.923076923077,3670.2564102564106,4236.410256410257,4266.153846153847,4084.1025641025644,4396.410256410257,4062.564102564103,4263.076923076924,4304.102564102564,4380.000000000001,4290.256410256411,1683.0,1691.0,1815.547,1701.8062744140625,0.0,0.0,0.0,0.0
1813902,93.0,0.0,338.0,4455.384615384616,4161.025641025642,4317.435897435898,4810.256410256411,3668.205128205129,4240.000000000001,4269.74358974359,4074.358974358975,4396.923076923077,4069.7435897435903,4261.538461538462,4300.512820512821,4384.615384615385,4294.358974358975,1684.0,1690.0,1815.554,1701.8062744140625,0.0,0.0,0.0,0.0
1813902,94.0,0.0,497.0,4452.820512820514,4168.717948717949,4318.974358974359,4815.384615384616,3670.7692307692314,4236.923076923077,4268.717948717949,4067.692307692308,4387.6923076923085,4070.2564102564106,4262.564102564103,4302.051282051282,4387.179487179487,4302.564102564103,1683.0,1690.0,1815.582,1701.8062744140625,0.0,0.0,0.0,0.0
1813902,95.0,0.0,490.0,4458.461538461539,4179.48717948718,4325.128205128206,4813.333333333334,3677.435897435898,4242.564102564103,4275.384615384616,4076.9230769230776,4396.410256410257,4081.0256410256416,4261.538461538462,4306.153846153847,4398.974358974359,4313.846153846154,1684.0,1690.0,1815.583,1701.8062744140625,0.0,0.0,0.0,0.0
1813902,96.0,0.0,0.0,4461.538461538462,4179.48717948718,4327.179487179487,4811.282051282052,3678.9743589743593,4253.846153846154,4282.051282051282,4076.410256410257,4407.179487179487,4092.307692307693,4262.051282051282,4306.666666666667,4403.076923076924,4314.871794871796,1685.0,1690.0,1815.583,1701.8062744140625,0.0,0.0,0.0,0.0
1813902,97.0,0.0,338.0,4458.461538461539,4175.8974358974365,4324.102564102564,4810.769230769231,3675.3846153846157,4250.769230769231,4274.358974358975,4073.333333333334,4401.025641025642,4088.717948717949,4263.076923076924,4308.717948717949,4398.461538461539,4313.333333333334,1685.0,1690.0,1815.586,1701.8062744140625,0.0,0.0,0.0,0.0
1813902,98.0,0.0,497.0,4461.025641025642,4182.564102564103,4330.256410256411,4805.641025641026,3672.307692307693,4238.974358974359,4266.666666666667,4091.7948717948725,4396.923076923077,4083.076923076924,4259.48717948718,4310.256410256411,4400.512820512821,4323.076923076924,1685.0,1689.0,1815.593,1701.8062744140625,0.0,0.0,0.0,0.0
1813902,99.0,0.0,490.0,4461.025641025642,4183.589743589744,4336.923076923077,4815.384615384616,3673.8461538461543,4237.948717948719,4269.2307692307695,4106.666666666667,4402.051282051282,4081.0256410256416,4263.076923076924,4310.769230769231,4400.000000000001,4329.743589743591,1686.0,1688.0,1815.601,1701.8062744140625,0.0,0.0,0.0,0.0
1813903,100.0,0.0,0.0,4454.358974358975,4174.358974358975,4335.384615384616,4813.333333333334,3674.358974358975,4241.025641025642,4273.846153846154,4099.48717948718,4405.128205128206,4080.0000000000005,4264.615384615385,4310.769230769231,4396.923076923077,4324.615384615385,1686.0,1686.0,1815.609,1701.8062744140625,0.0,0.0,0.0,0.0
1813903,101.0,0.0,338.0,4455.8974358974365,4169.74358974359,4334.358974358975,4809.2307692307695,3671.2820512820517,4234.358974358975,4269.74358974359,4087.692307692308,4400.000000000001,4078.461538461539,4261.025641025642,4308.205128205129,4397.435897435898,4323.076923076924,1685.0,1686.0,1815.616,1701.8062744140625,0.0,0.0,0.0,0.0
1813903,102.0,0.0,497.0,4462.051282051282,4168.717948717949,4330.769230769231,4813.333333333334,3669.7435897435903,4230.256410256411,4262.051282051282,4091.2820512820517,4395.8974358974365,4076.410256410257,4259.48717948718,4308.205128205129,4397.435897435898,4328.717948717949,1685.0,1683.0,1815.625,1701.8062744140625,0.0,0.0,0.0,0.0
1813903,103.0,0.0,490.0,4458.461538461539,4166.153846153847,4326.666666666667,4805.128205128206,3670.7692307692314,4234.871794871796,4261.538461538462,4097.948717948719,4397.948717948719,4078.9743589743593,4257.435897435898,4309.2307692307695,4396.923076923077,4330.769230769231,1684.0,1684.0,1815.632,1701.8062744140625,0.0,0.0,0.0,0.0
1813903,104.0,0.0,0.0,4452.307692307693,4166.666666666667,4331.282051282052,4810.769230769231,3672.820512820513,4234.358974358975,4263.076923076924,4075.3846153846157,4392.307692307693,4078.461538461539,4260.512820512821,4308.205128205129,4396.410256410257,4332.820512820514,1684.0,1684.0,1815.641,1701.8062744140625,0.0,0.0,0.0,0.0
1813904,105.0,0.0,338.0,4456.923076923077,4175.8974358974365,4340.000000000001,4815.384615384616,3672.820512820513,4230.769230769231,4263.589743589744,4045.6410256410263,4387.6923076923085,4075.3846153846157,4261.538461538462,4308.205128205129,4398.974358974359,4337.435897435898,1682.0,1684.0,1815.648,1701.8062744140625,0.0,0.0,0.0,0.0
1813904,106.0,0.0,497.0,4461.025641025642,4177.435897435898,4335.384615384616,4809.743589743591,3671.794871794872,4229.74358974359,4263.589743589744,4047.692307692308,4391.794871794872,4075.8974358974365,4260.000000000001,4310.769230769231,4398.974358974359,4333.333333333334,1682.0,1684.0,1815.656,1701.8062744140625,0.0,0.0,0.0,0.0
1813904,107.0,0.0,490.0,4451.282051282052,4166.153846153847,4323.076923076924,4812.307692307693,3669.7435897435903,4230.256410256411,4263.076923076924,4056.9230769230776,4391.794871794872,4074.358974358975,4260.000000000001,4307.179487179487,4388.717948717949,4325.128205128206,1681.0,1683.0,1815.663,1701.8062744140625,0.0,0.0,0.0,0.0
1813937,108.0,0.0,0.0,4442.051282051282,4162.564102564103,4322.564102564103,4808.717948717949,3669.2307692307695,4234.871794871796,4265.641025641026,4054.358974358975,4391.794871794872,4071.7948717948725,4258.461538461539,4302.564102564103,4386.153846153847,4325.128205128206,1680.0,1685.0,1815.672,1701.939208984375,0.0,0.0,0.0,0.0
1813937,109.0,0.0,338.0,4444.102564102564,4165.128205128206,4327.6923076923085,4812.820512820514,3671.2820512820517,4235.8974358974365,4267.179487179487,4058.9743589743593,4398.974358974359,4074.8717948717954,4260.512820512821,4307.179487179487,4394.871794871796,4328.205128205129,1680.0,1684.0,1815.679,1701.939208984375,0.0,0.0,0.0,0.0
1813937,110.0,0.0,497.0,4445.641025641026,4163.076923076924,4324.615384615385,4812.820512820514,3670.7692307692314,4230.769230769231,4266.666666666667,4063.076923076924,4401.025641025642,4077.435897435898,4260.512820512821,4307.6923076923085,4394.871794871796,4326.666666666667,1680.0,1684.0,1815.687,1701.939208984375,0.0,0.0,0.0,0.0
1813937,111.0,0.0,490.0,4437.435897435898,4155.384615384616,4315.384615384616,4808.205128205129,3667.1794871794878,4231.794871794872,4263.589743589744,4060.5128205128212,4397.435897435898,4073.333333333334,4259.48717948718,4299.48717948718,4385.128205128206,4320.512820512821,1680.0,1684.0,1815.694,1701.939208984375,0.0,0.0,0.0,0.0
1814023,112.0,0.0,0.0,4432.307692307693,4151.794871794872,4309.743589743591,4814.358974358975,3664.615384615385,4237.435897435898,4263.076923076924,4064.615384615385,4398.461538461539,4071.2820512820517,4263.589743589744,4297.948717948719,4387.179487179487,4318.461538461539,1680.0,1685.0,1815.702,1701.970458984375,0.0,0.0,0.0,0.0
1814023,113.0,0.0,338.0,4436.923076923077,4156.923076923077,4314.871794871796,4810.256410256411,3667.692307692308,4240.000000000001,4267.6923076923085,4067.1794871794878,4396.923076923077,4073.8461538461543,4262.564102564103,4300.512820512821,4394.871794871796,4321.538461538462,1681.0,1685.0,1815.71,1701.970458984375,0.0,0.0,0.0,0.0
1814023,114.0,0.0,497.0,4436.410256410257,4160.512820512821,4317.948717948719,4812.820512820514,3670.2564102564106,4239.48717948718,4266.666666666667,4062.0512820512827,4390.769230769231,4071.7948717948725,4261.025641025642,4301.538461538462,4388.205128205129,4318.461538461539,1680.0,1686.0,1815.718,1701.970458984375,0.0,0.0,0.0,0.0
1814023,115.0,0.0,490.0,4435.384615384616,4160.000000000001,4321.025641025642,4814.871794871796,3673.333333333334,4240.512820512821,4264.102564102564,4067.1794871794878,4403.076923076924,4070.7692307692314,4262.051282051282,4304.615384615385,4386.666666666667,4319.48717948718,1682.0,1686.0,1815.727,1701.970458984375,0.0,0.0,0.0,0.0
1814023,116.0,0.0,0.0,4443.589743589744,4163.076923076924,4328.717948717949,4805.641025641026,3681.0256410256416,4242.564102564103,4272.307692307693,4084.1025641025644,4423.589743589744,4083.076923076924,4261.538461538462,4309.743589743591,4400.512820512821,4330.769230769231,1681.0,1686.0,1815.734,1701.970458984375,0.0,0.0,0.0,0.0
1814023,117.0,0.0,338.0,4450.256410256411,4168.205128205129,4331.282051282052,4811.794871794872,3687.692307692308,4245.128205128206,4280.000000000001,4086.666666666667,4417.435897435898,4089.23076923077,4260.000000000001,4312.820512820514,4406.666666666667,4338.974358974359,1681.0,1688.0,1815.742,1701.970458984375,0.0,0.0,0.0,0.0
1814023,118.0,0.0,497.0,4451.794871794872,4170.256410256411,4332.307692307693,4811.794871794872,3685.6410256410263,4247.6923076923085,4277.948717948719,4078.461538461539,4402.564102564103,4083.076923076924,4261.025641025642,4311.282051282052,4408.205128205129,4339.48717948718,1681.0,1687.0,1815.75,1701.970458984375,0.0,0.0,0.0,0.0
1814024,119.0,0.0,490.0,4453.846153846154,4169.2307692307695,4332.307692307693,4810.769230769231,3683.589743589744,4245.641025641026,4273.846153846154,4080.5128205128212,4404.102564102564,4082.564102564103,4262.564102564103,4309.743589743591,4408.717948717949,4338.461538461539,1681.0,1690.0,1815.758,1701.970458984375,0.0,0.0,0.0,0.0
1814024,120.0,0.0,0.0,4452.307692307693,4166.153846153847,4327.179487179487,4814.358974358975,3691.2820512820517,4246.153846153847,4273.846153846154,4085.6410256410263,4409.2307692307695,4085.6410256410263,4261.025641025642,4308.205128205129,4402.564102564103,4337.435897435898,1682.0,1689.0,1815.765,1701.970458984375,0.0,0.0,0.0,0.0
1814024,121.0,0.0,338.0,4447.179487179487,4164.102564102564,4327.6923076923085,4807.179487179488,3695.8974358974365,4251.794871794872,4277.435897435898,4084.1025641025644,4408.717948717949,4082.0512820512827,4259.48717948718,4306.153846153847,4402.564102564103,4337.435897435898,1681.0,1691.0,1815.774,1701.970458984375,0.0,0.0,0.0,0.0
1814024,122.0,0.0,497.0,4447.6923076923085,4165.128205128206,4332.820512820514,4812.820512820514,3697.9487179487182,4246.153846153847,4272.820512820514,4082.0512820512827,4404.615384615385,4078.461538461539,4262.051282051282,4308.205128205129,4405.641025641026,4338.974358974359,1681.0,1691.0,1815.78,1701.970458984375,0.0,0.0,0.0,0.0
1814024,123.0,0.0,490.0,4449.2307692307695,4163.076923076924,4328.205128205129,4813.333333333334,3700.0000000000005,4238.461538461539,4265.641025641026,4078.461538461539,4401.025641025642,4076.9230769230776,4262.564102564103,4306.666666666667,4400.512820512821,4336.410256410257,1681.0,1692.0,1815.789,1701.970458984375,0.0,0.0,0.0,0.0
1814153,124.0,0.0,0.0,4444.102564102564,4155.384615384616,4320.512820512821,4809.743589743591,3693.8461538461543,4238.461538461539,4265.128205128206,4070.7692307692314,4401.538461538462,4072.307692307693,4262.051282051282,4302.051282051282,4394.871794871796,4332.820512820514,1681.0,1690.0,1815.796,1702.0643310546875,0.0,0.0,0.0,0.0
1814153,125.0,0.0,338.0,4447.179487179487,4152.307692307693,4324.102564102564,4812.307692307693,3693.8461538461543,4236.923076923077,4266.153846153847,4067.1794871794878,4400.000000000001,4073.333333333334,4262.051282051282,4305.128205128206,4400.000000000001,4337.435897435898,1679.0,1691.0,1815.805,1702.0643310546875,0.0,0.0,0.0,0.0
1814153,126.0,0.0,497.0,4452.820512820514,4155.384615384616,4327.179487179487,4806.666666666667,3699.48717948718,4238.974358974359,4265.641025641026,4069.7435897435903,4394.871794871796,4081.0256410256416,4260.512820512821,4309.743589743591,4408.205128205129,4340.000000000001,1680.0,1691.0,1815.812,1702.0643310546875,0.0,0.0,0.0,0.0
1814153,127.0,0.0,490.0,4443.076923076924,4148.717948717949,4321.025641025642,4814.358974358975,3696.9230769230776,4243.589743589744,4262.564102564103,4071.2820512820517,4391.282051282052,4077.9487179487187,4263.076923076924,4304.615384615385,4401.538461538462,4331.282051282052,1680.0,1690.0,1815.82,1702.0643310546875,0.0,0.0,0.0,0.0
1814154,128.0,0.0,0.0,4435.384615384616,4141.538461538462,4317.948717948719,4816.923076923077,3694.358974358975,4242.564102564103,4260.000000000001,4074.358974358975,4395.384615384616,4074.358974358975,4259.48717948718,4297.948717948719,4395.8974358974365,4330.769230769231,1680.0,1691.0,1815.827,1702.0643310546875,0.0,0.0,0.0,0.0
1814154,0.0,0.0,515.0,4444.102564102564,4147.179487179487,4325.128205128206,4807.6923076923085,3701.0256410256416,4237.435897435898,4264.102564102564,4081.538461538462,4407.179487179487,4083.589743589744,4256.923076923077,4305.128205128206,4407.6923076923085,4342.564102564103,1679.0,1690.0,1815.835,1702.0643310546875,0.0,0.0,0.0,0.0
1814154,1.0,0.0,0.0,4448.205128205129,4149.2307692307695,4328.205128205129,4810.256410256411,3704.1025641025644,4234.358974358975,4266.153846153847,4087.1794871794878,4417.435897435898,4090.2564102564106,4263.589743589744,4313.333333333334,4416.923076923077,4344.102564102564,1678.0,1690.0,1815.844,1702.0643310546875,0.0,0.0,0.0,0.0
1814154,2.0,0.0,512.0,4440.000000000001,4142.564102564103,4324.615384615385,4808.205128205129,3698.9743589743593,4239.48717948718,4266.153846153847,4086.1538461538466,4416.410256410257,4087.692307692308,4263.076923076924,4307.6923076923085,4411.794871794872,4335.8974358974365,1679.0,1689.0,1815.851,1702.0643310546875,0.0,0.0,0.0,0.0
1814154,3.0,0.0,533.0,4438.461538461539,4140.512820512821,4325.128205128206,4813.846153846154,3703.076923076924,4247.6923076923085,4271.282051282052,4087.1794871794878,4415.8974358974365,4085.6410256410263,4261.025641025642,4304.615384615385,4409.743589743591,4334.871794871796,1678.0,1689.0,1815.859,1702.0643310546875,0.0,0.0,0.0,0.0
1814154,4.0,0.0,507.0,4445.128205128206,4139.48717948718,4329.743589743591,4813.333333333334,3710.2564102564106,4248.717948717949,4277.435897435898,4091.2820512820517,4420.512820512821,4090.2564102564106,4261.538461538462,4310.256410256411,4414.358974358975,4343.076923076924,1678.0,1689.0,1815.866,1702.0643310546875,0.0,0.0,0.0,0.0
1814154,5.0,0.0,554.0,4447.179487179487,4134.358974358975,4328.205128205129,4806.153846153847,3706.1538461538466,4237.948717948719,4270.256410256411,4085.1282051282055,4413.846153846154,4091.2820512820517,4260.512820512821,4308.717948717949,4411.794871794872,4343.076923076924,1678.0,1691.0,1815.875,1702.0643310546875,0.0,0.0,0.0,0.0
1814155,6.0,0.0,551.0,4443.076923076924,4127.6923076923085,4320.512820512821,4814.358974358975,3703.076923076924,4230.256410256411,4262.564102564103,4074.8717948717954,4397.948717948719,4080.0000000000005,4261.025641025642,4303.589743589744,4402.051282051282,4331.794871794872,1679.0,1692.0,1815.883,1702.0643310546875,0.0,0.0,0.0,0.0
1814155,7.0,0.0,383.0,4438.974358974359,4122.564102564103,4317.435897435898,4810.769230769231,3710.7692307692314,4235.384615384616,4266.666666666667,4077.435897435898,4396.410256410257,4074.358974358975,4261.538461538462,4303.076923076924,4395.8974358974365,4327.6923076923085,1678.0,1693.0,1815.891,1702.0643310546875,0.0,0.0,0.0,0.0
1814155,8.0,0.0,459.0,4437.948717948719,4118.461538461539,4319.48717948718,4811.282051282052,3715.8974358974365,4237.948717948719,4269.74358974359,4084.615384615385,4404.102564102564,4082.0512820512827,4262.564102564103,4304.615384615385,4395.8974358974365,4332.820512820514,1679.0,1694.0,1815.898,1702.0643310546875,0.0,0.0,0.0,0.0
1814155,9.0,0.0,480.0,4442.564102564103,4121.025641025642,4325.128205128206,4817.948717948719,3713.8461538461543,4231.794871794872,4268.717948717949,4089.7435897435903,4412.307692307693,4087.692307692308,4259.48717948718,4305.641025641026,4402.564102564103,4336.923076923077,1680.0,1692.0,1815.907,1702.0643310546875,0.0,0.0,0.0,0.0
1814155,10.0,0.0,497.0,4447.179487179487,4130.769230769231,4327.179487179487,4812.307692307693,3716.9230769230776,4233.846153846154,4272.307692307693,4096.410256410257,4422.051282051282,4088.205128205129,4257.435897435898,4306.666666666667,4407.6923076923085,4341.538461538462,1681.0,1691.0,1815.913,1702.0643310546875,0.0,0.0,0.0,0.0
1814273,11.0,0.0,490.0,4441.025641025642,4135.384615384616,4321.538461538462,4813.333333333334,3719.48717948718,4240.000000000001,4271.794871794872,4092.820512820513,4421.025641025642,4087.692307692308,4263.589743589744,4308.205128205129,4404.102564102564,4343.076923076924,1681.0,1691.0,1815.923,1702.1893310546875,0.0,0.0,0.0,0.0
1814273,12.0,0.0,0.0,4434.358974358975,4137.948717948719,4317.948717948719,4809.2307692307695,3719.48717948718,4237.948717948719,4268.205128205129,4082.564102564103,4412.307692307693,4085.6410256410263,4263.076923076924,4305.128205128206,4400.000000000001,4337.948717948719,1683.0,1691.0,1815.928,1702.1893310546875,0.0,0.0,0.0,0.0
1814273,13.0,0.0,338.0,4440.000000000001,4142.564102564103,4318.974358974359,4810.769230769231,3722.564102564103,4234.358974358975,4269.2307692307695,4078.9743589743593,4406.666666666667,4080.5128205128212,4260.000000000001,4303.589743589744,4400.000000000001,4332.820512820514,1684.0,1690.0,1815.936,1702.1893310546875,0.0,0.0,0.0,0.0
1814273,14.0,0.0,497.0,4444.102564102564,4147.179487179487,4316.410256410257,4814.358974358975,3726.1538461538466,4237.435897435898,4269.2307692307695,4076.410256410257,4398.974358974359,4076.410256410257,4260.512820512821,4305.128205128206,4398.461538461539,4331.282051282052,1685.0,1690.0,1815.944,1702.1893310546875,0.0,0.0,0.0,0.0
1814273,15.0,0.0,490.0,4440.512820512821,4150.769230769231,4314.871794871796,4806.666666666667,3727.692307692308,4237.435897435898,4264.615384615385,4072.307692307693,4394.871794871796,4072.307692307693,4259.48717948718,4304.102564102564,4396.923076923077,4326.153846153847,1684.0,1690.0,1815.951,1702.1893310546875,0.0,0.0,0.0,0.0
1814274,16.0,0.0,0.0,4436.410256410257,4150.256410256411,4315.8974358974365,4814.358974358975,3732.820512820513,4231.794871794872,4261.025641025642,4072.307692307693,4398.974358974359,4069.7435897435903,4261.025641025642,4303.076923076924,4397.948717948719,4323.076923076924,1686.0,1689.0,1815.959,1702.1893310546875,0.0,0.0,0.0,0.0
1814274,17.0,0.0,0.0,4436.410256410257,4152.820512820514,4317.948717948719,4814.871794871796,3740.0000000000005,4232.820512820514,4264.615384615385,4075.8974358974365,4401.025641025642,4071.2820512820517,4263.076923076924,4303.589743589744,4398.974358974359,4330.256410256411,1686.0,1689.0,1815.967,1702.1893310546875,0.0,0.0,0.0,0.0
1814274,18.0,0.0,0.0,4435.8974358974365,4153.333333333334,4321.538461538462,4807.179487179488,3741.0256410256416,4238.461538461539,4267.179487179487,4074.8717948717954,4395.384615384616,4071.7948717948725,4262.564102564103,4302.564102564103,4394.871794871796,4333.333333333334,1687.0,1691.0,1815.975,1702.1893310546875,0.0,0.0,0.0,0.0
1814274,19.0,0.0,0.0,4433.333333333334,4151.794871794872,4321.538461538462,4811.282051282052,3738.9743589743593,4234.358974358975,4260.512820512821,4069.23076923077,4389.2307692307695,4064.615384615385,4262.051282051282,4300.000000000001,4390.769230769231,4326.153846153847,1687.0,1690.0,1815.983,1702.1893310546875,0.0,0.0,0.0,0.0
1814274,20.0,0.0,0.0,4427.6923076923085,4153.333333333334,4315.384615384616,4806.666666666667,3737.9487179487182,4229.74358974359,4257.435897435898,4070.7692307692314,4384.615384615385,4057.435897435898,4262.051282051282,4296.410256410257,4390.256410256411,4322.564102564103,1686.0,1693.0,1815.991,1702.1893310546875,0.0,0.0,0.0,0.0
1814275,21.0,0.0,0.0,4421.025641025642,4146.666666666667,4310.256410256411,4810.769230769231,3738.9743589743593,4230.769230769231,4261.025641025642,4077.9487179487187,4386.666666666667,4060.5128205128212,4263.076923076924,4298.461538461539,4388.205128205129,4324.102564102564,1686.0,1694.0,1815.999,1702.1893310546875,0.0,0.0,0.0,0.0
1814275,22.0,0.0,0.0,4427.6923076923085,4145.641025641026,4314.871794871796,4814.358974358975,3741.0256410256416,4231.282051282052,4260.000000000001,4081.0256410256416,4397.435897435898,4067.692307692308,4261.025641025642,4302.051282051282,4388.717948717949,4323.076923076924,1685.0,1695.0,1816.007,1702.1893310546875,0.0,0.0,0.0,0.0
1814276,23.0,0.0,0.0,4442.564102564103,4161.538461538462,4320.000000000001,4808.717948717949,3742.564102564103,4226.666666666667,4258.974358974359,4081.538461538462,4403.589743589744,4067.692307692308,4260.000000000001,4304.615384615385,4390.256410256411,4321.538461538462,1685.0,1695.0,1816.014,1702.1893310546875,0.0,0.0,0.0,0.0
1814276,24.0,0.0,0.0,4441.538461538462,4164.102564102564,4320.000000000001,4810.256410256411,3742.564102564103,4220.512820512821,4260.000000000001,4078.9743589743593,4396.410256410257,4062.564102564103,4262.051282051282,4305.128205128206,4385.128205128206,4325.641025641026,1683.0,1695.0,1816.023,1702.1893310546875,0.0,0.0,0.0,0.0
1814276,25.0,0.0,0.0,4430.769230769231,4150.769230769231,4319.48717948718,4808.205128205129,3742.0512820512827,4221.538461538462,4260.512820512821,4074.8717948717954,4395.384615384616,4064.615384615385,4261.538461538462,4301.025641025642,4382.051282051282,4326.666666666667,1683.0,1696.0,1816.03,1702.1893310546875,0.0,0.0,0.0,0.0
1814277,26.0,0.0,0.0,4428.717948717949,4151.794871794872,4319.48717948718,4814.358974358975,3748.205128205129,4226.153846153847,4261.538461538462,4078.461538461539,4404.615384615385,4069.7435897435903,4262.564102564103,4303.076923076924,4387.179487179487,4325.128205128206,1681.0,1695.0,1816.038,1702.1893310546875,0.0,0.0,0.0,0.0
1814406,27.0,0.0,0.0,4432.307692307693,4161.538461538462,4323.076923076924,4812.307692307693,3754.358974358975,4233.333333333334,4266.153846153847,4078.9743589743593,4405.128205128206,4071.7948717948725,4263.076923076924,4308.717948717949,4391.794871794872,4326.153846153847,1680.0,1695.0,1816.046,1702.314453125,0.0,0.0,0.0,0.0
1814406,28.0,0.0,0.0,4426.666666666667,4156.923076923077,4322.051282051282,4806.666666666667,3752.820512820513,4240.000000000001,4266.666666666667,4070.2564102564106,4395.384615384616,4068.205128205129,4262.051282051282,4305.128205128206,4391.282051282052,4327.6923076923085,1678.0,1693.0,1816.054,1702.314453125,0.0,0.0,0.0,0.0
1814406,29.0,0.0,0.0,4421.025641025642,4150.769230769231,4312.820512820514,4816.410256410257,3749.2307692307695,4236.410256410257,4260.000000000001,4065.6410256410263,4389.743589743591,4057.435897435898,4264.615384615385,4298.974358974359,4385.128205128206,4328.717948717949,1678.0,1694.0,1816.062,1702.314453125,0.0,0.0,0.0,0.0
1814406,30.0,0.0,0.0,4425.128205128206,4156.410256410257,4313.846153846154,4810.256410256411,3748.717948717949,4229.2307692307695,4258.974358974359,4065.6410256410263,4397.948717948719,4058.461538461539,4260.000000000001,4301.538461538462,4388.717948717949,4333.846153846154,1679.0,1692.0,1816.072,1702.314453125,0.0,0.0,0.0,0.0
1814407,31.0,0.0,0.0,4429.743589743591,4164.102564102564,4321.538461538462,4806.666666666667,3748.205128205129,4226.153846153847,4260.512820512821,4049.7435897435903,4403.076923076924,4072.820512820513,4258.461538461539,4309.2307692307695,4401.538461538462,4340.512820512821,1677.0,1693.0,1816.078,1702.314453125,0.0,0.0,0.0,0.0
1814407,32.0,0.0,0.0,4426.153846153847,4163.076923076924,4317.435897435898,4812.820512820514,3746.666666666667,4225.641025641026,4256.410256410257,4024.615384615385,4394.358974358975,4074.358974358975,4261.538461538462,4307.6923076923085,4401.538461538462,4338.974358974359,1679.0,1692.0,1816.084,1702.314453125,0.0,0.0,0.0,0.0
1814407,33.0,0.0,0.0,4420.000000000001,4159.48717948718,4313.333333333334,4810.256410256411,3746.1538461538466,4226.153846153847,4255.384615384616,4015.3846153846157,4392.820512820514,4063.589743589744,4259.48717948718,4298.461538461539,4392.820512820514,4331.794871794872,1677.0,1693.0,1816.093,1702.314453125,0.0,0.0,0.0,0.0
1814407,34.0,0.0,0.0,4422.564102564103,4162.564102564103,4321.025641025642,4812.307692307693,3750.2564102564106,4224.615384615385,4261.538461538462,4020.5128205128212,4404.615384615385,4066.1538461538466,4261.538461538462,4302.051282051282,4394.871794871796,4333.333333333334,1679.0,1693.0,1816.101,1702.314453125,0.0,0.0,0.0,0.0
1814407,35.0,0.0,0.0,4430.256410256411,4168.717948717949,4326.666666666667,4807.6923076923085,3752.820512820513,4224.615384615385,4268.717948717949,4030.7692307692314,4417.435897435898,4082.0512820512827,4261.025641025642,4312.820512820514,4405.641025641026,4346.153846153847,1678.0,1693.0,1816.109,1702.314453125,0.0,0.0,0.0,0.0
1814407,36.0,0.0,0.0,4431.282051282052,4167.6923076923085,4324.615384615385,4809.2307692307695,3746.666666666667,4226.153846153847,4267.179487179487,4031.2820512820517,4418.974358974359,4084.1025641025644,4260.000000000001,4313.333333333334,4405.641025641026,4349.743589743591,1679.0,1692.0,1816.117,1702.314453125,0.0,0.0,0.0,0.0
1814407,37.0,0.0,0.0,4429.743589743591,4163.589743589744,4323.076923076924,4814.358974358975,3742.0512820512827,4225.128205128206,4261.538461538462,4014.8717948717954,4406.153846153847,4070.7692307692314,4262.051282051282,4306.153846153847,4395.384615384616,4343.076923076924,1680.0,1692.0,1816.125,1702.314453125,0.0,0.0,0.0,0.0
1814407,38.0,0.0,0.0,4431.282051282052,4163.589743589744,4323.589743589744,4805.128205128206,3744.615384615385,4221.025641025642,4262.564102564103,4009.23076923077,4392.820512820514,4065.1282051282055,4261.025641025642,4302.051282051282,4394.871794871796,4340.000000000001,1681.0,1691.0,1816.132,1702.314453125,0.0,0.0,0.0,0.0
1814408,39.0,0.0,0.0,4428.717948717949,4164.102564102564,4320.512820512821,4808.205128205129,3747.1794871794878,4217.435897435898,4262.564102564103,4019.48717948718,4395.384615384616,4068.717948717949,4260.000000000001,4305.128205128206,4401.538461538462,4341.025641025642,1681.0,1689.0,1816.141,1702.314453125,0.0,0.0,0.0,0.0
1814408,40.0,0.0,0.0,4424.615384615385,4165.128205128206,4317.948717948719,4810.256410256411,3743.589743589744,4220.512820512821,4260.000000000001,4020.0000000000005,4405.641025641026,4072.820512820513,4259.48717948718,4304.615384615385,4402.564102564103,4343.589743589744,1682.0,1689.0,1816.148,1702.314453125,0.0,0.0,0.0,0.0
1814408,41.0,0.0,0.0,4426.666666666667,4167.179487179487,4320.000000000001,4810.256410256411,3738.9743589743593,4221.538461538462,4258.461538461539,4016.410256410257,4401.025641025642,4072.820512820513,4260.512820512821,4301.025641025642,4400.000000000001,4347.6923076923085,1683.0,1688.0,1816.156,1702.314453125,0.0,0.0,0.0,0.0
1814408,42.0,0.0,0.0,4433.333333333334,4168.205128205129,4323.076923076924,4814.358974358975,3742.564102564103,4217.948717948719,4256.410256410257,4023.076923076924,4390.256410256411,4070.2564102564106,4262.564102564103,4304.615384615385,4401.538461538462,4351.282051282052,1682.0,1689.0,1816.164,1702.314453125,0.0,0.0,0.0,0.0
1814429,43.0,0.0,0.0,4431.794871794872,4165.641025641026,4320.512820512821,4807.179487179488,3744.615384615385,4215.8974358974365,4253.333333333334,4026.666666666667,4391.282051282052,4066.666666666667,4261.538461538462,4303.076923076924,4400.000000000001,4348.717948717949,1684.0,1688.0,1816.172,1702.4395751953125,0.0,0.0,0.0,0.0
1814429,44.0,0.0,0.0,4422.051282051282,4158.974358974359,4315.8974358974365,4812.820512820514,3740.512820512821,4208.717948717949,4251.282051282052,4020.0000000000005,4392.307692307693,4060.0000000000005,4262.051282051282,4298.461538461539,4390.769230769231,4341.538461538462,1683.0,1688.0,1816.179,1702.4395751953125,0.0,0.0,0.0,0.0
1814429,45.0,0.0,0.0,4420.000000000001,4158.461538461539,4318.974358974359,4815.8974358974365,3738.461538461539,4211.282051282052,4254.871794871796,4020.5128205128212,4386.666666666667,4056.9230769230776,4263.589743589744,4300.000000000001,4386.666666666667,4341.538461538462,1684.0,1687.0,1816.187,1702.4395751953125,0.0,0.0,0.0,0.0
1814430,46.0,0.0,0.0,4427.179487179487,4163.589743589744,4325.128205128206,4809.743589743591,3743.589743589744,4220.512820512821,4260.000000000001,4020.0000000000005,4383.589743589744,4058.9743589743593,4262.564102564103,4302.051282051282,4388.205128205129,4346.666666666667,1683.0,1686.0,1816.195,1702.4395751953125,0.0,0.0,0.0,0.0
1814527,47.0,0.0,0.0,4429.2307692307695,4160.000000000001,4323.589743589744,4812.307692307693,3747.1794871794878,4218.461538461539,4256.923076923077,4009.7435897435903,4385.641025641026,4057.9487179487182,4260.512820512821,4300.000000000001,4384.102564102564,4348.717948717949,1683.0,1687.0,1816.203,1702.4708251953125,0.0,0.0,0.0,0.0
1814527,48.0,0.0,0.0,4431.282051282052,4158.974358974359,4324.102564102564,4807.6923076923085,3745.1282051282055,4214.358974358975,4255.384615384616,4012.307692307693,4395.8974358974365,4061.0256410256416,4260.000000000001,4302.564102564103,4386.153846153847,4352.820512820514,1683.0,1687.0,1816.211,1702.4708251953125,0.0,0.0,0.0,0.0
1814528,49.0,0.0,0.0,4437.948717948719,4168.205128205129,4333.846153846154,4811.282051282052,3745.1282051282055,4216.410256410257,4261.025641025642,4023.589743589744,4404.615384615385,4070.2564102564106,4262.564102564103,4310.769230769231,4397.435897435898,4364.615384615385,1683.0,1688.0,1816.219,1702.4708251953125,0.0,0.0,0.0,0.0
1814528,50.0,0.0,0.0,4443.589743589744,4172.820512820514,4338.974358974359,4814.358974358975,3746.666666666667,4219.48717948718,4267.179487179487,4016.9230769230776,4400.000000000001,4072.307692307693,4261.025641025642,4312.820512820514,4401.538461538462,4372.820512820514,1682.0,1689.0,1816.227,1702.4708251953125,0.0,0.0,0.0,0.0
1814529,51.0,0.0,0.0,4441.538461538462,4168.205128205129,4333.333333333334,4806.666666666667,3745.1282051282055,4221.538461538462,4264.615384615385,4006.1538461538466,4385.641025641026,4066.1538461538466,4259.48717948718,4307.6923076923085,4396.410256410257,4369.2307692307695,1682.0,1692.0,1816.234,1702.4708251953125,0.0,0.0,0.0,0.0
1814529,52.0,0.0,0.0,4436.410256410257,4166.666666666667,4330.256410256411,4810.256410256411,3742.0512820512827,4222.051282051282,4262.051282051282,4013.8461538461543,4382.564102564103,4064.1025641025644,4262.564102564103,4307.6923076923085,4393.333333333334,4363.589743589744,1681.0,1691.0,1816.242,1702.4708251953125,0.0,0.0,0.0,0.0
1814529,53.0,0.0,0.0,4438.461538461539,4170.256410256411,4336.923076923077,4809.743589743591,3744.1025641025644,4227.6923076923085,4271.794871794872,4026.1538461538466,4396.410256410257,4069.23076923077,4263.076923076924,4310.769230769231,4395.8974358974365,4365.128205128206,1679.0,1692.0,1816.25,1702.4708251953125,0.0,0.0,0.0,0.0
1814529,54.0,0.0,0.0,4443.076923076924,4168.717948717949,4340.000000000001,4812.820512820514,3747.692307692308,4233.846153846154,4277.948717948719,4023.076923076924,4393.846153846154,4070.2564102564106,4262.564102564103,4310.256410256411,4395.8974358974365,4369.2307692307695,1680.0,1692.0,1816.257,1702.4708251953125,0.0,0.0,0.0,0.0
1814529,55.0,0.0,0.0,4441.025641025642,4165.128205128206,4333.846153846154,4812.820512820514,3742.0512820512827,4227.179487179487,4268.717948717949,4014.8717948717954,4380.000000000001,4066.1538461538466,4262.564102564103,4309.743589743591,4395.8974358974365,4372.820512820514,1678.0,1691.0,1816.265,1702.4708251953125,0.0,0.0,0.0,0.0
1814530,56.0,0.0,0.0,4434.871794871796,4161.025641025642,4330.256410256411,4803.589743589744,3735.3846153846157,4217.948717948719,4262.051282051282,4013.333333333334,4387.6923076923085,4068.717948717949,4261.538461538462,4310.769230769231,4396.410256410257,4375.8974358974365,1679.0,1691.0,1816.273,1702.4708251953125,0.0,0.0,0.0,0.0
1814530,57.0,0.0,0.0,4427.6923076923085,4152.820512820514,4325.128205128206,4813.333333333334,3738.461538461539,4217.948717948719,4259.48717948718,4012.307692307693,4398.974358974359,4069.23076923077,4263.076923076924,4308.717948717949,4387.179487179487,4368.717948717949,1679.0,1690.0,1816.281,1702.4708251953125,0.0,0.0,0.0,0.0
1814530,58.0,0.0,0.0,4426.153846153847,4153.333333333334,4323.076923076924,4813.846153846154,3741.538461538462,4217.435897435898,4256.410256410257,4012.820512820513,4395.384615384616,4066.1538461538466,4260.512820512821,4304.615384615385,4382.564102564103,4362.051282051282,1679.0,1691.0,1816.289,1702.4708251953125,0.0,0.0,0.0,0.0
1814653,59.0,0.0,0.0,4438.974358974359,4164.615384615385,4332.307692307693,4808.205128205129,3746.1538461538466,4219.48717948718,4264.102564102564,4014.358974358975,4395.8974358974365,4070.2564102564106,4258.974358974359,4309.2307692307695,4393.333333333334,4375.8974358974365,1680.0,1691.0,1816.297,1702.564697265625,0.0,0.0,0.0,0.0
1814653,60.0,0.0,0.0,4449.743589743591,4166.666666666667,4341.538461538462,4811.282051282052,3758.461538461539,4229.2307692307695,4276.410256410257,4012.307692307693,4400.512820512821,4073.8461538461543,4260.000000000001,4317.435897435898,4401.538461538462,4391.282051282052,1681.0,1692.0,1816.305,1702.564697265625,0.0,0.0,0.0,0.0
1814653,61.0,0.0,0.0,4443.076923076924,4162.564102564103,4340.512820512821,4807.6923076923085,3761.0256410256416,4230.256410256411,4272.307692307693,4010.2564102564106,4402.564102564103,4072.307692307693,4257.435897435898,4313.846153846154,4396.410256410257,4387.6923076923085,1682.0,1690.0,1816.313,1702.564697265625,0.0,0.0,0.0,0.0
1814653,62.0,0.0,0.0,4437.948717948719,4160.000000000001,4336.923076923077,4812.820512820514,3752.820512820513,4219.48717948718,4261.538461538462,3997.9487179487182,4401.538461538462,4070.2564102564106,4260.512820512821,4311.282051282052,4392.307692307693,4383.076923076924,1682.0,1689.0,1816.32,1702.564697265625,0.0,0.0,0.0,0.0
1814653,63.0,0.0,0.0,4443.076923076924,4158.461538461539,4336.410256410257,4811.282051282052,3753.333333333334,4217.948717948719,4263.076923076924,3967.692307692308,4389.743589743591,4067.1794871794878,4262.051282051282,4312.307692307693,4397.948717948719,4387.179487179487,1682.0,1687.0,1816.328,1702.564697265625,0.0,0.0,0.0,0.0
1814653,64.0,0.0,515.0,4444.615384615385,4157.948717948719,4335.8974358974365,4807.6923076923085,3757.435897435898,4224.102564102564,4265.128205128206,3943.589743589744,4381.025641025642,4062.564102564103,4258.974358974359,4310.256410256411,4400.000000000001,4387.179487179487,1682.0,1687.0,1816.336,1702.564697265625,0.0,0.0,0.0,0.0
1814654,65.0,0.0,0.0,4443.076923076924,4156.410256410257,4334.871794871796,4812.820512820514,3755.8974358974365,4222.564102564103,4258.974358974359,3936.9230769230776,4386.153846153847,4064.1025641025644,4260.000000000001,4310.769230769231,4392.820512820514,4386.153846153847,1682.0,1686.0,1816.343,1702.564697265625,0.0,0.0,0.0,0.0
1814654,66.0,0.0,513.0,4448.717948717949,4160.000000000001,4337.948717948719,4807.6923076923085,3758.461538461539,4222.051282051282,4257.948717948719,3932.820512820513,4388.717948717949,4067.1794871794878,4258.974358974359,4311.794871794872,4390.769230769231,4386.153846153847,1682.0,1687.0,1816.351,1702.564697265625,0.0,0.0,0.0,0.0
1814654,67.0,0.0,533.0,4451.282051282052,4161.538461538462,4338.461538461539,4814.358974358975,3762.564102564103,4223.589743589744,4263.076923076924,3930.7692307692314,4382.051282051282,4064.1025641025644,4262.051282051282,4310.769230769231,4393.846153846154,4385.641025641026,1682.0,1686.0,1816.359,1702.564697265625,0.0,0.0,0.0,0.0
1814654,68.0,0.0,507.0,4446.666666666667,4157.948717948719,4334.871794871796,4816.410256410257,3760.0000000000005,4219.48717948718,4261.538461538462,3929.2307692307695,4380.000000000001,4058.9743589743593,4262.564102564103,4309.743589743591,4393.846153846154,4391.282051282052,1682.0,1687.0,1816.367,1702.564697265625,0.0,0.0,0.0,0.0
1814654,69.0,0.0,554.0,4451.282051282052,4159.48717948718,4335.8974358974365,4808.717948717949,3757.9487179487182,4213.846153846154,4254.871794871796,3922.564102564103,4376.923076923077,4057.435897435898,4259.48717948718,4310.256410256411,4393.333333333334,4393.846153846154,1681.0,1686.0,1816.375,1702.564697265625,0.0,0.0,0.0,0.0
1814654,70.0,0.0,551.0,4455.8974358974365,4165.128205128206,4339.48717948718,4811.282051282052,3763.076923076924,4214.871794871796,4254.358974358975,3919.48717948718,4375.384615384616,4057.9487179487182,4260.000000000001,4313.333333333334,4392.307692307693,4388.205128205129,1681.0,1686.0,1816.383,1702.564697265625,0.0,0.0,0.0,0.0
1814654,71.0,0.0,384.0,4450.769230769231,4163.589743589744,4338.461538461539,4809.2307692307695,3763.589743589744,4218.461538461539,4256.410256410257,3924.1025641025644,4384.615384615385,4062.564102564103,4261.025641025642,4312.307692307693,4392.820512820514,4384.102564102564,1682.0,1685.0,1816.39,1702.564697265625,0.0,0.0,0.0,0.0
1814655,72.0,0.0,459.0,4449.2307692307695,4161.025641025642,4333.333333333334,4814.871794871796,3760.512820512821,4217.948717948719,4255.384615384616,3925.1282051282055,4389.2307692307695,4067.692307692308,4262.051282051282,4311.794871794872,4394.871794871796,4387.6923076923085,1680.0,1687.0,1816.398,1702.564697265625,0.0,0.0,0.0,0.0
1814655,73.0,0.0,480.0,4455.384615384616,4165.128205128206,4332.820512820514,4814.358974358975,3765.1282051282055,4221.538461538462,4260.000000000001,3929.2307692307695,4396.923076923077,4076.410256410257,4260.512820512821,4313.333333333334,4397.435897435898,4394.358974358975,1682.0,1686.0,1816.406,1702.564697265625,0.0,0.0,0.0,0.0
1814655,74.0,0.0,497.0,4458.974358974359,4167.179487179487,4336.410256410257,4804.615384615386,3772.307692307693,4234.871794871796,4270.256410256411,3943.589743589744,4411.794871794872,4084.1025641025644,4260.000000000001,4312.307692307693,4400.512820512821,4397.948717948719,1681.0,1686.0,1816.414,1702.564697265625,0.0,0.0,0.0,0.0
1814782,75.0,0.0,490.0,4460.000000000001,4169.2307692307695,4341.025641025642,4812.307692307693,3772.307692307693,4236.410256410257,4268.717948717949,3947.1794871794878,4410.769230769231,4082.564102564103,4261.538461538462,4314.358974358975,4403.589743589744,4399.48717948718,1682.0,1687.0,1816.422,1702.6898193359375,0.0,0.0,0.0,0.0
1814782,76.0,0.0,0.0,4463.076923076924,4171.794871794872,4342.564102564103,4813.846153846154,3766.1538461538466,4224.615384615385,4262.051282051282,3943.076923076924,4402.564102564103,4077.9487179487187,4261.025641025642,4317.435897435898,4405.641025641026,4400.512820512821,1681.0,1685.0,1816.429,1702.6898193359375,0.0,0.0,0.0,0.0
1814782,77.0,0.0,338.0,4460.000000000001,4166.153846153847,4336.923076923077,4812.307692307693,3760.512820512821,4218.974358974359,4259.48717948718,3945.1282051282055,4401.538461538462,4074.8717948717954,4263.589743589744,4315.384615384616,4402.564102564103,4403.076923076924,1681.0,1686.0,1816.437,1702.6898193359375,0.0,0.0,0.0,0.0
1814782,78.0,0.0,497.0,4456.923076923077,4162.051282051282,4333.333333333334,4812.820512820514,3761.0256410256416,4225.128205128206,4258.974358974359,3944.1025641025644,4397.948717948719,4070.7692307692314,4266.666666666667,4311.794871794872,4399.48717948718,4405.128205128206,1681.0,1685.0,1816.446,1702.6898193359375,0.0,0.0,0.0,0.0
1814782,79.0,0.0,490.0,4455.384615384616,4164.102564102564,4333.333333333334,4807.6923076923085,3768.205128205129,4233.333333333334,4263.076923076924,3937.435897435898,4391.282051282052,4067.1794871794878,4264.615384615385,4309.743589743591,4397.948717948719,4397.435897435898,1681.0,1686.0,1816.453,1702.6898193359375,0.0,0.0,0.0,0.0
1814783,80.0,0.0,0.0,4451.282051282052,4162.051282051282,4329.743589743591,4813.846153846154,3771.794871794872,4229.2307692307695,4264.615384615385,3938.461538461539,4392.307692307693,4066.666666666667,4261.025641025642,4309.743589743591,4394.358974358975,4387.179487179487,1682.0,1685.0,1816.461,1702.6898193359375,0.0,0.0,0.0,0.0
1814783,81.0,0.0,338.0,4452.820512820514,4162.051282051282,4328.717948717949,4810.769230769231,3766.1538461538466,4222.051282051282,4260.000000000001,3948.717948717949,4402.564102564103,4072.307692307693,4260.512820512821,4310.256410256411,4396.410256410257,4392.820512820514,1681.0,1686.0,1816.469,1702.6898193359375,0.0,0.0,0.0,0.0
1814783,82.0,0.0,497.0,4456.923076923077,4164.615384615385,4333.333333333334,4808.717948717949,3767.1794871794878,4223.589743589744,4258.461538461539,3954.8717948717954,4407.179487179487,4075.3846153846157,4262.051282051282,4311.282051282052,4402.564102564103,4403.589743589744,1681.0,1686.0,1816.476,1702.6898193359375,0.0,0.0,0.0,0.0
1814783,83.0,0.0,490.0,4457.435897435898,4162.051282051282,4332.307692307693,4814.358974358975,3772.820512820513,4224.615384615385,4262.051282051282,3952.820512820513,4397.435897435898,4070.2564102564106,4262.051282051282,4310.256410256411,4403.589743589744,4400.512820512821,1680.0,1686.0,1816.484,1702.6898193359375,0.0,0.0,0.0,0.0
1814783,84.0,0.0,0.0,4450.769230769231,4157.435897435898,4327.179487179487,4808.205128205129,3770.7692307692314,4223.076923076924,4262.564102564103,3949.7435897435903,4387.6923076923085,4064.615384615385,4260.512820512821,4304.102564102564,4398.461538461539,4392.307692307693,1681.0,1685.0,1816.492,1702.6898193359375,0.0,0.0,0.0,0.0
1814783,85.0,0.0,338.0,4443.589743589744,4152.307692307693,4323.076923076924,4811.794871794872,3766.1538461538466,4224.102564102564,4258.461538461539,3948.205128205129,4389.2307692307695,4061.0256410256416,4262.564102564103,4302.051282051282,4392.307692307693,4387.6923076923085,1679.0,1685.0,1816.5,1702.6898193359375,0.0,0.0,0.0,0.0
1814784,86.0,0.0,497.0,4445.128205128206,4153.846153846154,4323.076923076924,4813.333333333334,3765.6410256410263,4222.564102564103,4260.512820512821,3946.666666666667,4390.769230769231,4060.5128205128212,4263.076923076924,4304.102564102564,4395.384615384616,4389.2307692307695,1680.0,1685.0,1816.508,1702.6898193359375,0.0,0.0,0.0,0.0
1814784,87.0,0.0,490.0,4446.666666666667,4161.538461538462,4324.102564102564,4810.769230769231,3764.615384615385,4219.48717948718,4261.025641025642,3943.076923076924,4385.128205128206,4062.0512820512827,4263.076923076924,4304.615384615385,4402.051282051282,4393.333333333334,1681.0,1684.0,1816.515,1702.6898193359375,0.0,0.0,0.0,0.0
1814785,88.0,0.0,0.0,4446.666666666667,4161.538461538462,4322.564102564103,4812.820512820514,3763.589743589744,4224.615384615385,4253.333333333334,3941.538461538462,4383.589743589744,4061.0256410256416,4264.615384615385,4305.641025641026,4400.512820512821,4389.743589743591,1680.0,1686.0,1816.523,1702.6898193359375,0.0,0.0,0.0,0.0
1814785,89.0,0.0,338.0,4454.358974358975,4161.538461538462,4325.128205128206,4806.153846153847,3763.589743589744,4231.282051282052,4252.820512820514,3946.1538461538466,4391.282051282052,4067.1794871794878,4262.564102564103,4307.6923076923085,4400.512820512821,4387.179487179487,1681.0,1685.0,1816.531,1702.6898193359375,0.0,0.0,0.0,0.0
1814785,90.0,0.0,497.0,4462.051282051282,4168.205128205129,4332.820512820514,4812.820512820514,3766.666666666667,4226.153846153847,4256.923076923077,3949.2307692307695,4395.384615384616,4075.3846153846157,4264.102564102564,4310.769230769231,4405.128205128206,4395.384615384616,1680.0,1684.0,1816.539,1702.6898193359375,0.0,0.0,0.0,0.0
1814911,91.0,0.0,490.0,4460.000000000001,4172.307692307693,4333.333333333334,4815.8974358974365,3765.6410256410263,4221.538461538462,4257.435897435898,3946.1538461538466,4395.384615384616,4075.3846153846157,4261.025641025642,4305.641025641026,4406.666666666667,4397.948717948719,1680.0,1685.0,1816.547,1702.81494140625,0.0,0.0,0.0,0.0
1814911,92.0,0.0,0.0,4456.410256410257,4170.256410256411,4325.128205128206,4808.717948717949,3757.9487179487182,4226.666666666667,4256.923076923077,3942.0512820512827,4394.358974358975,4069.7435897435903,4255.8974358974365,4298.974358974359,4404.102564102564,4386.153846153847,1680.0,1684.0,1816.555,1702.81494140625,0.0,0.0,0.0,0.0
1814912,93.0,0.0,338.0,4450.256410256411,4163.076923076924,4317.948717948719,4811.282051282052,3755.3846153846157,4228.205128205129,4256.410256410257,3939.48717948718,4383.589743589744,4059.48717948718,4259.48717948718,4298.461538461539,4397.948717948719,4377.948717948719,1680.0,1684.0,1816.562,1702.81494140625,0.0,0.0,0.0,0.0
1814912,94.0,0.0,497.0,4447.6923076923085,4160.000000000001,4320.000000000001,4807.6923076923085,3760.0000000000005,4224.102564102564,4257.948717948719,3942.0512820512827,4377.948717948719,4056.410256410257,4258.974358974359,4300.000000000001,4398.974358974359,4386.153846153847,1679.0,1685.0,1816.57,1702.81494140625,0.0,0.0,0.0,0.0
1814912,95.0,0.0,490.0,4453.846153846154,4164.615384615385,4326.666666666667,4813.846153846154,3759.48717948718,4224.615384615385,4257.948717948719,3949.7435897435903,4385.641025641026,4067.692307692308,4258.974358974359,4304.102564102564,4404.102564102564,4395.384615384616,1680.0,1686.0,1816.578,1702.81494140625,0.0,0.0,0.0,0.0
1814912,96.0,0.0,0.0,4451.794871794872,4163.076923076924,4327.6923076923085,4816.410256410257,3755.8974358974365,4230.256410256411,4255.384615384616,3955.8974358974365,4393.846153846154,4074.358974358975,4258.974358974359,4305.641025641026,4400.512820512821,4392.820512820514,1679.0,1686.0,1816.586,1702.81494140625,0.0,0.0,0.0,0.0
1814912,97.0,0.0,338.0,4447.179487179487,4156.923076923077,4323.589743589744,4807.179487179488,3757.435897435898,4229.74358974359,4253.333333333334,3957.9487179487182,4398.974358974359,4070.7692307692314,4258.461538461539,4304.102564102564,4394.871794871796,4390.256410256411,1679.0,1686.0,1816.594,1702.81494140625,0.0,0.0,0.0,0.0
1814912,98.0,0.0,497.0,4452.820512820514,4156.923076923077,4324.615384615385,4812.820512820514,3761.0256410256416,4220.512820512821,4253.846153846154,3947.692307692308,4396.923076923077,4069.7435897435903,4262.564102564103,4308.717948717949,4393.846153846154,4398.461538461539,1679.0,1684.0,1816.601,1702.81494140625,0.0,0.0,0.0,0.0
1814912,99.0,0.0,490.0,4456.923076923077,4160.000000000001,4328.717948717949,4813.846153846154,3760.512820512821,4216.410256410257,4257.435897435898,3937.9487179487182,4389.743589743591,4071.2820512820517,4261.538461538462,4311.282051282052,4390.769230769231,4403.589743589744,1679.0,1685.0,1816.609,1702.81494140625,0.0,0.0,0.0,0.0
1814912,100.0,0.0,0.0,4449.743589743591,4154.358974358975,4323.076923076924,4813.333333333334,3756.410256410257,4215.8974358974365,4256.410256410257,3942.0512820512827,4385.641025641026,4061.538461538462,4260.512820512821,4304.615384615385,4380.512820512821,4394.871794871796,1680.0,1684.0,1816.617,1702.81494140625,0.0,0.0,0.0,0.0
1814913,101.0,0.0,338.0,4446.666666666667,4148.205128205129,4316.923076923077,4813.333333333334,3756.410256410257,4217.948717948719,4252.820512820514,3947.1794871794878,4384.615384615385,4053.333333333334,4260.000000000001,4303.076923076924,4376.410256410257,4385.128205128206,1680.0,1685.0,1816.625,1702.81494140625,0.0,0.0,0.0,0.0
1814913,102.0,0.0,497.0,4451.794871794872,4150.769230769231,4323.076923076924,4808.717948717949,3762.564102564103,4223.589743589744,4253.333333333334,3946.666666666667,4384.615384615385,4061.538461538462,4257.948717948719,4308.717948717949,4383.076923076924,4387.179487179487,1681.0,1685.0,1816.633,1702.81494140625,0.0,0.0,0.0,0.0
1814913,103.0,0.0,490.0,4454.358974358975,4151.794871794872,4326.153846153847,4815.8974358974365,3765.1282051282055,4222.051282051282,4252.307692307693,3948.205128205129,4387.179487179487,4066.666666666667,4261.025641025642,4311.282051282052,4383.589743589744,4398.461538461539,1681.0,1685.0,1816.641,1702.81494140625,0.0,0.0,0.0,0.0
1814913,104.0,0.0,0.0,4456.410256410257,4151.282051282052,4325.128205128206,4810.256410256411,3763.589743589744,4218.974358974359,4254.358974358975,3955.3846153846157,4394.358974358975,4065.6410256410263,4261.538461538462,4309.743589743591,4384.615384615385,4404.102564102564,1682.0,1685.0,1816.648,1702.81494140625,0.0,0.0,0.0,0.0
1814913,105.0,0.0,338.0,4461.025641025642,4156.923076923077,4328.205128205129,4805.641025641026,3766.666666666667,4220.512820512821,4260.000000000001,3961.0256410256416,4403.076923076924,4074.8717948717954,4261.025641025642,4309.743589743591,4396.410256410257,4401.025641025642,1682.0,1685.0,1816.656,1702.81494140625,0.0,0.0,0.0,0.0
1814913,106.0,0.0,497.0,4463.589743589744,4161.025641025642,4330.256410256411,4811.282051282052,3773.333333333334,4222.564102564103,4264.615384615385,3965.6410256410263,4410.256410256411,4087.692307692308,4262.051282051282,4312.307692307693,4402.564102564103,4401.538461538462,1683.0,1686.0,1816.664,1702.81494140625,0.0,0.0,0.0,0.0
1814935,107.0,0.0,490.0,4460.512820512821,4154.871794871796,4326.153846153847,4805.128205128206,3774.358974358975,4225.128205128206,4269.2307692307695,3966.666666666667,4407.6923076923085,4084.1025641025644,4260.000000000001,4309.2307692307695,4391.282051282052,4400.512820512821,1681.0,1685.0,1816.672,1702.9400634765625,0.0,0.0,0.0,0.0
1814935,108.0,0.0,0.0,4455.384615384616,4146.153846153847,4322.564102564103,4810.769230769231,3771.794871794872,4225.641025641026,4269.2307692307695,3958.461538461539,4395.8974358974365,4069.23076923077,4260.000000000001,4304.615384615385,4378.974358974359,4394.871794871796,1682.0,1687.0,1816.68,1702.9400634765625,0.0,0.0,0.0,0.0
1814935,109.0,0.0,338.0,4455.8974358974365,4146.153846153847,4323.076923076924,4814.358974358975,3772.307692307693,4222.051282051282,4265.641025641026,3955.8974358974365,4394.871794871796,4065.6410256410263,4260.512820512821,4304.615384615385,4380.512820512821,4396.410256410257,1682.0,1684.0,1816.688,1702.9400634765625,0.0,0.0,0.0,0.0
1814936,110.0,0.0,497.0,4457.435897435898,4148.717948717949,4324.615384615385,4808.717948717949,3773.8461538461543,4221.538461538462,4265.128205128206,3960.0000000000005,4402.051282051282,4070.2564102564106,4260.512820512821,4306.666666666667,4384.615384615385,4400.512820512821,1681.0,1686.0,1816.695,1702.9400634765625,0.0,0.0,0.0,0.0
1815034,111.0,0.0,490.0,4457.435897435898,4151.282051282052,4324.615384615385,4810.256410256411,3775.3846153846157,4228.205128205129,4264.615384615385,3952.820512820513,4394.358974358975,4068.717948717949,4262.564102564103,4307.179487179487,4385.128205128206,4401.025641025642,1682.0,1685.0,1816.703,1702.9713134765625,0.0,0.0,0.0,0.0
1815034,112.0,0.0,0.0,4463.076923076924,4158.461538461539,4328.205128205129,4804.615384615386,3776.9230769230776,4234.358974358975,4261.538461538462,3947.1794871794878,4381.025641025642,4063.589743589744,4261.538461538462,4308.205128205129,4392.307692307693,4405.641025641026,1681.0,1684.0,1816.711,1702.9713134765625,0.0,0.0,0.0,0.0
1815034,113.0,0.0,338.0,4468.717948717949,4161.538461538462,4333.846153846154,4810.769230769231,3776.9230769230776,4233.333333333334,4261.538461538462,3963.076923076924,4386.153846153847,4066.666666666667,4260.512820512821,4311.282051282052,4401.025641025642,4412.820512820514,1681.0,1684.0,1816.719,1702.9713134765625,0.0,0.0,0.0,0.0
1815034,114.0,0.0,497.0,4470.769230769231,4160.512820512821,4336.410256410257,4815.384615384616,3775.8974358974365,4227.179487179487,4261.538461538462,3980.5128205128212,4397.435897435898,4076.410256410257,4263.076923076924,4312.307692307693,4404.102564102564,4416.923076923077,1681.0,1684.0,1816.727,1702.9713134765625,0.0,0.0,0.0,0.0
1815034,115.0,0.0,490.0,4474.871794871796,4161.538461538462,4335.8974358974365,4810.256410256411,3777.9487179487182,4224.615384615385,4258.974358974359,3980.5128205128212,4397.435897435898,4082.564102564103,4264.615384615385,4312.820512820514,4406.666666666667,4421.538461538462,1681.0,1685.0,1816.734,1702.9713134765625,0.0,0.0,0.0,0.0
1815034,116.0,0.0,0.0,4480.512820512821,4164.102564102564,4337.948717948719,4812.820512820514,3781.0256410256416,4227.6923076923085,4261.538461538462,3972.820512820513,4403.589743589744,4086.1538461538466,4262.051282051282,4316.410256410257,4410.769230769231,4424.102564102564,1680.0,1684.0,1816.742,1702.9713134765625,0.0,0.0,0.0,0.0
1815034,117.0,0.0,338.0,4478.974358974359,4167.6923076923085,4342.564102564103,4809.2307692307695,3782.564102564103,4229.2307692307695,4267.179487179487,3967.692307692308,4410.256410256411,4089.23076923077,4258.461538461539,4314.871794871796,4412.820512820514,4421.538461538462,1681.0,1684.0,1816.75,1702.9713134765625,0.0,0.0,0.0,0.0
1815035,118.0,0.0,497.0,4474.358974358975,4167.179487179487,4343.076923076924,4813.846153846154,3785.6410256410263,4225.641025641026,4268.205128205129,3969.7435897435903,4404.102564102564,4087.1794871794878,4262.564102564103,4312.820512820514,4413.333333333334,4421.538461538462,1680.0,1685.0,1816.758,1702.9713134765625,0.0,0.0,0.0,0.0
1815035,119.0,0.0,490.0,4474.871794871796,4165.641025641026,4340.000000000001,4815.8974358974365,3789.2307692307695,4227.6923076923085,4269.2307692307695,3973.333333333334,4406.153846153847,4089.7435897435903,4263.076923076924,4315.384615384616,4415.384615384616,4430.256410256411,1680.0,1685.0,1816.766,1702.9713134765625,0.0,0.0,0.0,0.0
1815036,120.0,0.0,0.0,4479.48717948718,4167.6923076923085,4340.512820512821,4808.205128205129,3791.2820512820517,4237.435897435898,4275.8974358974365,3975.3846153846157,4420.512820512821,4100.000000000001,4256.410256410257,4315.384615384616,4418.461538461539,4435.8974358974365,1679.0,1685.0,1816.774,1702.9713134765625,0.0,0.0,0.0,0.0
1815036,121.0,0.0,338.0,4481.538461538462,4170.256410256411,4340.512820512821,4813.846153846154,3793.8461538461543,4239.48717948718,4277.948717948719,3986.666666666667,4422.051282051282,4098.974358974359,4261.025641025642,4310.769230769231,4420.512820512821,4429.743589743591,1679.0,1685.0,1816.781,1702.9713134765625,0.0,0.0,0.0,0.0
1815036,122.0,0.0,497.0,4474.871794871796,4166.153846153847,4333.846153846154,4811.282051282052,3794.358974358975,4233.846153846154,4271.794871794872,3999.48717948718,4410.256410256411,4091.2820512820517,4267.179487179487,4304.102564102564,4418.974358974359,4420.512820512821,1679.0,1684.0,1816.789,1702.9713134765625,0.0,0.0,0.0,0.0
1815157,123.0,0.0,490.0,4462.564102564103,4153.846153846154,4325.128205128206,4811.282051282052,3791.2820512820517,4231.282051282052,4266.153846153847,3999.48717948718,4407.179487179487,4089.7435897435903,4266.666666666667,4298.974358974359,4410.256410256411,4415.8974358974365,1679.0,1683.0,1816.797,1703.065185546875,0.0,0.0,0.0,0.0
1815157,124.0,0.0,0.0,4457.435897435898,4146.153846153847,4320.512820512821,4814.871794871796,3786.666666666667,4233.846153846154,4266.666666666667,3997.435897435898,4410.769230769231,4086.1538461538466,4263.589743589744,4298.461538461539,4400.512820512821,4412.820512820514,1678.0,1682.0,1816.805,1703.065185546875,0.0,0.0,0.0,0.0
1815157,125.0,0.0,338.0,4462.051282051282,4154.871794871796,4325.641025641026,4806.153846153847,3784.615384615385,4232.820512820514,4266.153846153847,3997.435897435898,4407.6923076923085,4083.076923076924,4260.512820512821,4302.051282051282,4402.564102564103,4410.769230769231,1680.0,1682.0,1816.813,1703.065185546875,0.0,0.0,0.0,0.0
1815157,126.0,0.0,497.0,4465.128205128206,4164.102564102564,4332.820512820514,4812.307692307693,3788.205128205129,4226.153846153847,4261.025641025642,3992.820512820513,4400.512820512821,4084.1025641025644,4261.025641025642,4307.6923076923085,4409.2307692307695,4413.846153846154,1679.0,1683.0,1816.82,1703.065185546875,0.0,0.0,0.0,0.0
1815157,127.0,0.0,490.0,4465.128205128206,4166.666666666667,4336.923076923077,4815.384615384616,3794.358974358975,4230.769230769231,4266.153846153847,3991.2820512820517,4404.615384615385,4088.717948717949,4260.512820512821,4308.205128205129,4414.358974358975,4418.974358974359,1680.0,1684.0,1816.828,1703.065185546875,0.0,0.0,0.0,0.0
1815157,128.0,0.0,0.0,4469.2307692307695,4168.717948717949,4337.948717948719,4812.820512820514,3802.0512820512827,4241.538461538462,4277.435897435898,3978.9743589743593,4414.358974358975,4092.307692307693,4261.538461538462,4306.666666666667,4415.8974358974365,4421.025641025642,1680.0,1682.0,1816.836,1703.065185546875,0.0,0.0,0.0,0.0
1815157,0.0,0.0,515.0,4474.358974358975,4169.2307692307695,4337.948717948719,4815.384615384616,3807.692307692308,4238.974358974359,4277.948717948719,3963.076923076924,4412.307692307693,4089.7435897435903,4263.589743589744,4305.641025641026,4410.256410256411,4418.461538461539,1679.0,1685.0,1816.844,1703.065185546875,0.0,0.0,0.0,0.0
1815158,1.0,0.0,0.0,4470.256410256411,4162.051282051282,4333.846153846154,4810.256410256411,3804.615384615385,4229.74358974359,4273.333333333334,3977.435897435898,4403.076923076924,4083.076923076924,4261.025641025642,4301.538461538462,4401.025641025642,4409.2307692307695,1680.0,1684.0,1816.852,1703.065185546875,0.0,0.0,0.0,0.0
1815158,2.0,0.0,513.0,4455.384615384616,4149.2307692307695,4322.564102564103,4814.871794871796,3797.9487179487182,4224.102564102564,4269.2307692307695,3995.3846153846157,4394.358974358975,4072.820512820513,4262.051282051282,4296.923076923077,4388.205128205129,4396.923076923077,1679.0,1683.0,1816.86,1703.065185546875,0.0,0.0,0.0,0.0
1815158,3.0,0.0,533.0,4448.717948717949,4145.128205128206,4315.8974358974365,4812.820512820514,3797.9487179487182,4227.179487179487,4268.205128205129,3995.8974358974365,4389.2307692307695,4067.1794871794878,4262.051282051282,4294.871794871796,4383.076923076924,4393.846153846154,1681.0,1684.0,1816.867,1703.065185546875,0.0,0.0,0.0,0.0
1815158,4.0,0.0,507.0,4455.384615384616,4151.282051282052,4318.974358974359,4809.743589743591,3800.512820512821,4229.74358974359,4268.205128205129,4005.6410256410263,4391.794871794872,4070.7692307692314,4260.512820512821,4295.8974358974365,4390.769230769231,4397.435897435898,1681.0,1684.0,1816.875,1703.065185546875,0.0,0.0,0.0,0.0
1815158,5.0,0.0,554.0,4460.512820512821,4149.2307692307695,4322.051282051282,4815.8974358974365,3803.589743589744,4227.179487179487,4265.641025641026,4019.48717948718,4393.333333333334,4071.2820512820517,4262.051282051282,4301.025641025642,4393.333333333334,4402.051282051282,1680.0,1684.0,1816.883,1703.065185546875,0.0,0.0,0.0,0.0
1815158,6.0,0.0,551.0,4460.000000000001,4148.717948717949,4324.102564102564,4810.769230769231,3808.205128205129,4230.769230769231,4266.666666666667,4014.8717948717954,4389.2307692307695,4067.692307692308,4262.564102564103,4303.589743589744,4391.282051282052,4408.717948717949,1680.0,1684.0,1816.891,1703.065185546875,0.0,0.0,0.0,0.0
1815158,7.0,0.0,393.0,4458.974358974359,4158.461538461539,4328.717948717949,4813.846153846154,3810.2564102564106,4230.256410256411,4264.615384615385,4004.1025641025644,4386.666666666667,4069.7435897435903,4261.538461538462,4306.666666666667,4400.000000000001,4414.871794871796,1681.0,1684.0,1816.899,1703.065185546875,0.0,0.0,0.0,0.0
1815158,8.0,0.0,460.0,4460.000000000001,4161.025641025642,4333.846153846154,4815.384615384616,3808.717948717949,4220.512820512821,4258.974358974359,4007.692307692308,4394.358974358975,4077.435897435898,4261.025641025642,4308.717948717949,4408.205128205129,4414.871794871796,1680.0,1684.0,1816.906,1703.065185546875,0.0,0.0,0.0,0.0
1815159,9.0,0.0,480.0,4455.384615384616,4153.846153846154,4330.769230769231,4809.2307692307695,3807.692307692308,4214.358974358975,4261.538461538462,4014.358974358975,4398.974358974359,4074.358974358975,4260.000000000001,4303.589743589744,4400.512820512821,4406.666666666667,1680.0,1685.0,1816.914,1703.065185546875,0.0,0.0,0.0,0.0
1815278,10.0,0.0,497.0,4451.794871794872,4154.871794871796,4325.641025641026,4812.307692307693,3810.7692307692314,4214.358974358975,4263.589743589744,4013.8461538461543,4393.333333333334,4067.692307692308,4261.538461538462,4302.051282051282,4395.384615384616,4403.076923076924,1681.0,1685.0,1816.923,1703.1903076171875,0.0,0.0,0.0,0.0
1815278,11.0,0.0,490.0,4459.48717948718,4161.538461538462,4329.743589743591,4807.6923076923085,3812.820512820513,4217.435897435898,4261.538461538462,4016.410256410257,4393.333333333334,4071.2820512820517,4262.051282051282,4306.153846153847,4403.589743589744,4412.307692307693,1679.0,1686.0,1816.93,1703.1903076171875,0.0,0.0,0.0,0.0
1815278,12.0,0.0,0.0,4464.615384615385,4160.000000000001,4335.8974358974365,4810.769230769231,3809.2307692307695,4223.076923076924,4262.051282051282,4021.0256410256416,4393.333333333334,4074.358974358975,4263.076923076924,4309.2307692307695,4404.615384615385,4414.358974358975,1680.0,1686.0,1816.939,1703.1903076171875,0.0,0.0,0.0,0.0
1815278,13.0,0.0,336.0,4462.564102564103,4160.512820512821,4338.974358974359,4815.384615384616,3808.717948717949,4228.205128205129,4265.641025641026,4024.615384615385,4390.256410256411,4073.333333333334,4261.538461538462,4309.2307692307695,4404.102564102564,4409.743589743591,1680.0,1685.0,1816.946,1703.1903076171875,0.0,0.0,0.0,0.0
1815279,14.0,0.0,497.0,4466.153846153847,4168.205128205129,4343.076923076924,4806.666666666667,3814.358974358975,4227.6923076923085,4270.256410256411,4032.820512820513,4397.435897435898,4081.0256410256416,4260.512820512821,4309.743589743591,4416.923076923077,4413.333333333334,1681.0,1685.0,1816.953,1703.1903076171875,0.0,0.0,0.0,0.0
1815279,15.0,0.0,490.0,4465.128205128206,4166.666666666667,4337.435897435898,4811.794871794872,3815.8974358974365,4222.564102564103,4270.769230769231,4035.3846153846157,4397.948717948719,4087.1794871794878,4263.076923076924,4308.205128205129,4420.512820512821,4412.820512820514,1681.0,1683.0,1816.961,1703.1903076171875,0.0,0.0,0.0,0.0
1815279,16.0,0.0,0.0,4454.358974358975,4156.923076923077,4325.128205128206,4813.333333333334,3810.7692307692314,4224.102564102564,4268.205128205129,4028.205128205129,4391.282051282052,4081.538461538462,4263.589743589744,4301.538461538462,4407.179487179487,4402.051282051282,1681.0,1684.0,1816.969,1703.1903076171875,0.0,0.0,0.0,0.0
1815280,17.0,0.0,0.0,4457.948717948719,4162.564102564103,4325.128205128206,4811.794871794872,3815.8974358974365,4232.820512820514,4272.307692307693,4030.7692307692314,4401.025641025642,4081.0256410256416,4262.564102564103,4303.589743589744,4406.666666666667,4406.666666666667,1683.0,1685.0,1816.977,1703.1903076171875,0.0,0.0,0.0,0.0
1815280,18.0,0.0,0.0,4474.358974358975,4176.923076923077,4340.000000000001,4811.282051282052,3823.589743589744,4230.769230769231,4276.923076923077,4036.9230769230776,4410.256410256411,4092.820512820513,4260.512820512821,4313.333333333334,4425.641025641026,4426.666666666667,1683.0,1685.0,1816.985,1703.1903076171875,0.0,0.0,0.0,0.0
1815280,19.0,0.0,0.0,4476.923076923077,4180.512820512821,4349.743589743591,4805.641025641026,3819.48717948718,4223.589743589744,4273.333333333334,4030.2564102564106,4397.948717948719,4100.000000000001,4260.512820512821,4316.410256410257,4434.871794871796,4432.820512820514,1683.0,1684.0,1816.992,1703.1903076171875,0.0,0.0,0.0,0.0
1815280,20.0,0.0,0.0,4467.179487179487,4173.846153846154,4344.102564102564,4814.871794871796,3814.358974358975,4226.666666666667,4267.6923076923085,4028.205128205129,4391.282051282052,4092.307692307693,4266.153846153847,4314.358974358975,4425.128205128206,4429.2307692307695,1683.0,1684.0,1817.0,1703.1903076171875,0.0,0.0,0.0,0.0
1815280,21.0,0.0,0.0,4465.128205128206,4170.769230769231,4336.923076923077,4814.871794871796,3815.3846153846157,4230.769230769231,4271.282051282052,4038.9743589743593,4399.48717948718,4084.1025641025644,4260.000000000001,4311.282051282052,4419.48717948718,4431.282051282052,1684.0,1682.0,1817.008,1703.1903076171875,0.0,0.0,0.0,0.0
1815281,22.0,0.0,0.0,4470.256410256411,4170.256410256411,4340.000000000001,4808.717948717949,3816.9230769230776,4226.666666666667,4276.923076923077,4045.6410256410263,4397.948717948719,4083.589743589744,4255.8974358974365,4310.769230769231,4422.564102564103,4430.256410256411,1682.0,1682.0,1817.016,1703.1903076171875,0.0,0.0,0.0,0.0
1815281,23.0,0.0,0.0,4470.256410256411,4170.256410256411,4342.564102564103,4809.743589743591,3815.8974358974365,4225.128205128206,4275.8974358974365,4043.589743589744,4388.717948717949,4083.589743589744,4262.564102564103,4309.2307692307695,4420.512820512821,4425.128205128206,1683.0,1682.0,1817.024,1703.1903076171875,0.0,0.0,0.0,0.0
1815281,24.0,0.0,0.0,4466.666666666667,4175.384615384616,4340.512820512821,4806.666666666667,3814.8717948717954,4230.256410256411,4274.871794871796,4037.9487179487182,4393.333333333334,4084.1025641025644,4260.000000000001,4304.102564102564,4417.948717948719,4427.179487179487,1681.0,1683.0,1817.032,1703.1903076171875,0.0,0.0,0.0,0.0
1815282,25.0,0.0,0.0,4464.102564102564,4174.871794871796,4337.435897435898,4814.871794871796,3814.8717948717954,4235.384615384616,4274.358974358975,4034.8717948717954,4402.051282051282,4085.6410256410263,4258.461538461539,4304.615384615385,4420.000000000001,4429.743589743591,1681.0,1684.0,1817.04,1703.1903076171875,0.0,0.0,0.0,0.0
1815409,26.0,0.0,0.0,4465.128205128206,4169.74358974359,4336.410256410257,4813.333333333334,3817.435897435898,4234.871794871796,4271.282051282052,4041.0256410256416,4401.025641025642,4087.692307692308,4261.025641025642,4308.205128205129,4424.102564102564,4426.666666666667,1680.0,1684.0,1817.047,1703.3153076171875,0.0,0.0,0.0,0.0
1815409,27.0,0.0,0.0,4470.769230769231,4172.307692307693,4337.948717948719,4806.666666666667,3820.0000000000005,4231.282051282052,4266.153846153847,4046.1538461538466,4398.461538461539,4089.7435897435903,4262.564102564103,4310.769230769231,4427.6923076923085,4426.666666666667,1680.0,1685.0,1817.056,1703.3153076171875,0.0,0.0,0.0,0.0
1815410,28.0,0.0,0.0,4474.358974358975,4176.923076923077,4340.512820512821,4813.333333333334,3817.435897435898,4225.641025641026,4264.615384615385,4042.564102564103,4401.025641025642,4091.2820512820517,4264.615384615385,4310.769230769231,4428.717948717949,4429.2307692307695,1680.0,1684.0,1817.063,1703.3153076171875,0.0,0.0,0.0,0.0
1815411,29.0,0.0,0.0,4465.641025641026,4171.282051282052,4339.48717948718,4809.743589743591,3812.820512820513,4224.102564102564,4267.179487179487,4039.48717948718,4397.435897435898,4087.692307692308,4261.538461538462,4303.076923076924,4426.153846153847,4422.051282051282,1679.0,1685.0,1817.072,1703.3153076171875,0.0,0.0,0.0,0.0
1815411,30.0,0.0,0.0,4452.820512820514,4161.538461538462,4332.820512820514,4813.846153846154,3815.3846153846157,4224.615384615385,4266.666666666667,4038.461538461539,4387.179487179487,4077.9487179487187,4260.000000000001,4301.538461538462,4418.461538461539,4414.871794871796,1680.0,1684.0,1817.078,1703.3153076171875,0.0,0.0,0.0,0.0
1815412,31.0,0.0,0.0,4455.384615384616,4162.051282051282,4329.2307692307695,4816.923076923077,3817.9487179487182,4225.128205128206,4267.6923076923085,4042.564102564103,4387.179487179487,4075.3846153846157,4260.512820512821,4307.179487179487,4417.435897435898,4416.923076923077,1680.0,1684.0,1817.087,1703.3153076171875,0.0,0.0,0.0,0.0
1815412,32.0,0.0,0.0,4463.076923076924,4169.2307692307695,4331.794871794872,4809.2307692307695,3814.8717948717954,4228.205128205129,4270.769230769231,4048.717948717949,4396.923076923077,4082.564102564103,4261.538461538462,4307.6923076923085,4423.589743589744,4417.948717948719,1681.0,1685.0,1817.094,1703.3153076171875,0.0,0.0,0.0,0.0
1815412,33.0,0.0,0.0,4461.025641025642,4167.6923076923085,4327.179487179487,4812.307692307693,3813.8461538461543,4228.717948717949,4268.205128205129,4040.0000000000005,4396.410256410257,4082.564102564103,4264.102564102564,4301.538461538462,4422.051282051282,4416.923076923077,1680.0,1685.0,1817.102,1703.3153076171875,0.0,0.0,0.0,0.0
1815413,34.0,0.0,0.0,4451.794871794872,4159.48717948718,4316.410256410257,4808.205128205129,3811.2820512820517,4233.333333333334,4266.153846153847,4023.589743589744,4387.179487179487,4072.307692307693,4263.589743589744,4293.846153846154,4411.282051282052,4410.769230769231,1681.0,1685.0,1817.11,1703.3153076171875,0.0,0.0,0.0,0.0
1815413,35.0,0.0,0.0,4448.717948717949,4157.435897435898,4313.846153846154,4811.794871794872,3806.1538461538466,4236.923076923077,4266.153846153847,4021.538461538462,4384.615384615385,4065.1282051282055,4264.102564102564,4292.820512820514,4405.128205128206,4403.076923076924,1680.0,1685.0,1817.118,1703.3153076171875,0.0,0.0,0.0,0.0
1815413,36.0,0.0,0.0,4460.000000000001,4169.2307692307695,4323.589743589744,4816.410256410257,3810.2564102564106,4232.307692307693,4264.102564102564,4028.205128205129,4388.205128205129,4066.1538461538466,4264.102564102564,4299.48717948718,4412.820512820514,4410.769230769231,1681.0,1685.0,1817.125,1703.3153076171875,0.0,0.0,0.0,0.0
1815413,37.0,0.0,0.0,4470.769230769231,4182.564102564103,4331.794871794872,4807.6923076923085,3815.8974358974365,4226.666666666667,4263.589743589744,4031.7948717948725,4386.666666666667,4072.820512820513,4260.512820512821,4306.666666666667,4422.051282051282,4423.589743589744,1682.0,1683.0,1817.133,1703.3153076171875,0.0,0.0,0.0,0.0
1815414,38.0,0.0,0.0,4465.641025641026,4175.8974358974365,4326.666666666667,4812.820512820514,3812.307692307693,4227.6923076923085,4267.6923076923085,4030.7692307692314,4381.025641025642,4070.7692307692314,4261.025641025642,4304.615384615385,4418.974358974359,4418.974358974359,1682.0,1684.0,1817.141,1703.3153076171875,0.0,0.0,0.0,0.0
1815414,39.0,0.0,0.0,4453.846153846154,4162.051282051282,4319.48717948718,4813.846153846154,3809.7435897435903,4231.794871794872,4272.820512820514,4026.666666666667,4381.025641025642,4063.589743589744,4263.076923076924,4297.435897435898,4413.846153846154,4409.2307692307695,1683.0,1684.0,1817.149,1703.3153076171875,0.0,0.0,0.0,0.0
1815414,40.0,0.0,0.0,4454.871794871796,4163.589743589744,4320.512820512821,4811.282051282052,3808.717948717949,4227.6923076923085,4269.2307692307695,4029.7435897435903,4385.641025641026,4065.6410256410263,4264.102564102564,4298.974358974359,4416.410256410257,4413.333333333334,1683.0,1685.0,1817.158,1703.3153076171875,0.0,0.0,0.0,0.0
1815414,41.0,0.0,0.0,4466.666666666667,4173.846153846154,4323.589743589744,4811.794871794872,3808.205128205129,4220.512820512821,4262.051282051282,4038.9743589743593,4392.307692307693,4073.8461538461543,4265.128205128206,4304.615384615385,4418.461538461539,4418.461538461539,1684.0,1685.0,1817.165,1703.3153076171875,0.0,0.0,0.0,0.0
1815434,42.0,0.0,0.0,4464.615384615385,4173.846153846154,4323.589743589744,4808.205128205129,3809.2307692307695,4222.564102564103,4262.051282051282,4037.9487179487182,4397.435897435898,4078.461538461539,4264.102564102564,4303.589743589744,4416.410256410257,4416.410256410257,1684.0,1685.0,1817.173,1703.4404296875,0.0,0.0,0.0,0.0
1815435,43.0,0.0,0.0,4450.769230769231,4166.666666666667,4317.435897435898,4815.384615384616,3808.205128205129,4226.153846153847,4261.025641025642,4030.2564102564106,4395.384615384616,4075.3846153846157,4263.076923076924,4301.025641025642,4412.820512820514,4413.333333333334,1683.0,1685.0,1817.18,1703.4404296875,0.0,0.0,0.0,0.0
1815435,44.0,0.0,0.0,4447.179487179487,4166.666666666667,4314.358974358975,4813.333333333334,3801.538461538462,4225.128205128206,4255.384615384616,4031.7948717948725,4392.307692307693,4071.7948717948725,4262.051282051282,4300.000000000001,4412.820512820514,4414.358974358975,1683.0,1685.0,1817.188,1703.4404296875,0.0,0.0,0.0,0.0
1815435,45.0,0.0,0.0,4449.2307692307695,4167.179487179487,4314.871794871796,4809.2307692307695,3796.410256410257,4224.102564102564,4252.820512820514,4028.205128205129,4390.769230769231,4071.7948717948725,4262.051282051282,4300.000000000001,4414.871794871796,4413.333333333334,1683.0,1685.0,1817.196,1703.4404296875,0.0,0.0,0.0,0.0
1815529,46.0,0.0,0.0,4445.128205128206,4160.000000000001,4311.794871794872,4812.307692307693,3796.410256410257,4226.153846153847,4253.333333333334,4017.9487179487182,4388.205128205129,4069.7435897435903,4262.051282051282,4301.025641025642,4411.794871794872,4408.205128205129,1682.0,1685.0,1817.205,1703.4718017578125,0.0,0.0,0.0,0.0
1815529,47.0,0.0,0.0,4438.974358974359,4152.820512820514,4304.615384615385,4806.153846153847,3794.8717948717954,4227.179487179487,4253.846153846154,4017.435897435898,4385.641025641026,4062.564102564103,4260.000000000001,4295.384615384616,4403.589743589744,4402.564102564103,1683.0,1685.0,1817.213,1703.4718017578125,0.0,0.0,0.0,0.0
1815529,48.0,0.0,0.0,4433.333333333334,4149.2307692307695,4299.48717948718,4811.282051282052,3790.7692307692314,4225.641025641026,4254.358974358975,4021.0256410256416,4385.128205128206,4056.410256410257,4263.076923076924,4289.74358974359,4399.48717948718,4400.000000000001,1682.0,1685.0,1817.22,1703.4718017578125,0.0,0.0,0.0,0.0
1815530,49.0,0.0,0.0,4438.974358974359,4154.871794871796,4304.615384615385,4812.307692307693,3790.2564102564106,4226.666666666667,4258.461538461539,4026.666666666667,4393.846153846154,4066.1538461538466,4262.051282051282,4293.846153846154,4406.153846153847,4406.153846153847,1681.0,1684.0,1817.227,1703.4718017578125,0.0,0.0,0.0,0.0
1815530,50.0,0.0,0.0,4452.820512820514,4163.589743589744,4310.256410256411,4808.205128205129,3791.7948717948725,4227.6923076923085,4260.000000000001,4032.820512820513,4398.974358974359,4075.3846153846157,4260.512820512821,4297.435897435898,4409.743589743591,4411.794871794872,1680.0,1685.0,1817.235,1703.4718017578125,0.0,0.0,0.0,0.0
1815530,51.0,0.0,0.0,4454.358974358975,4165.128205128206,4310.256410256411,4812.820512820514,3791.2820512820517,4223.076923076924,4257.948717948719,4024.615384615385,4392.307692307693,4070.7692307692314,4262.564102564103,4297.948717948719,4407.6923076923085,4411.282051282052,1680.0,1684.0,1817.243,1703.4718017578125,0.0,0.0,0.0,0.0
1815531,52.0,0.0,0.0,4446.153846153847,4162.564102564103,4308.717948717949,4806.666666666667,3792.307692307693,4218.974358974359,4257.948717948719,4036.410256410257,4390.256410256411,4069.7435897435903,4258.974358974359,4296.410256410257,4411.282051282052,4410.256410256411,1679.0,1684.0,1817.251,1703.4718017578125,0.0,0.0,0.0,0.0
1815531,53.0,0.0,0.0,4442.051282051282,4158.974358974359,4308.205128205129,4810.256410256411,3790.7692307692314,4218.974358974359,4260.000000000001,4088.717948717949,4398.461538461539,4076.410256410257,4257.948717948719,4297.948717948719,4413.846153846154,4411.794871794872,1681.0,1684.0,1817.258,1703.4718017578125,0.0,0.0,0.0,0.0
1815531,54.0,0.0,0.0,4443.589743589744,4159.48717948718,4309.2307692307695,4815.384615384616,3787.692307692308,4221.025641025642,4263.589743589744,4124.615384615385,4406.666666666667,4082.564102564103,4261.538461538462,4301.538461538462,4412.820512820514,4415.384615384616,1680.0,1684.0,1817.266,1703.4718017578125,0.0,0.0,0.0,0.0
1815532,55.0,0.0,0.0,4445.641025641026,4165.128205128206,4313.333333333334,4810.256410256411,3789.7435897435903,4224.102564102564,4266.666666666667,4114.358974358975,4410.256410256411,4084.1025641025644,4263.076923076924,4301.538461538462,4418.974358974359,4417.948717948719,1681.0,1684.0,1817.274,1703.4718017578125,0.0,0.0,0.0,0.0
1815532,56.0,0.0,0.0,4443.589743589744,4166.666666666667,4310.256410256411,4813.333333333334,3793.333333333334,4224.102564102564,4262.564102564103,4104.102564102564,4401.025641025642,4078.461538461539,4263.589743589744,4300.000000000001,4420.512820512821,4416.923076923077,1682.0,1682.0,1817.282,1703.4718017578125,0.0,0.0,0.0,0.0
1815532,57.0,0.0,0.0,4441.025641025642,4164.102564102564,4306.153846153847,4808.717948717949,3792.820512820513,4223.589743589744,4261.025641025642,4111.282051282052,4389.2307692307695,4073.333333333334,4262.051282051282,4296.923076923077,4416.410256410257,4416.923076923077,1682.0,1685.0,1817.29,1703.4718017578125,0.0,0.0,0.0,0.0
1815659,58.0,0.0,0.0,4445.641025641026,4168.205128205129,4312.307692307693,4812.820512820514,3790.2564102564106,4222.564102564103,4262.051282051282,4105.128205128206,4382.564102564103,4072.820512820513,4265.128205128206,4298.974358974359,4418.974358974359,4423.076923076924,1683.0,1684.0,1817.297,1703.5655517578125,0.0,0.0,0.0,0.0
1815659,59.0,0.0,0.0,4449.743589743591,4176.410256410257,4315.8974358974365,4816.923076923077,3789.7435897435903,4226.666666666667,4260.512820512821,4093.333333333334,4376.923076923077,4075.8974358974365,4263.589743589744,4302.051282051282,4426.666666666667,4426.666666666667,1683.0,1685.0,1817.306,1703.5655517578125,0.0,0.0,0.0,0.0
1815660,60.0,0.0,0.0,4446.153846153847,4177.948717948719,4311.794871794872,4806.153846153847,3791.2820512820517,4235.384615384616,4263.076923076924,4094.8717948717954,4382.564102564103,4081.0256410256416,4256.410256410257,4301.025641025642,4429.2307692307695,4427.179487179487,1684.0,1685.0,1817.313,1703.5655517578125,0.0,0.0,0.0,0.0
1815661,61.0,0.0,0.0,4438.461538461539,4170.256410256411,4308.717948717949,4808.205128205129,3789.2307692307695,4231.282051282052,4265.128205128206,4103.076923076924,4391.794871794872,4078.9743589743593,4261.538461538462,4297.948717948719,4421.025641025642,4427.6923076923085,1683.0,1685.0,1817.322,1703.5655517578125,0.0,0.0,0.0,0.0
1815661,62.0,0.0,0.0,4433.333333333334,4163.589743589744,4307.6923076923085,4809.743589743591,3783.076923076924,4222.564102564103,4261.025641025642,4102.564102564103,4387.6923076923085,4068.717948717949,4266.153846153847,4294.358974358975,4415.384615384616,4422.564102564103,1683.0,1684.0,1817.329,1703.5655517578125,0.0,0.0,0.0,0.0
1815662,63.0,0.0,0.0,4436.410256410257,4162.564102564103,4306.153846153847,4812.820512820514,3786.1538461538466,4225.128205128206,4258.461538461539,4093.8461538461543,4383.589743589744,4067.1794871794878,4261.025641025642,4296.410256410257,4416.410256410257,4416.410256410257,1682.0,1684.0,1817.337,1703.5655517578125,0.0,0.0,0.0,0.0
1815662,64.0,0.0,515.0,4444.102564102564,4166.666666666667,4308.717948717949,4811.282051282052,3790.7692307692314,4230.256410256411,4261.538461538462,4096.410256410257,4393.333333333334,4075.8974358974365,4260.000000000001,4301.538461538462,4416.923076923077,4419.48717948718,1683.0,1684.0,1817.344,1703.5655517578125,0.0,0.0,0.0,0.0
1815663,65.0,0.0,0.0,4448.205128205129,4170.256410256411,4313.846153846154,4804.102564102564,3785.6410256410263,4223.589743589744,4264.102564102564,4108.205128205129,4404.102564102564,4083.589743589744,4262.051282051282,4301.025641025642,4418.974358974359,4427.6923076923085,1681.0,1683.0,1817.352,1703.5655517578125,0.0,0.0,0.0,0.0
1815663,66.0,0.0,513.0,4444.615384615385,4168.717948717949,4311.282051282052,4815.384615384616,3781.538461538462,4211.282051282052,4257.948717948719,4112.307692307693,4398.461538461539,4082.564102564103,4262.051282051282,4300.000000000001,4422.051282051282,4428.717948717949,1681.0,1684.0,1817.36,1703.5655517578125,0.0,0.0,0.0,0.0
1815663,67.0,0.0,533.0,4437.948717948719,4164.102564102564,4307.6923076923085,4814.871794871796,3782.0512820512827,4213.333333333334,4250.769230769231,4106.666666666667,4397.435897435898,4080.0000000000005,4260.000000000001,4301.025641025642,4422.051282051282,4419.48717948718,1681.0,1684.0,1817.368,1703.5655517578125,0.0,0.0,0.0,0.0
1815663,68.0,0.0,507.0,4433.846153846154,4161.025641025642,4308.205128205129,4807.6923076923085,3778.461538461539,4216.923076923077,4248.205128205129,4081.0256410256416,4400.000000000001,4077.9487179487187,4260.512820512821,4300.000000000001,4418.974358974359,4413.846153846154,1680.0,1685.0,1817.376,1703.5655517578125,0.0,0.0,0.0,0.0
1815664,69.0,0.0,554.0,4440.000000000001,4164.102564102564,4310.769230769231,4811.282051282052,3778.461538461539,4214.871794871796,4251.282051282052,4047.1794871794878,4389.2307692307695,4073.8461538461543,4259.48717948718,4298.461538461539,4418.974358974359,4421.538461538462,1681.0,1683.0,1817.383,1703.5655517578125,0.0,0.0,0.0,0.0
1815664,70.0,0.0,551.0,4445.128205128206,4169.2307692307695,4313.333333333334,4809.2307692307695,3781.538461538462,4218.974358974359,4259.48717948718,4035.3846153846157,4378.461538461539,4071.2820512820517,4258.461538461539,4296.923076923077,4422.051282051282,4425.641025641026,1679.0,1684.0,1817.391,1703.5655517578125,0.0,0.0,0.0,0.0
1815664,71.0,0.0,395.0,4432.307692307693,4161.538461538462,4306.666666666667,4815.384615384616,3778.461538461539,4225.128205128206,4260.512820512821,4037.435897435898,4376.923076923077,4066.666666666667,4262.564102564103,4293.846153846154,4416.923076923077,4413.333333333334,1680.0,1684.0,1817.399,1703.5655517578125,0.0,0.0,0.0,0.0
1815664,72.0,0.0,460.0,4423.076923076924,4151.282051282052,4295.8974358974365,4812.307692307693,3776.9230769230776,4225.641025641026,4255.384615384616,4036.9230769230776,4379.48717948718,4061.538461538462,4263.076923076924,4289.74358974359,4409.2307692307695,4404.615384615385,1680.0,1684.0,1817.408,1703.5655517578125,0.0,0.0,0.0,0.0
1815665,73.0,0.0,480.0,4433.333333333334,4153.333333333334,4295.8974358974365,4804.102564102564,3778.461538461539,4224.615384615385,4257.948717948719,4044.1025641025644,4385.641025641026,4064.1025641025644,4260.000000000001,4292.307692307693,4410.769230769231,4409.2307692307695,1680.0,1684.0,1817.415,1703.5655517578125,0.0,0.0,0.0,0.0
1815779,74.0,0.0,497.0,4440.512820512821,4159.48717948718,4301.538461538462,4812.307692307693,3777.9487179487182,4223.589743589744,4261.025641025642,4054.358974358975,4392.307692307693,4069.23076923077,4262.051282051282,4298.461538461539,4416.410256410257,4416.923076923077,1680.0,1685.0,1817.424,1703.690673828125,0.0,0.0,0.0,0.0
1815780,75.0,0.0,490.0,4437.948717948719,4163.076923076924,4307.6923076923085,4810.256410256411,3777.435897435898,4224.615384615385,4260.000000000001,4062.0512820512827,4401.538461538462,4075.3846153846157,4263.589743589744,4301.538461538462,4421.025641025642,4421.025641025642,1680.0,1685.0,1817.43,1703.690673828125,0.0,0.0,0.0,0.0
1815780,76.0,0.0,0.0,4439.48717948718,4165.641025641026,4314.358974358975,4810.769230769231,3779.48717948718,4225.641025641026,4261.538461538462,4065.1282051282055,4406.666666666667,4083.589743589744,4263.589743589744,4304.102564102564,4424.615384615385,4421.538461538462,1680.0,1686.0,1817.441,1703.690673828125,0.0,0.0,0.0,0.0
1815780,77.0,0.0,336.0,4441.538461538462,4165.641025641026,4315.8974358974365,4813.333333333334,3776.9230769230776,4219.48717948718,4260.512820512821,4053.8461538461543,4396.923076923077,4081.0256410256416,4263.589743589744,4302.051282051282,4423.589743589744,4418.974358974359,1680.0,1687.0,1817.446,1703.690673828125,0.0,0.0,0.0,0.0
1815780,78.0,0.0,497.0,4433.333333333334,4160.000000000001,4307.179487179487,4810.256410256411,3771.794871794872,4214.871794871796,4257.435897435898,4042.0512820512827,4384.102564102564,4069.7435897435903,4262.564102564103,4295.8974358974365,4417.435897435898,4418.461538461539,1681.0,1686.0,1817.455,1703.690673828125,0.0,0.0,0.0,0.0
1815781,79.0,0.0,490.0,4425.128205128206,4152.820512820514,4300.000000000001,4813.333333333334,3769.7435897435903,4218.461538461539,4260.000000000001,4048.717948717949,4385.641025641026,4065.6410256410263,4261.538461538462,4297.435897435898,4408.205128205129,4421.025641025642,1680.0,1688.0,1817.462,1703.690673828125,0.0,0.0,0.0,0.0
1815781,80.0,0.0,0.0,4426.153846153847,4151.794871794872,4302.051282051282,4808.205128205129,3771.2820512820517,4224.615384615385,4265.128205128206,4056.410256410257,4390.256410256411,4067.692307692308,4260.000000000001,4298.461538461539,4403.589743589744,4419.48717948718,1681.0,1687.0,1817.47,1703.690673828125,0.0,0.0,0.0,0.0
1815781,81.0,0.0,336.0,4427.179487179487,4155.384615384616,4306.666666666667,4811.282051282052,3774.358974358975,4226.666666666667,4264.102564102564,4051.7948717948725,4386.153846153847,4069.7435897435903,4263.076923076924,4296.923076923077,4411.282051282052,4415.384615384616,1680.0,1687.0,1817.478,1703.690673828125,0.0,0.0,0.0,0.0
1815781,82.0,0.0,497.0,4424.615384615385,4156.410256410257,4304.102564102564,4816.410256410257,3770.7692307692314,4224.102564102564,4258.461538461539,4043.589743589744,4378.974358974359,4066.1538461538466,4263.076923076924,4293.846153846154,4414.871794871796,4414.871794871796,1681.0,1686.0,1817.485,1703.690673828125,0.0,0.0,0.0,0.0
1815781,83.0,0.0,490.0,4422.051282051282,4155.8974358974365,4297.435897435898,4807.179487179488,3762.0512820512827,4221.538461538462,4252.307692307693,4038.461538461539,4371.794871794872,4057.9487179487182,4258.461538461539,4288.717948717949,4405.641025641026,4414.358974358975,1681.0,1685.0,1817.493,1703.690673828125,0.0,0.0,0.0,0.0
1815781,84.0,0.0,0.0,4427.6923076923085,4157.948717948719,4301.538461538462,4810.256410256411,3760.512820512821,4217.948717948719,4250.256410256411,4038.9743589743593,4372.307692307693,4062.0512820512827,4261.538461538462,4292.820512820514,4408.717948717949,4418.461538461539,1681.0,1685.0,1817.501,1703.690673828125,0.0,0.0,0.0,0.0
1815782,85.0,0.0,336.0,4437.435897435898,4163.589743589744,4315.384615384616,4811.282051282052,3762.0512820512827,4218.974358974359,4254.871794871796,4042.564102564103,4380.000000000001,4076.9230769230776,4260.000000000001,4302.051282051282,4427.6923076923085,4429.2307692307695,1680.0,1684.0,1817.509,1703.690673828125,0.0,0.0,0.0,0.0
1815782,86.0,0.0,497.0,4442.051282051282,4165.641025641026,4317.948717948719,4810.769230769231,3760.512820512821,4224.615384615385,4261.538461538462,4045.6410256410263,4382.564102564103,4078.9743589743593,4257.948717948719,4303.589743589744,4430.769230769231,4432.307692307693,1681.0,1685.0,1817.516,1703.690673828125,0.0,0.0,0.0,0.0
1815782,87.0,0.0,490.0,4444.102564102564,4163.076923076924,4314.358974358975,4812.307692307693,3761.0256410256416,4227.179487179487,4267.179487179487,4052.307692307693,4387.179487179487,4073.8461538461543,4260.512820512821,4303.076923076924,4423.589743589744,4430.256410256411,1681.0,1684.0,1817.524,1703.690673828125,0.0,0.0,0.0,0.0
1815782,88.0,0.0,0.0,4444.615384615385,4163.589743589744,4319.48717948718,4806.153846153847,3761.538461538462,4225.128205128206,4270.256410256411,4058.9743589743593,4395.8974358974365,4076.9230769230776,4258.974358974359,4302.051282051282,4423.076923076924,4433.846153846154,1680.0,1685.0,1817.532,1703.690673828125,0.0,0.0,0.0,0.0
1815782,89.0,0.0,336.0,4438.974358974359,4162.051282051282,4321.025641025642,4814.358974358975,3760.0000000000005,4221.538461538462,4265.641025641026,4057.9487179487182,4395.384615384616,4079.48717948718,4262.051282051282,4304.615384615385,4421.538461538462,4437.948717948719,1681.0,1685.0,1817.541,1703.690673828125,0.0,0.0,0.0,0.0
1815908,90.0,0.0,497.0,4440.000000000001,4161.538461538462,4320.000000000001,4814.871794871796,3760.0000000000005,4221.538461538462,4266.666666666667,4061.538461538462,4396.410256410257,4083.076923076924,4262.564102564103,4310.769230769231,4422.564102564103,4437.948717948719,1680.0,1686.0,1817.548,1703.8157958984375,0.0,0.0,0.0,0.0
1815908,91.0,0.0,490.0,4446.153846153847,4164.102564102564,4322.564102564103,4809.2307692307695,3759.48717948718,4225.641025641026,4273.333333333334,4070.2564102564106,4407.6923076923085,4089.23076923077,4259.48717948718,4312.307692307693,4425.128205128206,4434.358974358975,1681.0,1685.0,1817.556,1703.8157958984375,0.0,0.0,0.0,0.0
1815908,92.0,0.0,0.0,4449.743589743591,4164.102564102564,4324.102564102564,4812.307692307693,3757.435897435898,4223.076923076924,4270.256410256411,4069.7435897435903,4411.794871794872,4091.7948717948725,4261.025641025642,4308.205128205129,4420.000000000001,4435.8974358974365,1679.0,1686.0,1817.563,1703.8157958984375,0.0,0.0,0.0,0.0
1815908,93.0,0.0,336.0,4450.769230769231,4163.589743589744,4323.589743589744,4808.717948717949,3754.358974358975,4217.948717948719,4266.153846153847,4065.1282051282055,4402.564102564103,4093.8461538461543,4262.051282051282,4304.102564102564,4419.48717948718,4442.051282051282,1681.0,1686.0,1817.572,1703.8157958984375,0.0,0.0,0.0,0.0
1815909,94.0,0.0,497.0,4442.564102564103,4160.512820512821,4321.025641025642,4814.358974358975,3753.333333333334,4220.000000000001,4266.666666666667,4060.0000000000005,4392.307692307693,4086.1538461538466,4261.538461538462,4303.076923076924,4418.461538461539,4435.8974358974365,1680.0,1686.0,1817.579,1703.8157958984375,0.0,0.0,0.0,0.0
1815909,95.0,0.0,490.0,4441.538461538462,4160.512820512821,4320.000000000001,4810.769230769231,3755.3846153846157,4226.666666666667,4268.717948717949,4055.8974358974365,4389.743589743591,4076.410256410257,4260.512820512821,4302.564102564103,4414.871794871796,4425.641025641026,1679.0,1687.0,1817.587,1703.8157958984375,0.0,0.0,0.0,0.0
1815909,96.0,0.0,0.0,4457.435897435898,4169.2307692307695,4330.256410256411,4805.128205128206,3758.461538461539,4229.2307692307695,4269.74358974359,4061.0256410256416,4397.435897435898,4084.1025641025644,4261.538461538462,4304.615384615385,4421.025641025642,4434.358974358975,1680.0,1687.0,1817.595,1703.8157958984375,0.0,0.0,0.0,0.0
1815909,97.0,0.0,336.0,4460.512820512821,4173.333333333334,4335.8974358974365,4815.8974358974365,3760.512820512821,4228.717948717949,4266.666666666667,4061.538461538462,4401.538461538462,4091.7948717948725,4262.051282051282,4305.641025641026,4425.128205128206,4444.102564102564,1679.0,1687.0,1817.602,1703.8157958984375,0.0,0.0,0.0,0.0
1815909,98.0,0.0,497.0,4446.153846153847,4166.666666666667,4325.128205128206,4811.282051282052,3758.9743589743593,4229.2307692307695,4263.589743589744,4048.205128205129,4391.794871794872,4081.0256410256416,4260.000000000001,4300.000000000001,4416.410256410257,4436.410256410257,1680.0,1687.0,1817.61,1703.8157958984375,0.0,0.0,0.0,0.0
1815909,99.0,0.0,490.0,4441.025641025642,4161.025641025642,4314.871794871796,4809.743589743591,3755.3846153846157,4226.666666666667,4262.051282051282,4037.435897435898,4382.564102564103,4070.7692307692314,4261.538461538462,4296.410256410257,4410.769230769231,4425.641025641026,1679.0,1686.0,1817.618,1703.8157958984375,0.0,0.0,0.0,0.0
1815909,100.0,0.0,0.0,4447.179487179487,4162.051282051282,4316.923076923077,4813.333333333334,3757.435897435898,4227.6923076923085,4263.076923076924,4046.1538461538466,4394.358974358975,4078.461538461539,4263.589743589744,4300.512820512821,4414.871794871796,4428.717948717949,1680.0,1685.0,1817.626,1703.8157958984375,0.0,0.0,0.0,0.0
1815910,101.0,0.0,336.0,4451.282051282052,4163.589743589744,4321.025641025642,4808.205128205129,3760.512820512821,4228.717948717949,4264.102564102564,4061.538461538462,4408.717948717949,4089.23076923077,4262.051282051282,4303.589743589744,4418.974358974359,4434.871794871796,1680.0,1687.0,1817.634,1703.8157958984375,0.0,0.0,0.0,0.0
1815911,102.0,0.0,497.0,4449.743589743591,4158.974358974359,4321.025641025642,4812.307692307693,3753.333333333334,4217.435897435898,4260.000000000001,4055.8974358974365,4396.410256410257,4083.589743589744,4261.538461538462,4301.538461538462,4416.410256410257,4432.820512820514,1680.0,1688.0,1817.642,1703.8157958984375,0.0,0.0,0.0,0.0
1815911,103.0,0.0,490.0,4448.205128205129,4154.871794871796,4319.48717948718,4809.743589743591,3747.1794871794878,4215.8974358974365,4261.025641025642,4044.615384615385,4380.512820512821,4073.8461538461543,4260.512820512821,4299.48717948718,4413.333333333334,4429.2307692307695,1680.0,1689.0,1817.649,1703.8157958984375,0.0,0.0,0.0,0.0
1815912,104.0,0.0,0.0,4452.820512820514,4153.846153846154,4318.974358974359,4809.743589743591,3756.410256410257,4229.2307692307695,4269.74358974359,4057.9487179487182,4384.102564102564,4073.8461538461543,4262.051282051282,4304.102564102564,4412.307692307693,4426.666666666667,1680.0,1688.0,1817.657,1703.8157958984375,0.0,0.0,0.0,0.0
1815912,105.0,0.0,336.0,4462.564102564103,4158.461538461539,4322.051282051282,4814.358974358975,3764.615384615385,4231.794871794872,4275.8974358974365,4086.1538461538466,4390.769230769231,4076.410256410257,4261.538461538462,4306.153846153847,4412.820512820514,4426.153846153847,1681.0,1688.0,1817.665,1703.8157958984375,0.0,0.0,0.0,0.0
1815933,106.0,0.0,497.0,4463.589743589744,4163.589743589744,4325.128205128206,4810.256410256411,3760.0000000000005,4223.076923076924,4275.8974358974365,4093.333333333334,4390.769230769231,4074.8717948717954,4257.435897435898,4299.48717948718,4413.846153846154,4429.2307692307695,1680.0,1685.0,1817.674,1703.94091796875,0.0,0.0,0.0,0.0
1815933,107.0,0.0,490.0,4457.948717948719,4164.102564102564,4323.589743589744,4814.358974358975,3755.3846153846157,4222.564102564103,4273.333333333334,4086.1538461538466,4389.743589743591,4074.8717948717954,4258.974358974359,4300.512820512821,4412.820512820514,4435.384615384616,1680.0,1684.0,1817.681,1703.94091796875,0.0,0.0,0.0,0.0
1815933,108.0,0.0,0.0,4457.948717948719,4164.615384615385,4324.102564102564,4812.307692307693,3755.8974358974365,4233.846153846154,4274.871794871796,4089.7435897435903,4395.384615384616,4079.48717948718,4262.564102564103,4303.076923076924,4413.846153846154,4438.461538461539,1680.0,1683.0,1817.688,1703.94091796875,0.0,0.0,0.0,0.0
1815933,109.0,0.0,336.0,4459.48717948718,4163.589743589744,4322.564102564103,4809.743589743591,3756.410256410257,4240.000000000001,4276.923076923077,4091.7948717948725,4404.615384615385,4084.1025641025644,4263.076923076924,4300.512820512821,4415.384615384616,4434.871794871796,1679.0,1684.0,1817.696,1703.94091796875,0.0,0.0,0.0,0.0
1816029,110.0,0.0,497.0,4461.538461538462,4162.564102564103,4322.564102564103,4811.282051282052,3754.358974358975,4233.333333333334,4273.846153846154,4082.564102564103,4407.6923076923085,4089.7435897435903,4261.538461538462,4301.538461538462,4418.461538461539,4434.871794871796,1680.0,1684.0,1817.705,1703.97216796875,0.0,0.0,0.0,0.0
1816030,111.0,0.0,490.0,4464.102564102564,4165.641025641026,4327.179487179487,4806.153846153847,3753.8461538461543,4226.153846153847,4271.282051282052,4078.9743589743593,4400.512820512821,4092.820512820513,4258.974358974359,4303.589743589744,4423.076923076924,4437.948717948719,1678.0,1686.0,1817.712,1703.97216796875,0.0,0.0,0.0,0.0
1816030,112.0,0.0,0.0,4458.974358974359,4163.589743589744,4323.589743589744,4814.358974358975,3753.333333333334,4226.153846153847,4268.717948717949,4089.7435897435903,4392.307692307693,4088.205128205129,4261.538461538462,4302.564102564103,4422.564102564103,4437.948717948719,1678.0,1688.0,1817.72,1703.97216796875,0.0,0.0,0.0,0.0
1816030,113.0,0.0,336.0,4450.769230769231,4158.461538461539,4314.871794871796,4814.358974358975,3749.7435897435903,4226.666666666667,4266.666666666667,4097.435897435898,4395.8974358974365,4084.1025641025644,4261.538461538462,4302.564102564103,4417.948717948719,4437.948717948719,1677.0,1688.0,1817.728,1703.97216796875,0.0,0.0,0.0,0.0
1816030,114.0,0.0,497.0,4451.794871794872,4156.410256410257,4313.333333333334,4809.2307692307695,3748.717948717949,4221.538461538462,4267.179487179487,4089.7435897435903,4395.8974358974365,4079.48717948718,4260.512820512821,4303.076923076924,4410.769230769231,4433.846153846154,1677.0,1689.0,1817.735,1703.97216796875,0.0,0.0,0.0,0.0
1816031,115.0,0.0,490.0,4452.307692307693,4153.846153846154,4310.769230769231,4811.794871794872,3746.666666666667,4218.974358974359,4265.641025641026,4081.538461538462,4385.641025641026,4073.8461538461543,4259.48717948718,4299.48717948718,4404.615384615385,4424.615384615385,1678.0,1688.0,1817.743,1703.97216796875,0.0,0.0,0.0,0.0
1816031,116.0,0.0,0.0,4446.666666666667,4149.74358974359,4307.179487179487,4806.153846153847,3741.0256410256416,4220.512820512821,4262.564102564103,4083.589743589744,4392.307692307693,4077.435897435898,4257.948717948719,4294.871794871796,4406.153846153847,4425.128205128206,1678.0,1686.0,1817.751,1703.97216796875,0.0,0.0,0.0,0.0
1816031,117.0,0.0,336.0,4442.564102564103,4147.6923076923085,4306.153846153847,4812.820512820514,3737.9487179487182,4217.948717948719,4262.051282051282,4084.615384615385,4401.538461538462,4082.564102564103,4264.102564102564,4298.461538461539,4409.2307692307695,4430.256410256411,1678.0,1685.0,1817.759,1703.97216796875,0.0,0.0,0.0,0.0
1816031,118.0,0.0,497.0,4438.974358974359,4146.153846153847,4304.615384615385,4813.846153846154,3734.8717948717954,4216.410256410257,4261.025641025642,4084.615384615385,4395.8974358974365,4080.5128205128212,4264.102564102564,4301.025641025642,4403.589743589744,4426.153846153847,1679.0,1685.0,1817.767,1703.97216796875,0.0,0.0,0.0,0.0
1816032,119.0,0.0,490.0,4441.025641025642,4146.666666666667,4303.589743589744,4805.128205128206,3734.358974358975,4222.051282051282,4258.974358974359,4090.2564102564106,4394.871794871796,4081.0256410256416,4259.48717948718,4299.48717948718,4402.564102564103,4423.589743589744,1680.0,1683.0,1817.774,1703.97216796875,0.0,0.0,0.0,0.0
1816032,120.0,0.0,0.0,4453.846153846154,4155.8974358974365,4311.794871794872,4812.307692307693,3745.1282051282055,4231.794871794872,4264.102564102564,4088.205128205129,4399.48717948718,4088.205128205129,4261.538461538462,4305.128205128206,4413.333333333334,4429.2307692307695,1679.0,1684.0,1817.782,1703.97216796875,0.0,0.0,0.0,0.0
1816032,121.0,0.0,336.0,4463.589743589744,4166.666666666667,4324.615384615385,4812.307692307693,3758.9743589743593,4239.48717948718,4273.846153846154,4075.8974358974365,4395.8974358974365,4092.307692307693,4261.025641025642,4311.794871794872,4423.076923076924,4437.948717948719,1681.0,1683.0,1817.791,1703.97216796875,0.0,0.0,0.0,0.0
1816159,122.0,0.0,497.0,4464.615384615385,4167.6923076923085,4327.6923076923085,4813.846153846154,3758.9743589743593,4239.48717948718,4274.358974358975,4070.7692307692314,4395.384615384616,4091.7948717948725,4262.051282051282,4310.256410256411,4422.564102564103,4442.051282051282,1680.0,1683.0,1817.798,1704.0660400390625,0.0,0.0,0.0,0.0
1816159,123.0,0.0,490.0,4467.179487179487,4166.153846153847,4326.153846153847,4814.871794871796,3758.461538461539,4237.948717948719,4271.794871794872,4082.564102564103,4406.153846153847,4093.333333333334,4266.666666666667,4306.153846153847,4420.512820512821,4438.974358974359,1682.0,1684.0,1817.807,1704.0660400390625,0.0,0.0,0.0,0.0
1816159,124.0,0.0,0.0,4471.794871794872,4168.205128205129,4330.769230769231,4807.179487179488,3765.1282051282055,4239.48717948718,4276.410256410257,4098.461538461539,4413.846153846154,4097.948717948719,4263.076923076924,4305.128205128206,4421.538461538462,4436.923076923077,1683.0,1683.0,1817.814,1704.0660400390625,0.0,0.0,0.0,0.0
1816159,125.0,0.0,336.0,4475.384615384616,4170.769230769231,4332.307692307693,4810.769230769231,3771.2820512820517,4236.410256410257,4276.410256410257,4101.538461538462,4416.410256410257,4101.025641025642,4260.000000000001,4308.205128205129,4421.025641025642,4441.538461538462,1683.0,1685.0,1817.822,1704.0660400390625,0.0,0.0,0.0,0.0
1816159,126.0,0.0,497.0,4477.435897435898,4170.769230769231,4326.666666666667,4810.256410256411,3774.358974358975,4233.333333333334,4273.846153846154,4098.974358974359,4413.846153846154,4098.461538461539,4261.538461538462,4306.666666666667,4420.512820512821,4440.000000000001,1684.0,1684.0,1817.829,1704.0660400390625,0.0,0.0,0.0,0.0
1816160,127.0,0.0,490.0,4473.333333333334,4166.153846153847,4323.076923076924,4813.333333333334,3776.410256410257,4235.8974358974365,4272.307692307693,4103.076923076924,4402.564102564103,4090.2564102564106,4263.076923076924,4299.48717948718,4415.384615384616,4431.282051282052,1683.0,1686.0,1817.837,1704.0660400390625,0.0,0.0,0.0,0.0
1816160,128.0,0.0,0.0,4470.769230769231,4164.615384615385,4324.615384615385,4815.384615384616,3779.48717948718,4237.435897435898,4270.256410256411,4100.512820512821,4397.435897435898,4087.692307692308,4262.051282051282,4299.48717948718,4412.307692307693,4431.282051282052,1683.0,1686.0,1817.845,1704.0660400390625,0.0,0.0,0.0,0.0
1816160,0.0,0.0,515.0,4475.384615384616,4174.358974358975,4331.282051282052,4808.205128205129,3787.692307692308,4235.8974358974365,4271.282051282052,4088.717948717949,4409.2307692307695,4096.410256410257,4261.025641025642,4308.717948717949,4421.025641025642,4434.358974358975,1683.0,1686.0,1817.853,1704.0660400390625,0.0,0.0,0.0,0.0
1816160,1.0,0.0,0.0,4475.384615384616,4176.923076923077,4335.384615384616,4813.846153846154,3796.410256410257,4233.333333333334,4275.384615384616,4086.666666666667,4418.974358974359,4103.589743589744,4262.051282051282,4311.282051282052,4425.128205128206,4435.384615384616,1683.0,1686.0,1817.86,1704.0660400390625,0.0,0.0,0.0,0.0
1816161,2.0,0.0,513.0,4469.2307692307695,4169.2307692307695,4330.256410256411,4813.333333333334,3797.435897435898,4235.384615384616,4277.948717948719,4090.2564102564106,4414.871794871796,4094.8717948717954,4261.538461538462,4302.564102564103,4418.461538461539,4434.358974358975,1682.0,1686.0,1817.868,1704.0660400390625,0.0,0.0,0.0,0.0
1816163,3.0,0.0,533.0,4472.820512820514,4171.282051282052,4326.666666666667,4811.282051282052,3796.410256410257,4238.974358974359,4275.8974358974365,4085.1282051282055,4406.666666666667,4084.615384615385,4262.564102564103,4301.538461538462,4417.948717948719,4434.358974358975,1683.0,1685.0,1817.876,1704.0660400390625,0.0,0.0,0.0,0.0
1816163,4.0,0.0,507.0,4480.512820512821,4174.871794871796,4328.717948717949,4812.820512820514,3800.512820512821,4240.512820512821,4275.384615384616,4082.564102564103,4407.6923076923085,4087.1794871794878,4262.564102564103,4308.717948717949,4424.102564102564,4435.8974358974365,1682.0,1683.0,1817.884,1704.0660400390625,0.0,0.0,0.0,0.0
1816163,5.0,0.0,554.0,4473.333333333334,4166.153846153847,4327.6923076923085,4804.615384615386,3804.615384615385,4242.564102564103,4279.48717948718,4087.692307692308,4421.025641025642,4097.948717948719,4260.000000000001,4306.153846153847,4423.589743589744,4434.871794871796,1682.0,1684.0,1817.892,1704.0660400390625,0.0,0.0,0.0,0.0
1816164,6.0,0.0,551.0,4457.435897435898,4157.435897435898,4320.000000000001,4812.307692307693,3804.1025641025644,4242.564102564103,4276.410256410257,4086.1538461538466,4422.564102564103,4095.8974358974365,4263.589743589744,4301.025641025642,4416.410256410257,4429.2307692307695,1681.0,1682.0,1817.9,1704.0660400390625,0.0,0.0,0.0,0.0
1816164,7.0,0.0,395.0,4453.846153846154,4160.000000000001,4317.435897435898,4815.384615384616,3801.0256410256416,4238.461538461539,4268.205128205129,4079.48717948718,4406.666666666667,4088.717948717949,4264.102564102564,4302.564102564103,4416.923076923077,4427.6923076923085,1681.0,1683.0,1817.908,1704.0660400390625,0.0,0.0,0.0,0.0
1816165,8.0,0.0,460.0,4460.512820512821,4161.538461538462,4318.974358974359,4808.717948717949,3799.48717948718,4226.666666666667,4265.128205128206,4075.8974358974365,4401.025641025642,4091.7948717948725,4261.538461538462,4303.076923076924,4423.076923076924,4427.179487179487,1681.0,1682.0,1817.915,1704.0660400390625,0.0,0.0,0.0,0.0
1816411,9.0,0.0,480.0,4463.076923076924,4158.461538461539,4317.435897435898,4811.794871794872,3802.0512820512827,4221.538461538462,4267.179487179487,4073.8461538461543,4403.589743589744,4091.7948717948725,4262.564102564103,4301.025641025642,4418.974358974359,4424.102564102564,1680.0,1683.0,1817.924,1704.191162109375,0.0,0.0,0.0,0.0
1816412,10.0,0.0,497.0,4466.153846153847,4165.128205128206,4319.48717948718,4809.2307692307695,3810.2564102564106,4230.256410256411,4271.282051282052,4073.333333333334,4403.589743589744,4087.1794871794878,4261.025641025642,4299.48717948718,4416.410256410257,4426.666666666667,1681.0,1684.0,1817.931,1704.191162109375,0.0,0.0,0.0,0.0
1816412,11.0,0.0,490.0,4466.153846153847,4172.820512820514,4323.589743589744,4814.871794871796,3817.9487179487182,4231.282051282052,4272.307692307693,4077.9487179487187,4409.743589743591,4091.2820512820517,4261.025641025642,4303.589743589744,4422.051282051282,4430.256410256411,1679.0,1684.0,1817.939,1704.191162109375,0.0,0.0,0.0,0.0
1816412,12.0,0.0,0.0,4462.564102564103,4172.307692307693,4324.615384615385,4815.384615384616,3822.0512820512827,4227.6923076923085,4273.333333333334,4084.1025641025644,4421.025641025642,4101.025641025642,4264.102564102564,4305.128205128206,4427.179487179487,4430.256410256411,1681.0,1683.0,1817.946,1704.191162109375,0.0,0.0,0.0,0.0
1816413,13.0,0.0,336.0,4465.641025641026,4171.282051282052,4323.076923076924,4807.179487179488,3829.2307692307695,4236.923076923077,4276.410256410257,4087.692307692308,4416.410256410257,4100.000000000001,4263.589743589744,4301.538461538462,4427.6923076923085,4429.743589743591,1680.0,1683.0,1817.955,1704.191162109375,0.0,0.0,0.0,0.0
1816413,14.0,0.0,497.0,4472.820512820514,4172.820512820514,4325.641025641026,4812.820512820514,3832.307692307693,4242.051282051282,4278.974358974359,4084.615384615385,4407.179487179487,4093.8461538461543,4262.051282051282,4301.025641025642,4427.179487179487,4433.333333333334,1682.0,1682.0,1817.962,1704.191162109375,0.0,0.0,0.0,0.0
1816413,15.0,0.0,490.0,4466.153846153847,4166.153846153847,4321.538461538462,4809.743589743591,3827.692307692308,4235.384615384616,4275.384615384616,4078.9743589743593,4408.205128205129,4089.7435897435903,4258.461538461539,4297.435897435898,4418.974358974359,4428.205128205129,1681.0,1682.0,1817.97,1704.191162109375,0.0,0.0,0.0,0.0
1816413,16.0,0.0,0.0,4450.256410256411,4152.307692307693,4304.615384615385,4810.256410256411,3829.2307692307695,4234.871794871796,4267.6923076923085,4073.333333333334,4405.128205128206,4080.0000000000005,4262.564102564103,4290.769230769231,4402.051282051282,4416.410256410257,1682.0,1683.0,1817.978,1704.191162109375,0.0,0.0,0.0,0.0
1816414,17.0,0.0,0.0,4454.358974358975,4153.333333333334,4303.589743589744,4812.307692307693,3837.435897435898,4236.923076923077,4268.205128205129,4073.333333333334,4402.564102564103,4076.410256410257,4262.564102564103,4291.794871794872,4403.589743589744,4421.538461538462,1682.0,1682.0,1817.986,1704.191162109375,0.0,0.0,0.0,0.0
1816414,18.0,0.0,0.0,4472.820512820514,4168.717948717949,4323.589743589744,4808.717948717949,3843.076923076924,4235.8974358974365,4275.384615384616,4081.538461538462,4412.820512820514,4090.2564102564106,4257.948717948719,4303.076923076924,4422.051282051282,4433.846153846154,1682.0,1684.0,1817.994,1704.191162109375,0.0,0.0,0.0,0.0
1816414,19.0,0.0,0.0,4481.538461538462,4173.333333333334,4334.871794871796,4814.871794871796,3848.717948717949,4235.384615384616,4277.435897435898,4096.923076923077,4425.641025641026,4105.128205128206,4260.512820512821,4310.769230769231,4430.769230769231,4436.923076923077,1683.0,1682.0,1818.001,1704.191162109375,0.0,0.0,0.0,0.0
1816414,20.0,0.0,0.0,4476.410256410257,4170.256410256411,4328.717948717949,4809.2307692307695,3854.358974358975,4239.48717948718,4278.974358974359,4103.076923076924,4421.025641025642,4103.076923076924,4261.025641025642,4303.076923076924,4427.179487179487,4433.333333333334,1682.0,1683.0,1818.009,1704.191162109375,0.0,0.0,0.0,0.0
1816414,21.0,0.0,0.0,4474.358974358975,4169.2307692307695,4323.076923076924,4807.179487179488,3854.8717948717954,4241.538461538462,4277.948717948719,4095.3846153846157,4407.179487179487,4092.307692307693,4261.025641025642,4299.48717948718,4422.564102564103,4431.282051282052,1681.0,1682.0,1818.017,1704.191162109375,0.0,0.0,0.0,0.0
1816415,22.0,0.0,0.0,4481.538461538462,4171.794871794872,4324.102564102564,4810.769230769231,3856.9230769230776,4241.025641025642,4272.820512820514,4091.7948717948725,4403.589743589744,4090.2564102564106,4262.564102564103,4305.641025641026,4426.153846153847,4432.307692307693,1681.0,1683.0,1818.026,1704.191162109375,0.0,0.0,0.0,0.0
1816415,23.0,0.0,0.0,4483.589743589744,4177.948717948719,4328.205128205129,4808.717948717949,3856.9230769230776,4241.025641025642,4274.871794871796,4098.974358974359,4411.282051282052,4097.435897435898,4260.000000000001,4307.179487179487,4430.769230769231,4431.794871794872,1681.0,1683.0,1818.032,1704.191162109375,0.0,0.0,0.0,0.0
1816415,24.0,0.0,0.0,4479.48717948718,4182.051282051282,4333.333333333334,4815.384615384616,3853.333333333334,4237.435897435898,4275.384615384616,4097.948717948719,4412.820512820514,4097.948717948719,4261.025641025642,4306.666666666667,4429.743589743591,4432.820512820514,1680.0,1684.0,1818.041,1704.191162109375,0.0,0.0,0.0,0.0
1816415,25.0,0.0,0.0,4482.051282051282,4182.564102564103,4336.923076923077,4812.820512820514,3852.820512820513,4237.435897435898,4268.717948717949,4088.205128205129,4404.615384615385,4096.923076923077,4261.538461538462,4309.2307692307695,4433.846153846154,4442.051282051282,1680.0,1685.0,1818.049,1704.191162109375,0.0,0.0,0.0,0.0
1816415,26.0,0.0,0.0,4485.128205128206,4183.589743589744,4335.8974358974365,4811.282051282052,3854.358974358975,4241.538461538462,4267.179487179487,4091.7948717948725,4406.666666666667,4103.076923076924,4261.538461538462,4311.794871794872,4438.974358974359,4451.282051282052,1680.0,1684.0,1818.057,1704.191162109375,0.0,0.0,0.0,0.0
1816416,27.0,0.0,0.0,4483.589743589744,4182.051282051282,4332.820512820514,4812.307692307693,3854.8717948717954,4240.000000000001,4273.333333333334,4103.076923076924,4420.512820512821,4108.205128205129,4261.538461538462,4313.333333333334,4436.923076923077,4449.2307692307695,1680.0,1685.0,1818.065,1704.191162109375,0.0,0.0,0.0,0.0
1816416,28.0,0.0,0.0,4482.051282051282,4177.435897435898,4331.794871794872,4804.615384615386,3854.8717948717954,4237.435897435898,4275.8974358974365,4103.589743589744,4424.615384615385,4107.6923076923085,4259.48717948718,4309.743589743591,4436.923076923077,4445.128205128206,1680.0,1685.0,1818.073,1704.191162109375,0.0,0.0,0.0,0.0
1816416,29.0,0.0,0.0,4475.384615384616,4173.846153846154,4327.6923076923085,4813.846153846154,3854.8717948717954,4240.000000000001,4272.820512820514,4093.8461538461543,4414.358974358975,4103.076923076924,4259.48717948718,4304.102564102564,4435.8974358974365,4443.076923076924,1680.0,1685.0,1818.079,1704.191162109375,0.0,0.0,0.0,0.0
1816416,30.0,0.0,0.0,4471.794871794872,4172.307692307693,4328.717948717949,4816.410256410257,3851.7948717948725,4245.128205128206,4272.307692307693,4095.8974358974365,4416.410256410257,4098.461538461539,4259.48717948718,4304.102564102564,4429.743589743591,4441.538461538462,1679.0,1685.0,1818.087,1704.191162109375,0.0,0.0,0.0,0.0
1816416,31.0,0.0,0.0,4480.000000000001,4173.846153846154,4336.923076923077,4809.2307692307695,3852.820512820513,4241.538461538462,4273.333333333334,4105.641025641026,4425.641025641026,4102.051282051282,4261.025641025642,4310.256410256411,4428.717948717949,4444.615384615385,1679.0,1685.0,1818.095,1704.191162109375,0.0,0.0,0.0,0.0
1816416,32.0,0.0,0.0,4488.205128205129,4178.461538461539,4340.000000000001,4813.333333333334,3857.435897435898,4234.358974358975,4273.846153846154,4105.641025641026,4422.051282051282,4109.74358974359,4264.102564102564,4315.384615384616,4437.435897435898,4450.769230769231,1679.0,1684.0,1818.103,1704.191162109375,0.0,0.0,0.0,0.0
1816416,33.0,0.0,0.0,4484.615384615385,4178.974358974359,4339.48717948718,4809.743589743591,3861.0256410256416,4236.410256410257,4276.923076923077,4104.102564102564,4415.8974358974365,4111.794871794872,4262.051282051282,4313.333333333334,4443.589743589744,4448.717948717949,1680.0,1684.0,1818.111,1704.191162109375,0.0,0.0,0.0,0.0
1816416,34.0,0.0,0.0,4477.948717948719,4173.846153846154,4336.923076923077,4811.794871794872,3864.1025641025644,4238.461538461539,4278.974358974359,4111.794871794872,4417.948717948719,4107.6923076923085,4262.051282051282,4313.333333333334,4441.025641025642,4443.589743589744,1679.0,1684.0,1818.119,1704.191162109375,0.0,0.0,0.0,0.0
1816417,35.0,0.0,0.0,4483.589743589744,4176.410256410257,4337.435897435898,4812.820512820514,3869.7435897435903,4237.435897435898,4281.538461538462,4116.410256410257,4423.076923076924,4110.256410256411,4264.615384615385,4316.923076923077,4443.076923076924,4455.384615384616,1680.0,1685.0,1818.126,1704.191162109375,0.0,0.0,0.0,0.0
1816417,36.0,0.0,0.0,4493.333333333334,4184.615384615385,4344.102564102564,4807.6923076923085,3874.8717948717954,4236.923076923077,4283.076923076924,4109.74358974359,4425.128205128206,4117.435897435898,4263.076923076924,4316.923076923077,4448.205128205129,4467.179487179487,1680.0,1684.0,1818.134,1704.191162109375,0.0,0.0,0.0,0.0
1816417,37.0,0.0,0.0,4487.6923076923085,4178.461538461539,4344.615384615385,4814.358974358975,3874.358974358975,4235.8974358974365,4278.974358974359,4098.974358974359,4416.410256410257,4110.769230769231,4261.538461538462,4314.358974358975,4441.538461538462,4453.846153846154,1679.0,1685.0,1818.142,1704.191162109375,0.0,0.0,0.0,0.0
1816417,38.0,0.0,0.0,4478.974358974359,4170.769230769231,4338.461538461539,4810.769230769231,3873.8461538461543,4237.948717948719,4276.923076923077,4093.8461538461543,4408.205128205129,4103.076923076924,4259.48717948718,4310.769230769231,4434.358974358975,4440.512820512821,1681.0,1683.0,1818.15,1704.191162109375,0.0,0.0,0.0,0.0
1816417,39.0,0.0,0.0,4483.076923076924,4174.871794871796,4338.461538461539,4810.256410256411,3879.48717948718,4241.538461538462,4278.461538461539,4094.358974358975,4408.205128205129,4107.179487179487,4261.538461538462,4310.769230769231,4436.410256410257,4446.153846153847,1679.0,1684.0,1818.158,1704.191162109375,0.0,0.0,0.0,0.0
1816417,40.0,0.0,0.0,4487.179487179488,4177.435897435898,4336.923076923077,4812.307692307693,3881.0256410256416,4236.410256410257,4276.923076923077,4101.025641025642,4413.333333333334,4108.205128205129,4263.589743589744,4309.743589743591,4434.871794871796,4447.6923076923085,1680.0,1683.0,1818.165,1704.191162109375,0.0,0.0,0.0,0.0
1816438,41.0,0.0,0.0,4480.000000000001,4170.256410256411,4329.743589743591,4807.6923076923085,3873.333333333334,4229.74358974359,4272.820512820514,4109.2307692307695,4416.923076923077,4098.974358974359,4262.051282051282,4304.102564102564,4429.2307692307695,4441.025641025642,1680.0,1683.0,1818.174,1704.4412841796875,0.0,0.0,0.0,0.0
1816438,42.0,0.0,0.0,4471.282051282052,4159.48717948718,4323.589743589744,4813.846153846154,3870.2564102564106,4228.205128205129,4270.256410256411,4111.282051282052,4409.743589743591,4091.2820512820517,4261.025641025642,4300.000000000001,4424.615384615385,4439.48717948718,1680.0,1683.0,1818.181,1704.4412841796875,0.0,0.0,0.0,0.0
1816438,43.0,0.0,0.0,4472.820512820514,4158.974358974359,4325.128205128206,4809.2307692307695,3876.410256410257,4228.205128205129,4270.256410256411,4109.2307692307695,4409.2307692307695,4097.435897435898,4262.051282051282,4301.025641025642,4425.128205128206,4438.974358974359,1680.0,1682.0,1818.19,1704.4412841796875,0.0,0.0,0.0,0.0
1816438,44.0,0.0,0.0,4476.923076923077,4165.128205128206,4329.743589743591,4806.666666666667,3874.8717948717954,4221.538461538462,4270.256410256411,4106.153846153847,4418.974358974359,4103.076923076924,4264.102564102564,4305.641025641026,4425.641025641026,4434.871794871796,1681.0,1682.0,1818.197,1704.4412841796875,0.0,0.0,0.0,0.0
1816905,45.0,0.0,0.0,4475.384615384616,4165.641025641026,4330.256410256411,4811.794871794872,3870.7692307692314,4217.948717948719,4267.6923076923085,4102.051282051282,4411.794871794872,4093.8461538461543,4262.051282051282,4308.717948717949,4419.48717948718,4433.333333333334,1680.0,1682.0,1818.206,1704.47265625,0.0,0.0,0.0,0.0
1816905,46.0,0.0,0.0,4471.794871794872,4164.615384615385,4326.666666666667,4807.179487179488,3872.820512820513,4225.128205128206,4266.153846153847,4096.923076923077,4397.948717948719,4086.666666666667,4260.000000000001,4307.6923076923085,4415.8974358974365,4431.282051282052,1681.0,1683.0,1818.213,1704.47265625,0.0,0.0,0.0,0.0
1816905,47.0,0.0,0.0,4473.846153846154,4165.128205128206,4323.589743589744,4813.333333333334,3873.333333333334,4230.256410256411,4264.102564102564,4093.333333333334,4401.538461538462,4091.2820512820517,4265.641025641026,4309.2307692307695,4417.948717948719,4431.794871794872,1681.0,1682.0,1818.22,1704.47265625,0.0,0.0,0.0,0.0
1816906,48.0,0.0,0.0,4476.923076923077,4165.641025641026,4325.641025641026,4814.358974358975,3869.2307692307695,4228.717948717949,4262.051282051282,4096.923076923077,4409.743589743591,4097.948717948719,4264.102564102564,4310.256410256411,4420.000000000001,4435.384615384616,1680.0,1684.0,1818.228,1704.47265625,0.0,0.0,0.0,0.0
1816906,49.0,0.0,0.0,4476.410256410257,4161.025641025642,4326.666666666667,4810.256410256411,3867.1794871794878,4225.128205128206,4260.000000000001,4100.512820512821,4405.641025641026,4100.512820512821,4259.48717948718,4310.769230769231,4420.000000000001,4437.435897435898,1681.0,1683.0,1818.236,1704.47265625,0.0,0.0,0.0,0.0
1816906,50.0,0.0,0.0,4482.051282051282,4163.589743589744,4330.769230769231,4809.2307692307695,3869.2307692307695,4220.000000000001,4260.512820512821,4102.564102564103,4406.666666666667,4106.153846153847,4260.512820512821,4316.923076923077,4426.666666666667,4445.641025641026,1680.0,1684.0,1818.244,1704.47265625,0.0,0.0,0.0,0.0
1816906,51.0,0.0,0.0,4494.358974358975,4178.461538461539,4340.000000000001,4803.589743589744,3872.307692307693,4219.48717948718,4268.205128205129,4104.102564102564,4416.410256410257,4114.871794871796,4260.512820512821,4320.512820512821,4436.410256410257,4455.8974358974365,1681.0,1686.0,1818.251,1704.47265625,0.0,0.0,0.0,0.0
1816907,52.0,0.0,0.0,4491.282051282052,4182.051282051282,4342.564102564103,4813.333333333334,3873.333333333334,4224.615384615385,4273.846153846154,4099.48717948718,4420.000000000001,4114.358974358975,4263.076923076924,4318.461538461539,4433.846153846154,4451.794871794872,1681.0,1686.0,1818.259,1704.47265625,0.0,0.0,0.0,0.0
1816907,53.0,0.0,0.0,4478.461538461539,4169.74358974359,4334.871794871796,4814.871794871796,3871.7948717948725,4228.717948717949,4273.846153846154,4097.948717948719,4421.538461538462,4106.153846153847,4261.538461538462,4310.769230769231,4428.205128205129,4441.025641025642,1680.0,1687.0,1818.267,1704.47265625,0.0,0.0,0.0,0.0
1816907,54.0,0.0,0.0,4481.538461538462,4167.179487179487,4332.820512820514,4808.205128205129,3873.8461538461543,4232.820512820514,4275.8974358974365,4107.6923076923085,4421.538461538462,4105.128205128206,4258.974358974359,4309.743589743591,4430.256410256411,4443.589743589744,1680.0,1686.0,1818.275,1704.47265625,0.0,0.0,0.0,0.0
1816907,55.0,0.0,0.0,4490.769230769231,4175.8974358974365,4339.48717948718,4812.307692307693,3877.9487179487182,4236.410256410257,4281.025641025642,4120.000000000001,4426.153846153847,4113.333333333334,4263.076923076924,4318.974358974359,4436.410256410257,4452.307692307693,1680.0,1686.0,1818.283,1704.47265625,0.0,0.0,0.0,0.0
1816907,56.0,0.0,0.0,4484.102564102564,4174.358974358975,4340.000000000001,4808.205128205129,3876.9230769230776,4233.846153846154,4277.948717948719,4120.000000000001,4431.794871794872,4114.871794871796,4263.076923076924,4316.923076923077,4434.871794871796,4446.666666666667,1680.0,1684.0,1818.291,1704.47265625,0.0,0.0,0.0,0.0
1816907,57.0,0.0,0.0,4469.2307692307695,4164.102564102564,4329.743589743591,4813.333333333334,3871.2820512820517,4226.153846153847,4264.102564102564,4103.076923076924,4410.769230769231,4098.974358974359,4262.564102564103,4304.102564102564,4422.051282051282,4430.256410256411,1680.0,1684.0,1818.298,1704.47265625,0.0,0.0,0.0,0.0
1816907,58.0,0.0,0.0,4463.076923076924,4162.564102564103,4323.589743589744,4813.333333333334,3868.205128205129,4229.74358974359,4260.000000000001,4092.307692307693,4390.769230769231,4088.205128205129,4264.102564102564,4298.974358974359,4416.923076923077,4424.102564102564,1681.0,1682.0,1818.306,1704.47265625,0.0,0.0,0.0,0.0
1816907,59.0,0.0,0.0,4471.282051282052,4170.769230769231,4328.205128205129,4807.6923076923085,3874.8717948717954,4236.410256410257,4270.769230769231,4104.615384615385,4413.333333333334,4102.564102564103,4263.589743589744,4305.641025641026,4428.205128205129,4433.333333333334,1680.0,1684.0,1818.315,1704.47265625,0.0,0.0,0.0,0.0
1816908,60.0,0.0,0.0,4482.564102564103,4177.948717948719,4334.871794871796,4814.871794871796,3880.512820512821,4233.846153846154,4275.384615384616,4108.205128205129,4428.717948717949,4121.538461538462,4261.538461538462,4312.307692307693,4441.025641025642,4444.102564102564,1681.0,1683.0,1818.323,1704.47265625,0.0,0.0,0.0,0.0
1816908,61.0,0.0,0.0,4484.102564102564,4180.512820512821,4337.435897435898,4810.769230769231,3876.9230769230776,4232.307692307693,4273.333333333334,4096.410256410257,4410.256410256411,4120.512820512821,4260.000000000001,4310.769230769231,4442.051282051282,4446.666666666667,1681.0,1684.0,1818.33,1704.47265625,0.0,0.0,0.0,0.0
1816908,62.0,0.0,0.0,4478.974358974359,4180.512820512821,4337.435897435898,4811.282051282052,3876.410256410257,4236.410256410257,4270.256410256411,4098.461538461539,4407.179487179487,4110.769230769231,4262.564102564103,4308.717948717949,4438.974358974359,4442.564102564103,1682.0,1684.0,1818.338,1704.47265625,0.0,0.0,0.0,0.0
1816908,63.0,0.0,0.0,4480.000000000001,4182.564102564103,4337.435897435898,4815.8974358974365,3878.461538461539,4234.358974358975,4264.102564102564,4108.717948717949,4418.461538461539,4112.307692307693,4263.076923076924,4310.256410256411,4442.564102564103,4445.128205128206,1682.0,1683.0,1818.345,1704.47265625,0.0,0.0,0.0,0.0
1816908,64.0,0.0,515.0,4485.641025641026,4181.538461538462,4339.48717948718,4809.743589743591,3873.8461538461543,4229.2307692307695,4261.025641025642,4108.205128205129,4415.8974358974365,4116.923076923077,4262.051282051282,4310.256410256411,4445.641025641026,4452.820512820514,1681.0,1684.0,1818.353,1704.47265625,0.0,0.0,0.0,0.0
