timestamp,cnt,inerpolated,raw_cq,af3,f7,f3,fc5,t7,p7,o1,o2,p8,t8,fc6,f4,f8,af4,gyrox,gyroy,epoc_timestamp,epoc_es_timestamp,func_id,func_value,marker,sync_signal
1126894,26.0,0.0,0.0,4357.435897435898,4170.256410256411,4340.512820512821,4813.846153846154,3790.2564102564106,4224.102564102564,4256.410256410257,4131.282051282052,4435.8974358974365,4091.2820512820517,4307.179487179487,4315.8974358974365,4449.743589743591,4329.2307692307695,1681.0,1683.0,1128.542,1089.498779296875,0.0,0.0,0.0,0.0
1126895,27.0,0.0,0.0,4339.48717948718,4167.179487179487,4339.48717948718,4805.641025641026,3791.2820512820517,4223.076923076924,4253.846153846154,4109.74358974359,4415.8974358974365,4084.615384615385,4299.48717948718,4313.333333333334,4433.846153846154,4320.000000000001,1681.0,1684.0,1128.55,1089.498779296875,0.0,0.0,0.0,0.0
1126895,28.0,0.0,0.0,4349.2307692307695,4168.205128205129,4342.051282051282,4814.358974358975,3790.2564102564106,4222.051282051282,4250.769230769231,4088.717948717949,4397.435897435898,4084.1025641025644,4298.974358974359,4313.846153846154,4436.923076923077,4330.256410256411,1682.0,1683.0,1128.558,1089.498779296875,0.0,0.0,0.0,0.0
1126895,29.0,0.0,0.0,4373.333333333334,4177.948717948719,4352.820512820514,4827.6923076923085,3792.820512820513,4225.128205128206,4255.8974358974365,4101.538461538462,4413.846153846154,4094.358974358975,4314.358974358975,4319.48717948718,4468.717948717949,4357.948717948719,1680.0,1683.0,1128.565,1089.498779296875,0.0,0.0,0.0,0.0
1126895,30.0,0.0,0.0,4369.743589743591,4177.948717948719,4353.846153846154,4824.615384615386,3794.8717948717954,4224.102564102564,4257.435897435898,4112.820512820514,4423.589743589744,4096.410256410257,4313.333333333334,4316.923076923077,4471.282051282052,4358.461538461539,1682.0,1683.0,1128.574,1089.498779296875,0.0,0.0,0.0,0.0
1126896,31.0,0.0,0.0,4351.282051282052,4169.74358974359,4338.974358974359,4815.384615384616,3791.2820512820517,4220.512820512821,4248.205128205129,4091.7948717948725,4398.974358974359,4086.666666666667,4295.384615384616,4305.641025641026,4440.512820512821,4341.025641025642,1680.0,1682.0,1128.581,1089.498779296875,0.0,0.0,0.0,0.0
1126896,32.0,0.0,0.0,4344.615384615385,4166.153846153847,4331.794871794872,4810.256410256411,3787.692307692308,4224.615384615385,4243.076923076924,4074.358974358975,4379.48717948718,4078.461538461539,4282.051282051282,4303.589743589744,4426.666666666667,4335.8974358974365,1681.0,1682.0,1128.59,1089.498779296875,0.0,0.0,0.0,0.0
1126896,33.0,0.0,0.0,4346.153846153847,4166.666666666667,4339.48717948718,4806.153846153847,3786.666666666667,4224.102564102564,4247.6923076923085,4098.974358974359,4394.871794871796,4083.589743589744,4286.153846153847,4315.384615384616,4431.282051282052,4338.461538461539,1681.0,1681.0,1128.598,1089.498779296875,0.0,0.0,0.0,0.0
1126896,34.0,0.0,0.0,4350.256410256411,4169.2307692307695,4343.076923076924,4811.794871794872,3785.1282051282055,4213.846153846154,4246.666666666667,4117.435897435898,4409.743589743591,4090.7692307692314,4299.48717948718,4316.923076923077,4435.384615384616,4343.589743589744,1680.0,1682.0,1128.604,1089.498779296875,0.0,0.0,0.0,0.0
1126897,35.0,0.0,0.0,4356.410256410257,4172.307692307693,4337.948717948719,4818.974358974359,3786.666666666667,4216.923076923077,4242.051282051282,4101.538461538462,4406.666666666667,4088.205128205129,4300.512820512821,4304.102564102564,4442.051282051282,4349.2307692307695,1681.0,1681.0,1128.612,1089.498779296875,0.0,0.0,0.0,0.0
1126897,36.0,0.0,0.0,4360.000000000001,4170.769230769231,4338.974358974359,4816.923076923077,3787.692307692308,4224.615384615385,4247.179487179487,4096.923076923077,4410.769230769231,4088.205128205129,4297.435897435898,4301.025641025642,4450.256410256411,4350.256410256411,1680.0,1682.0,1128.62,1089.498779296875,0.0,0.0,0.0,0.0
1126898,37.0,0.0,0.0,4362.051282051282,4169.2307692307695,4346.666666666667,4818.974358974359,3785.1282051282055,4216.923076923077,4255.384615384616,4110.769230769231,4419.48717948718,4094.358974358975,4306.153846153847,4312.307692307693,4454.358974358975,4354.358974358975,1680.0,1682.0,1128.628,1089.498779296875,0.0,0.0,0.0,0.0
1126898,38.0,0.0,0.0,4363.076923076924,4172.307692307693,4345.128205128206,4820.512820512821,3786.666666666667,4213.333333333334,4253.846153846154,4108.205128205129,4412.820512820514,4092.307692307693,4310.256410256411,4313.333333333334,4453.846153846154,4357.948717948719,1680.0,1683.0,1128.636,1089.498779296875,0.0,0.0,0.0,0.0
1126899,39.0,0.0,0.0,4357.948717948719,4171.794871794872,4335.384615384616,4814.871794871796,3792.820512820513,4225.128205128206,4247.6923076923085,4101.538461538462,4405.641025641026,4085.1282051282055,4301.538461538462,4308.205128205129,4450.769230769231,4351.282051282052,1681.0,1682.0,1128.643,1089.498779296875,0.0,0.0,0.0,0.0
1126899,40.0,0.0,0.0,4348.205128205129,4166.666666666667,4328.717948717949,4813.846153846154,3795.8974358974365,4234.871794871796,4248.205128205129,4101.538461538462,4406.666666666667,4086.666666666667,4294.358974358975,4306.153846153847,4441.538461538462,4344.102564102564,1680.0,1683.0,1128.651,1089.498779296875,0.0,0.0,0.0,0.0
1126899,41.0,0.0,0.0,4346.153846153847,4166.666666666667,4327.179487179487,4813.333333333334,3791.7948717948725,4232.820512820514,4252.307692307693,4100.000000000001,4404.615384615385,4087.692307692308,4294.358974358975,4305.128205128206,4431.794871794872,4345.128205128206,1681.0,1684.0,1128.659,1089.498779296875,0.0,0.0,0.0,0.0
1127014,42.0,0.0,0.0,4357.435897435898,4170.256410256411,4332.820512820514,4810.769230769231,3786.1538461538466,4223.589743589744,4253.333333333334,4098.974358974359,4401.538461538462,4086.1538461538466,4297.435897435898,4307.179487179487,4436.923076923077,4351.794871794872,1682.0,1683.0,1128.667,1089.6239013671875,0.0,0.0,0.0,0.0
1127014,43.0,0.0,0.0,4361.025641025642,4169.74358974359,4338.974358974359,4816.410256410257,3785.6410256410263,4211.282051282052,4247.6923076923085,4097.435897435898,4402.564102564103,4088.205128205129,4295.8974358974365,4307.179487179487,4446.666666666667,4356.410256410257,1681.0,1684.0,1128.676,1089.6239013671875,0.0,0.0,0.0,0.0
1127015,44.0,0.0,0.0,4350.769230769231,4167.179487179487,4336.410256410257,4815.8974358974365,3787.1794871794878,4205.641025641026,4242.564102564103,4109.2307692307695,4409.743589743591,4087.1794871794878,4292.307692307693,4307.6923076923085,4446.153846153847,4353.846153846154,1682.0,1683.0,1128.683,1089.6239013671875,0.0,0.0,0.0,0.0
1127015,45.0,0.0,0.0,4346.153846153847,4166.153846153847,4330.256410256411,4804.615384615386,3782.564102564103,4207.6923076923085,4243.076923076924,4114.358974358975,4410.256410256411,4082.0512820512827,4295.384615384616,4310.256410256411,4438.974358974359,4351.794871794872,1681.0,1684.0,1128.691,1089.6239013671875,0.0,0.0,0.0,0.0
1127015,46.0,0.0,0.0,4350.256410256411,4163.589743589744,4328.205128205129,4803.076923076924,3778.461538461539,4207.179487179487,4241.538461538462,4087.1794871794878,4392.820512820514,4078.9743589743593,4300.000000000001,4306.153846153847,4438.461538461539,4354.871794871796,1682.0,1683.0,1128.699,1089.6239013671875,0.0,0.0,0.0,0.0
1127016,47.0,0.0,0.0,4348.205128205129,4159.48717948718,4325.641025641026,4806.666666666667,3779.48717948718,4208.205128205129,4239.48717948718,4071.2820512820517,4382.564102564103,4075.8974358974365,4293.846153846154,4301.025641025642,4434.358974358975,4347.6923076923085,1681.0,1683.0,1128.707,1089.6239013671875,0.0,0.0,0.0,0.0
1127016,48.0,0.0,0.0,4336.923076923077,4154.871794871796,4316.923076923077,4801.025641025642,3781.0256410256416,4216.410256410257,4240.512820512821,4086.666666666667,4386.666666666667,4069.7435897435903,4278.974358974359,4297.948717948719,4416.410256410257,4331.282051282052,1682.0,1684.0,1128.714,1089.6239013671875,0.0,0.0,0.0,0.0
1127016,49.0,0.0,0.0,4333.846153846154,4153.846153846154,4313.846153846154,4798.461538461539,3781.538461538462,4224.102564102564,4242.564102564103,4091.2820512820517,4385.128205128206,4068.205128205129,4273.846153846154,4295.8974358974365,4405.641025641026,4331.282051282052,1681.0,1684.0,1128.724,1089.6239013671875,0.0,0.0,0.0,0.0
1127016,50.0,0.0,0.0,4343.076923076924,4160.000000000001,4317.948717948719,4800.000000000001,3785.1282051282055,4224.102564102564,4246.153846153847,4079.48717948718,4383.076923076924,4077.435897435898,4283.589743589744,4297.948717948719,4417.435897435898,4345.128205128206,1681.0,1684.0,1128.73,1089.6239013671875,0.0,0.0,0.0,0.0
1127016,51.0,0.0,0.0,4347.6923076923085,4165.128205128206,4321.025641025642,4803.076923076924,3787.1794871794878,4214.358974358975,4252.820512820514,4081.0256410256416,4390.769230769231,4082.564102564103,4291.282051282052,4303.076923076924,4429.2307692307695,4352.307692307693,1680.0,1684.0,1128.737,1089.6239013671875,0.0,0.0,0.0,0.0
1127017,52.0,0.0,0.0,4344.615384615385,4166.666666666667,4325.641025641026,4806.666666666667,3783.589743589744,4203.589743589744,4255.8974358974365,4096.923076923077,4400.512820512821,4080.0000000000005,4289.74358974359,4308.717948717949,4431.794871794872,4353.846153846154,1681.0,1684.0,1128.745,1089.6239013671875,0.0,0.0,0.0,0.0
1127017,53.0,0.0,0.0,4348.717948717949,4162.564102564103,4328.205128205129,4804.102564102564,3783.076923076924,4203.589743589744,4250.769230769231,4113.846153846154,4407.6923076923085,4078.461538461539,4288.205128205129,4308.717948717949,4434.871794871796,4354.358974358975,1681.0,1684.0,1128.753,1089.6239013671875,0.0,0.0,0.0,0.0
1127017,54.0,0.0,0.0,4354.871794871796,4163.076923076924,4327.6923076923085,4800.512820512821,3784.615384615385,4212.820512820514,4246.153846153847,4105.128205128206,4402.051282051282,4078.461538461539,4290.769230769231,4305.641025641026,4431.282051282052,4351.794871794872,1681.0,1684.0,1128.761,1089.6239013671875,0.0,0.0,0.0,0.0
1127017,55.0,0.0,0.0,4344.615384615385,4166.153846153847,4328.717948717949,4803.076923076924,3784.1025641025644,4217.948717948719,4247.179487179487,4084.1025641025644,4389.2307692307695,4076.9230769230776,4290.769230769231,4303.589743589744,4419.48717948718,4350.256410256411,1680.0,1685.0,1128.769,1089.6239013671875,0.0,0.0,0.0,0.0
1127017,56.0,0.0,0.0,4337.435897435898,4159.48717948718,4324.102564102564,4799.48717948718,3783.589743589744,4208.717948717949,4249.74358974359,4086.1538461538466,4388.717948717949,4073.8461538461543,4284.615384615385,4303.589743589744,4414.358974358975,4345.641025641026,1681.0,1684.0,1128.776,1089.6239013671875,0.0,0.0,0.0,0.0
1127017,57.0,0.0,0.0,4343.589743589744,4153.333333333334,4314.871794871796,4792.307692307693,3782.564102564103,4204.615384615385,4252.820512820514,4093.333333333334,4392.820512820514,4071.2820512820517,4278.461538461539,4306.153846153847,4413.333333333334,4338.974358974359,1681.0,1684.0,1128.784,1089.6239013671875,0.0,0.0,0.0,0.0
1127145,58.0,0.0,0.0,4340.512820512821,4155.8974358974365,4311.282051282052,4796.410256410257,3782.564102564103,4220.512820512821,4249.74358974359,4082.0512820512827,4385.641025641026,4068.717948717949,4275.384615384616,4305.641025641026,4405.128205128206,4338.461538461539,1681.0,1684.0,1128.792,1089.7490234375,0.0,0.0,0.0,0.0
1127146,59.0,0.0,0.0,4335.8974358974365,4159.48717948718,4313.333333333334,4798.461538461539,3784.1025641025644,4225.641025641026,4244.102564102564,4075.3846153846157,4378.974358974359,4069.7435897435903,4273.333333333334,4303.589743589744,4401.025641025642,4342.051282051282,1680.0,1684.0,1128.8,1089.7490234375,0.0,0.0,0.0,0.0
1127146,60.0,0.0,0.0,4351.794871794872,4164.102564102564,4323.589743589744,4796.410256410257,3785.1282051282055,4209.2307692307695,4250.769230769231,4091.2820512820517,4393.333333333334,4077.9487179487187,4282.564102564103,4309.2307692307695,4421.538461538462,4355.8974358974365,1682.0,1684.0,1128.809,1089.7490234375,0.0,0.0,0.0,0.0
1127147,61.0,0.0,0.0,4367.6923076923085,4171.794871794872,4334.358974358975,4806.153846153847,3782.0512820512827,4199.48717948718,4256.410256410257,4102.564102564103,4410.256410256411,4084.615384615385,4301.538461538462,4315.8974358974365,4446.153846153847,4373.333333333334,1682.0,1684.0,1128.815,1089.7490234375,0.0,0.0,0.0,0.0
1127147,62.0,0.0,0.0,4355.384615384616,4169.74358974359,4327.6923076923085,4808.717948717949,3781.538461538462,4205.128205128206,4248.205128205129,4098.974358974359,4402.564102564103,4080.0000000000005,4301.025641025642,4311.282051282052,4439.48717948718,4369.743589743591,1681.0,1686.0,1128.823,1089.7490234375,0.0,0.0,0.0,0.0
1127148,63.0,0.0,0.0,4337.948717948719,4164.615384615385,4317.435897435898,4799.48717948718,3784.615384615385,4210.769230769231,4243.589743589744,4088.717948717949,4385.641025641026,4072.820512820513,4281.538461538462,4301.025641025642,4419.48717948718,4352.307692307693,1683.0,1684.0,1128.831,1089.7490234375,0.0,0.0,0.0,0.0
1127148,64.0,0.0,475.0,4343.076923076924,4167.6923076923085,4320.000000000001,4801.025641025642,3784.615384615385,4213.846153846154,4245.128205128206,4082.0512820512827,4385.128205128206,4075.3846153846157,4284.102564102564,4303.589743589744,4421.538461538462,4352.820512820514,1681.0,1686.0,1128.839,1089.7490234375,0.0,0.0,0.0,0.0
1127148,65.0,0.0,258.0,4358.974358974359,4168.205128205129,4324.102564102564,4807.179487179488,3782.564102564103,4217.948717948719,4248.205128205129,4087.1794871794878,4394.358974358975,4083.589743589744,4305.128205128206,4311.794871794872,4436.923076923077,4372.307692307693,1682.0,1685.0,1128.847,1089.7490234375,0.0,0.0,0.0,0.0
1127148,66.0,0.0,451.0,4360.512820512821,4167.179487179487,4321.538461538462,4803.076923076924,3783.076923076924,4221.538461538462,4250.769230769231,4090.2564102564106,4392.820512820514,4084.615384615385,4304.102564102564,4309.2307692307695,4437.435897435898,4376.410256410257,1681.0,1684.0,1128.855,1089.7490234375,0.0,0.0,0.0,0.0
1127148,67.0,0.0,357.0,4348.205128205129,4167.179487179487,4313.846153846154,4802.564102564103,3784.615384615385,4227.6923076923085,4245.641025641026,4084.1025641025644,4387.6923076923085,4076.9230769230776,4290.769230769231,4305.128205128206,4429.2307692307695,4363.076923076924,1682.0,1684.0,1128.862,1089.7490234375,0.0,0.0,0.0,0.0
1127149,68.0,0.0,456.0,4344.615384615385,4166.666666666667,4313.333333333334,4805.128205128206,3784.1025641025644,4223.076923076924,4245.128205128206,4093.8461538461543,4392.820512820514,4076.9230769230776,4291.794871794872,4307.6923076923085,4429.743589743591,4358.974358974359,1681.0,1684.0,1128.87,1089.7490234375,0.0,0.0,0.0,0.0
1127149,69.0,0.0,548.0,4347.179487179487,4168.717948717949,4322.564102564103,4804.102564102564,3784.1025641025644,4208.717948717949,4257.435897435898,4113.846153846154,4408.205128205129,4085.1282051282055,4295.8974358974365,4309.2307692307695,4431.794871794872,4368.205128205129,1681.0,1683.0,1128.878,1089.7490234375,0.0,0.0,0.0,0.0
1127149,70.0,0.0,533.0,4344.615384615385,4168.717948717949,4325.641025641026,4803.076923076924,3784.615384615385,4207.179487179487,4259.48717948718,4098.974358974359,4406.153846153847,4082.564102564103,4292.820512820514,4308.205128205129,4431.282051282052,4373.333333333334,1681.0,1683.0,1128.886,1089.7490234375,0.0,0.0,0.0,0.0
1127149,71.0,0.0,479.0,4347.179487179487,4168.717948717949,4322.051282051282,4807.179487179488,3783.589743589744,4212.307692307693,4249.2307692307695,4074.8717948717954,4390.256410256411,4077.435897435898,4288.717948717949,4304.102564102564,4433.846153846154,4370.256410256411,1681.0,1684.0,1128.894,1089.7490234375,0.0,0.0,0.0,0.0
1127149,72.0,0.0,423.0,4353.846153846154,4168.717948717949,4320.000000000001,4806.666666666667,3784.1025641025644,4213.333333333334,4246.666666666667,4090.7692307692314,4395.8974358974365,4082.0512820512827,4289.2307692307695,4298.974358974359,4434.358974358975,4367.179487179487,1681.0,1683.0,1128.901,1089.7490234375,0.0,0.0,0.0,0.0
1127150,73.0,0.0,454.0,4352.820512820514,4166.666666666667,4315.8974358974365,4803.076923076924,3783.589743589744,4217.948717948719,4251.794871794872,4106.153846153847,4404.102564102564,4083.076923076924,4295.384615384616,4302.564102564103,4436.410256410257,4367.6923076923085,1680.0,1684.0,1128.909,1089.7490234375,0.0,0.0,0.0,0.0
1127266,74.0,0.0,487.0,4351.282051282052,4167.6923076923085,4313.846153846154,4804.615384615386,3784.1025641025644,4224.102564102564,4253.333333333334,4093.8461538461543,4393.846153846154,4079.48717948718,4297.435897435898,4309.2307692307695,4435.8974358974365,4369.743589743591,1681.0,1684.0,1128.917,1089.8741455078125,0.0,0.0,0.0,0.0
1127266,75.0,0.0,436.0,4349.2307692307695,4163.076923076924,4316.410256410257,4802.051282051282,3784.1025641025644,4223.076923076924,4247.6923076923085,4076.9230769230776,4380.512820512821,4075.3846153846157,4281.025641025642,4303.589743589744,4417.948717948719,4363.076923076924,1680.0,1685.0,1128.926,1089.8741455078125,0.0,0.0,0.0,0.0
1127267,76.0,0.0,447.0,4341.025641025642,4154.871794871796,4311.794871794872,4796.410256410257,3779.48717948718,4223.589743589744,4243.076923076924,4073.8461538461543,4376.923076923077,4070.2564102564106,4261.538461538462,4295.8974358974365,4397.435897435898,4350.769230769231,1681.0,1684.0,1128.934,1089.8741455078125,0.0,0.0,0.0,0.0
1127267,77.0,0.0,252.0,4335.8974358974365,4159.48717948718,4306.153846153847,4798.974358974359,3778.9743589743593,4222.051282051282,4245.641025641026,4088.717948717949,4381.538461538462,4071.2820512820517,4261.025641025642,4296.410256410257,4397.435897435898,4353.846153846154,1680.0,1683.0,1128.942,1089.8741455078125,0.0,0.0,0.0,0.0
1127267,78.0,0.0,487.0,4339.48717948718,4168.205128205129,4307.6923076923085,4804.615384615386,3784.1025641025644,4212.820512820514,4246.666666666667,4094.358974358975,4383.589743589744,4073.8461538461543,4269.2307692307695,4297.948717948719,4408.205128205129,4363.076923076924,1680.0,1683.0,1128.948,1089.8741455078125,0.0,0.0,0.0,0.0
1127267,79.0,0.0,436.0,4347.179487179487,4167.6923076923085,4312.820512820514,4804.615384615386,3784.615384615385,4209.74358974359,4246.153846153847,4089.7435897435903,4385.641025641026,4075.8974358974365,4276.410256410257,4302.051282051282,4421.025641025642,4367.6923076923085,1679.0,1682.0,1128.957,1089.8741455078125,0.0,0.0,0.0,0.0
1127267,80.0,0.0,447.0,4356.923076923077,4169.74358974359,4325.128205128206,4808.205128205129,3783.589743589744,4214.871794871796,4253.846153846154,4101.025641025642,4399.48717948718,4085.6410256410263,4287.179487179487,4310.256410256411,4438.461538461539,4384.615384615385,1680.0,1682.0,1128.964,1089.8741455078125,0.0,0.0,0.0,0.0
1127267,81.0,0.0,252.0,4361.538461538462,4172.307692307693,4333.333333333334,4815.8974358974365,3786.666666666667,4224.102564102564,4257.948717948719,4102.564102564103,4402.564102564103,4086.1538461538466,4290.256410256411,4311.794871794872,4443.076923076924,4396.923076923077,1679.0,1681.0,1128.972,1089.8741455078125,0.0,0.0,0.0,0.0
1127267,82.0,0.0,487.0,4357.435897435898,4168.205128205129,4322.564102564103,4814.871794871796,3786.666666666667,4225.128205128206,4249.74358974359,4080.0000000000005,4381.538461538462,4073.8461538461543,4281.538461538462,4304.102564102564,4427.6923076923085,4383.076923076924,1680.0,1681.0,1128.979,1089.8741455078125,0.0,0.0,0.0,0.0
1127267,83.0,0.0,436.0,4352.307692307693,4169.74358974359,4317.948717948719,4809.743589743591,3782.0512820512827,4216.410256410257,4244.615384615385,4077.9487179487187,4377.948717948719,4074.8717948717954,4282.051282051282,4303.076923076924,4421.025641025642,4374.358974358975,1680.0,1681.0,1128.987,1089.8741455078125,0.0,0.0,0.0,0.0
1127268,84.0,0.0,447.0,4348.205128205129,4167.179487179487,4325.128205128206,4803.076923076924,3780.0000000000005,4212.307692307693,4244.102564102564,4082.0512820512827,4382.051282051282,4078.9743589743593,4278.974358974359,4304.615384615385,4418.974358974359,4375.8974358974365,1680.0,1683.0,1128.995,1089.8741455078125,0.0,0.0,0.0,0.0
1127268,85.0,0.0,252.0,4341.025641025642,4157.948717948719,4312.307692307693,4799.48717948718,3779.48717948718,4213.846153846154,4241.025641025642,4067.692307692308,4366.153846153847,4067.1794871794878,4263.076923076924,4299.48717948718,4404.615384615385,4364.615384615385,1681.0,1682.0,1129.003,1089.8741455078125,0.0,0.0,0.0,0.0
1127268,86.0,0.0,487.0,4346.666666666667,4163.589743589744,4307.6923076923085,4810.769230769231,3781.538461538462,4208.205128205129,4243.076923076924,4075.8974358974365,4372.820512820514,4069.23076923077,4271.282051282052,4298.974358974359,4410.256410256411,4366.666666666667,1680.0,1683.0,1129.011,1089.8741455078125,0.0,0.0,0.0,0.0
1127268,87.0,0.0,436.0,4362.051282051282,4175.384615384616,4326.153846153847,4821.025641025642,3785.6410256410263,4205.128205128206,4247.6923076923085,4089.23076923077,4391.282051282052,4084.1025641025644,4289.74358974359,4307.179487179487,4434.358974358975,4385.641025641026,1681.0,1683.0,1129.019,1089.8741455078125,0.0,0.0,0.0,0.0
1127268,88.0,0.0,447.0,4366.153846153847,4171.794871794872,4328.717948717949,4817.948717948719,3785.1282051282055,4212.820512820514,4249.74358974359,4083.076923076924,4389.2307692307695,4083.589743589744,4286.666666666667,4309.2307692307695,4433.846153846154,4388.205128205129,1681.0,1683.0,1129.028,1089.8741455078125,0.0,0.0,0.0,0.0
1127268,89.0,0.0,252.0,4360.512820512821,4167.179487179487,4315.384615384616,4813.846153846154,3782.564102564103,4216.923076923077,4250.769230769231,4094.8717948717954,4392.307692307693,4075.8974358974365,4280.000000000001,4306.666666666667,4417.948717948719,4380.512820512821,1682.0,1683.0,1129.035,1089.8741455078125,0.0,0.0,0.0,0.0
1127390,90.0,0.0,487.0,4354.871794871796,4169.74358974359,4315.8974358974365,4812.820512820514,3783.589743589744,4214.871794871796,4249.74358974359,4109.2307692307695,4400.512820512821,4076.9230769230776,4280.000000000001,4308.205128205129,4417.435897435898,4379.48717948718,1682.0,1683.0,1129.043,1089.999267578125,0.0,0.0,0.0,0.0
1127390,91.0,0.0,436.0,4349.743589743591,4168.717948717949,4322.564102564103,4810.769230769231,3784.615384615385,4217.948717948719,4244.615384615385,4092.820512820513,4389.743589743591,4080.0000000000005,4275.384615384616,4306.153846153847,4422.051282051282,4376.410256410257,1682.0,1684.0,1129.051,1089.999267578125,0.0,0.0,0.0,0.0
1127390,92.0,0.0,447.0,4348.717948717949,4168.205128205129,4324.102564102564,4815.384615384616,3784.1025641025644,4217.435897435898,4241.025641025642,4073.8461538461543,4378.974358974359,4080.0000000000005,4274.871794871796,4304.615384615385,4423.589743589744,4376.410256410257,1682.0,1683.0,1129.059,1089.999267578125,0.0,0.0,0.0,0.0
1127390,93.0,0.0,252.0,4357.948717948719,4171.794871794872,4329.2307692307695,4821.538461538462,3782.0512820512827,4211.282051282052,4246.153846153847,4091.2820512820517,4393.333333333334,4084.615384615385,4286.666666666667,4309.2307692307695,4434.358974358975,4391.794871794872,1682.0,1684.0,1129.067,1089.999267578125,0.0,0.0,0.0,0.0
1127390,94.0,0.0,487.0,4364.102564102564,4170.769230769231,4330.256410256411,4817.948717948719,3781.0256410256416,4211.282051282052,4256.410256410257,4122.564102564103,4411.282051282052,4089.23076923077,4290.256410256411,4309.2307692307695,4436.923076923077,4394.358974358975,1683.0,1683.0,1129.075,1089.999267578125,0.0,0.0,0.0,0.0
1127391,95.0,0.0,436.0,4355.8974358974365,4168.205128205129,4327.6923076923085,4811.794871794872,3783.076923076924,4220.512820512821,4258.974358974359,4110.256410256411,4402.051282051282,4083.076923076924,4281.538461538462,4305.641025641026,4426.666666666667,4382.051282051282,1682.0,1684.0,1129.082,1089.999267578125,0.0,0.0,0.0,0.0
1127391,96.0,0.0,447.0,4351.282051282052,4169.74358974359,4326.666666666667,4812.820512820514,3784.615384615385,4227.6923076923085,4254.871794871796,4078.461538461539,4382.051282051282,4077.435897435898,4277.948717948719,4306.666666666667,4424.615384615385,4382.564102564103,1683.0,1683.0,1129.09,1089.999267578125,0.0,0.0,0.0,0.0
1127391,97.0,0.0,252.0,4355.8974358974365,4170.256410256411,4326.666666666667,4815.8974358974365,3785.6410256410263,4222.564102564103,4253.846153846154,4088.205128205129,4385.641025641026,4083.076923076924,4282.564102564103,4308.717948717949,4431.794871794872,4389.2307692307695,1682.0,1685.0,1129.098,1089.999267578125,0.0,0.0,0.0,0.0
1127391,98.0,0.0,487.0,4360.512820512821,4169.74358974359,4330.769230769231,4815.8974358974365,3787.1794871794878,4215.384615384616,4257.435897435898,4108.717948717949,4401.538461538462,4086.666666666667,4289.74358974359,4308.717948717949,4436.410256410257,4390.256410256411,1684.0,1685.0,1129.106,1089.999267578125,0.0,0.0,0.0,0.0
1127391,99.0,0.0,436.0,4358.974358974359,4171.282051282052,4330.256410256411,4815.384615384616,3788.205128205129,4221.538461538462,4256.410256410257,4092.307692307693,4396.923076923077,4080.5128205128212,4286.666666666667,4307.6923076923085,4434.358974358975,4385.641025641026,1683.0,1686.0,1129.114,1089.999267578125,0.0,0.0,0.0,0.0
1127392,100.0,0.0,447.0,4354.871794871796,4170.256410256411,4322.564102564103,4816.923076923077,3789.7435897435903,4233.333333333334,4252.307692307693,4077.435897435898,4386.666666666667,4075.3846153846157,4273.333333333334,4307.179487179487,4425.128205128206,4378.974358974359,1683.0,1687.0,1129.125,1089.999267578125,0.0,0.0,0.0,0.0
1127392,101.0,0.0,252.0,4353.846153846154,4168.717948717949,4323.589743589744,4817.948717948719,3790.7692307692314,4228.205128205129,4254.871794871796,4093.333333333334,4392.307692307693,4079.48717948718,4273.333333333334,4308.717948717949,4423.076923076924,4378.461538461539,1683.0,1687.0,1129.129,1089.999267578125,0.0,0.0,0.0,0.0
1127392,102.0,0.0,487.0,4350.769230769231,4169.74358974359,4328.717948717949,4814.871794871796,3789.2307692307695,4214.358974358975,4258.974358974359,4113.846153846154,4403.076923076924,4086.666666666667,4284.102564102564,4309.2307692307695,4428.205128205129,4381.025641025642,1683.0,1687.0,1129.137,1089.999267578125,0.0,0.0,0.0,0.0
1127392,103.0,0.0,436.0,4344.615384615385,4169.74358974359,4325.641025641026,4809.2307692307695,3787.692307692308,4218.461538461539,4254.871794871796,4109.74358974359,4398.461538461539,4084.615384615385,4282.564102564103,4308.717948717949,4425.128205128206,4373.846153846154,1683.0,1686.0,1129.145,1089.999267578125,0.0,0.0,0.0,0.0
1127392,104.0,0.0,447.0,4343.076923076924,4168.205128205129,4326.666666666667,4811.794871794872,3787.692307692308,4229.2307692307695,4243.076923076924,4085.6410256410263,4382.051282051282,4078.461538461539,4275.384615384616,4309.2307692307695,4423.076923076924,4364.102564102564,1682.0,1686.0,1129.152,1089.999267578125,0.0,0.0,0.0,0.0
1127393,105.0,0.0,252.0,4347.179487179487,4170.769230769231,4335.8974358974365,4821.538461538462,3785.1282051282055,4224.615384615385,4237.435897435898,4082.564102564103,4381.538461538462,4081.0256410256416,4281.538461538462,4308.717948717949,4431.794871794872,4370.769230769231,1683.0,1685.0,1129.159,1089.999267578125,0.0,0.0,0.0,0.0
1127512,106.0,0.0,487.0,4349.2307692307695,4172.820512820514,4336.410256410257,4822.051282051282,3783.589743589744,4213.333333333334,4245.128205128206,4108.205128205129,4397.435897435898,4086.666666666667,4289.74358974359,4308.717948717949,4436.410256410257,4381.538461538462,1681.0,1685.0,1129.167,1090.1243896484375,0.0,0.0,0.0,0.0
1127512,107.0,0.0,436.0,4352.820512820514,4170.769230769231,4330.769230769231,4817.435897435898,3785.1282051282055,4211.794871794872,4246.153846153847,4098.461538461539,4391.282051282052,4080.5128205128212,4284.615384615385,4307.6923076923085,4428.205128205129,4375.8974358974365,1681.0,1684.0,1129.175,1090.1243896484375,0.0,0.0,0.0,0.0
1127513,108.0,0.0,447.0,4354.871794871796,4168.205128205129,4330.256410256411,4815.8974358974365,3785.1282051282055,4213.846153846154,4238.974358974359,4070.2564102564106,4373.333333333334,4072.820512820513,4275.384615384616,4306.666666666667,4421.538461538462,4367.179487179487,1681.0,1685.0,1129.184,1090.1243896484375,0.0,0.0,0.0,0.0
1127514,109.0,0.0,252.0,4347.179487179487,4167.6923076923085,4331.282051282052,4814.871794871796,3784.1025641025644,4216.923076923077,4244.615384615385,4087.1794871794878,4382.564102564103,4078.461538461539,4278.461538461539,4309.2307692307695,4424.615384615385,4372.307692307693,1681.0,1684.0,1129.192,1090.1243896484375,0.0,0.0,0.0,0.0
1127514,110.0,0.0,487.0,4348.205128205129,4169.74358974359,4332.820512820514,4816.923076923077,3785.6410256410263,4222.051282051282,4252.820512820514,4104.102564102564,4399.48717948718,4087.1794871794878,4290.256410256411,4312.820512820514,4433.333333333334,4380.000000000001,1681.0,1684.0,1129.2,1090.1243896484375,0.0,0.0,0.0,0.0
1127515,111.0,0.0,436.0,4360.000000000001,4171.794871794872,4335.8974358974365,4823.076923076924,3787.1794871794878,4222.051282051282,4248.717948717949,4091.7948717948725,4401.025641025642,4089.23076923077,4293.846153846154,4312.307692307693,4437.948717948719,4379.48717948718,1681.0,1683.0,1129.207,1090.1243896484375,0.0,0.0,0.0,0.0
1127515,112.0,0.0,447.0,4354.871794871796,4168.717948717949,4333.333333333334,4819.48717948718,3786.1538461538466,4218.974358974359,4246.153846153847,4093.333333333334,4397.948717948719,4083.589743589744,4281.025641025642,4307.179487179487,4428.205128205129,4371.794871794872,1682.0,1684.0,1129.215,1090.1243896484375,0.0,0.0,0.0,0.0
1127515,113.0,0.0,252.0,4344.615384615385,4165.128205128206,4329.2307692307695,4812.307692307693,3784.615384615385,4221.538461538462,4245.641025641026,4105.128205128206,4397.435897435898,4078.461538461539,4271.794871794872,4305.641025641026,4421.538461538462,4365.128205128206,1682.0,1684.0,1129.224,1090.1243896484375,0.0,0.0,0.0,0.0
1127516,114.0,0.0,487.0,4349.2307692307695,4168.205128205129,4333.333333333334,4815.8974358974365,3783.589743589744,4227.6923076923085,4241.538461538462,4097.435897435898,4398.974358974359,4082.0512820512827,4280.512820512821,4310.256410256411,4429.743589743591,4366.666666666667,1681.0,1685.0,1129.23,1090.1243896484375,0.0,0.0,0.0,0.0
1127516,115.0,0.0,436.0,4352.820512820514,4171.794871794872,4335.384615384616,4821.025641025642,3786.666666666667,4226.666666666667,4241.538461538462,4089.23076923077,4399.48717948718,4087.1794871794878,4289.2307692307695,4310.769230769231,4436.410256410257,4374.871794871796,1682.0,1684.0,1129.239,1090.1243896484375,0.0,0.0,0.0,0.0
1127516,116.0,0.0,447.0,4354.358974358975,4171.282051282052,4334.358974358975,4821.025641025642,3787.1794871794878,4218.974358974359,4247.6923076923085,4095.8974358974365,4399.48717948718,4086.1538461538466,4285.641025641026,4309.2307692307695,4437.948717948719,4380.512820512821,1681.0,1686.0,1129.246,1090.1243896484375,0.0,0.0,0.0,0.0
1127516,117.0,0.0,252.0,4356.923076923077,4170.256410256411,4336.410256410257,4820.512820512821,3781.538461538462,4211.794871794872,4247.179487179487,4105.128205128206,4404.102564102564,4086.666666666667,4283.589743589744,4311.282051282052,4440.000000000001,4381.025641025642,1683.0,1685.0,1129.253,1090.1243896484375,0.0,0.0,0.0,0.0
1127516,118.0,0.0,487.0,4349.2307692307695,4169.2307692307695,4333.333333333334,4813.846153846154,3778.9743589743593,4210.769230769231,4242.051282051282,4106.666666666667,4408.717948717949,4086.666666666667,4282.051282051282,4307.6923076923085,4432.820512820514,4374.358974358975,1682.0,1685.0,1129.261,1090.1243896484375,0.0,0.0,0.0,0.0
1127517,119.0,0.0,436.0,4344.102564102564,4167.179487179487,4322.051282051282,4809.743589743591,3780.512820512821,4212.820512820514,4235.8974358974365,4097.435897435898,4401.025641025642,4079.48717948718,4272.820512820514,4300.000000000001,4419.48717948718,4365.641025641026,1682.0,1686.0,1129.269,1090.1243896484375,0.0,0.0,0.0,0.0
1127517,120.0,0.0,447.0,4351.794871794872,4167.179487179487,4323.076923076924,4813.333333333334,3779.48717948718,4212.820512820514,4232.307692307693,4088.717948717949,4389.2307692307695,4074.8717948717954,4269.2307692307695,4301.025641025642,4417.948717948719,4366.666666666667,1683.0,1685.0,1129.277,1090.1243896484375,0.0,0.0,0.0,0.0
1127517,121.0,0.0,252.0,4350.256410256411,4166.666666666667,4331.282051282052,4812.307692307693,3778.461538461539,4221.025641025642,4237.948717948719,4086.1538461538466,4386.666666666667,4077.435897435898,4271.794871794872,4303.589743589744,4419.48717948718,4370.769230769231,1682.0,1686.0,1129.284,1090.1243896484375,0.0,0.0,0.0,0.0
1127646,122.0,0.0,487.0,4345.641025641026,4166.153846153847,4327.6923076923085,4809.2307692307695,3783.076923076924,4234.871794871796,4243.589743589744,4080.0000000000005,4386.153846153847,4075.8974358974365,4268.205128205129,4301.025641025642,4414.871794871796,4367.179487179487,1682.0,1686.0,1129.292,1090.2493896484375,0.0,0.0,0.0,0.0
1127646,123.0,0.0,436.0,4354.358974358975,4170.256410256411,4326.666666666667,4815.8974358974365,3786.1538461538466,4233.333333333334,4243.589743589744,4077.435897435898,4384.102564102564,4074.358974358975,4267.6923076923085,4302.051282051282,4416.923076923077,4367.6923076923085,1682.0,1686.0,1129.3,1090.2493896484375,0.0,0.0,0.0,0.0
1127646,124.0,0.0,447.0,4363.076923076924,4172.820512820514,4338.974358974359,4822.564102564103,3784.615384615385,4218.974358974359,4242.564102564103,4087.692307692308,4386.153846153847,4079.48717948718,4277.435897435898,4308.717948717949,4427.179487179487,4380.000000000001,1683.0,1685.0,1129.308,1090.2493896484375,0.0,0.0,0.0,0.0
1127647,125.0,0.0,252.0,4360.000000000001,4171.282051282052,4344.102564102564,4818.461538461539,3783.589743589744,4204.102564102564,4241.538461538462,4098.974358974359,4395.384615384616,4083.589743589744,4287.179487179487,4313.333333333334,4433.846153846154,4388.717948717949,1681.0,1687.0,1129.316,1090.2493896484375,0.0,0.0,0.0,0.0
1127647,126.0,0.0,487.0,4354.358974358975,4170.256410256411,4338.974358974359,4813.333333333334,3783.076923076924,4204.615384615385,4242.051282051282,4102.564102564103,4404.102564102564,4083.589743589744,4287.6923076923085,4312.820512820514,4433.846153846154,4383.076923076924,1682.0,1685.0,1129.325,1090.2493896484375,0.0,0.0,0.0,0.0
1127647,127.0,0.0,436.0,4352.820512820514,4168.205128205129,4332.307692307693,4810.769230769231,3783.076923076924,4221.538461538462,4246.666666666667,4102.564102564103,4404.615384615385,4081.0256410256416,4277.948717948719,4307.6923076923085,4426.153846153847,4372.307692307693,1680.0,1685.0,1129.332,1090.2493896484375,0.0,0.0,0.0,0.0
1127647,128.0,0.0,447.0,4349.2307692307695,4161.025641025642,4322.564102564103,4806.666666666667,3783.076923076924,4224.102564102564,4246.666666666667,4100.512820512821,4395.384615384616,4075.8974358974365,4268.205128205129,4303.076923076924,4411.282051282052,4361.538461538462,1681.0,1685.0,1129.339,1090.2493896484375,0.0,0.0,0.0,0.0
1127647,0.0,0.0,475.0,4341.025641025642,4153.846153846154,4314.358974358975,4802.051282051282,3782.564102564103,4217.435897435898,4242.051282051282,4089.7435897435903,4383.589743589744,4071.7948717948725,4263.589743589744,4301.538461538462,4401.538461538462,4352.820512820514,1680.0,1684.0,1129.347,1090.2493896484375,0.0,0.0,0.0,0.0
1127647,1.0,0.0,258.0,4338.461538461539,4155.8974358974365,4316.410256410257,4799.48717948718,3781.0256410256416,4220.512820512821,4242.564102564103,4080.5128205128212,4382.564102564103,4070.2564102564106,4261.025641025642,4300.512820512821,4406.153846153847,4353.846153846154,1680.0,1686.0,1129.355,1090.2493896484375,0.0,0.0,0.0,0.0
1127647,2.0,0.0,451.0,4348.205128205129,4164.615384615385,4322.051282051282,4804.102564102564,3779.48717948718,4217.435897435898,4246.666666666667,4090.2564102564106,4393.846153846154,4074.8717948717954,4269.74358974359,4304.102564102564,4419.48717948718,4368.205128205129,1681.0,1684.0,1129.363,1090.2493896484375,0.0,0.0,0.0,0.0
1127648,3.0,0.0,357.0,4354.871794871796,4169.74358974359,4325.128205128206,4812.820512820514,3783.589743589744,4209.74358974359,4247.179487179487,4103.076923076924,4404.102564102564,4081.538461538462,4284.615384615385,4308.717948717949,4430.769230769231,4381.025641025642,1680.0,1685.0,1129.371,1090.2493896484375,0.0,0.0,0.0,0.0
1127648,4.0,0.0,456.0,4349.2307692307695,4169.74358974359,4327.179487179487,4813.333333333334,3785.6410256410263,4217.948717948719,4242.564102564103,4090.7692307692314,4396.923076923077,4078.9743589743593,4284.102564102564,4308.205128205129,4428.717948717949,4379.48717948718,1681.0,1685.0,1129.378,1090.2493896484375,0.0,0.0,0.0,0.0
1127648,5.0,0.0,548.0,4347.6923076923085,4169.2307692307695,4331.794871794872,4813.333333333334,3784.1025641025644,4224.615384615385,4241.538461538462,4083.076923076924,4390.256410256411,4077.9487179487187,4279.48717948718,4309.2307692307695,4424.102564102564,4376.923076923077,1680.0,1685.0,1129.386,1090.2493896484375,0.0,0.0,0.0,0.0
1127648,6.0,0.0,533.0,4354.358974358975,4168.205128205129,4332.820512820514,4816.410256410257,3783.589743589744,4218.974358974359,4247.6923076923085,4106.153846153847,4401.025641025642,4086.1538461538466,4277.948717948719,4308.717948717949,4419.48717948718,4375.384615384616,1681.0,1685.0,1129.394,1090.2493896484375,0.0,0.0,0.0,0.0
1127648,7.0,0.0,479.0,4355.384615384616,4166.666666666667,4326.666666666667,4813.846153846154,3786.666666666667,4223.076923076924,4250.256410256411,4113.333333333334,4405.128205128206,4085.6410256410263,4273.846153846154,4304.102564102564,4413.846153846154,4370.256410256411,1680.0,1684.0,1129.402,1090.2493896484375,0.0,0.0,0.0,0.0
1127648,8.0,0.0,423.0,4353.333333333334,4168.205128205129,4324.102564102564,4811.794871794872,3787.1794871794878,4225.641025641026,4244.615384615385,4089.23076923077,4392.820512820514,4075.8974358974365,4271.282051282052,4306.153846153847,4412.307692307693,4367.6923076923085,1682.0,1684.0,1129.41,1090.2493896484375,0.0,0.0,0.0,0.0
1127763,9.0,0.0,454.0,4358.461538461539,4169.74358974359,4330.769230769231,4812.820512820514,3786.1538461538466,4217.948717948719,4244.615384615385,4086.1538461538466,4389.2307692307695,4078.461538461539,4268.717948717949,4313.846153846154,4414.358974358975,4371.794871794872,1680.0,1684.0,1129.508,1090.37451171875,0.0,0.0,0.0,0.0
1127763,10.0,0.0,487.0,4362.051282051282,4168.205128205129,4339.48717948718,4812.820512820514,3787.1794871794878,4222.564102564103,4253.846153846154,4097.948717948719,4399.48717948718,4087.692307692308,4270.256410256411,4312.820512820514,4422.051282051282,4380.000000000001,1682.0,1685.0,1129.51,1090.37451171875,0.0,0.0,0.0,0.0
1127764,11.0,0.0,436.0,4358.974358974359,4169.2307692307695,4338.461538461539,4815.384615384616,3788.205128205129,4225.641025641026,4251.282051282052,4088.717948717949,4398.974358974359,4084.1025641025644,4280.512820512821,4307.6923076923085,4431.794871794872,4386.153846153847,1681.0,1684.0,1129.51,1090.37451171875,0.0,0.0,0.0,0.0
1127764,12.0,0.0,447.0,4354.871794871796,4168.717948717949,4328.717948717949,4815.8974358974365,3784.1025641025644,4211.794871794872,4240.000000000001,4082.0512820512827,4391.282051282052,4076.410256410257,4284.615384615385,4305.128205128206,4430.769230769231,4381.025641025642,1681.0,1685.0,1129.51,1090.37451171875,0.0,0.0,0.0,0.0
1127764,13.0,0.0,252.0,4346.666666666667,4164.615384615385,4320.000000000001,4806.666666666667,3782.564102564103,4207.6923076923085,4237.435897435898,4090.7692307692314,4387.179487179487,4073.333333333334,4272.820512820514,4302.051282051282,4416.923076923077,4366.666666666667,1681.0,1683.0,1129.51,1090.37451171875,0.0,0.0,0.0,0.0
1127764,14.0,0.0,487.0,4343.589743589744,4166.153846153847,4322.051282051282,4803.076923076924,3783.589743589744,4218.461538461539,4240.000000000001,4088.717948717949,4386.153846153847,4073.333333333334,4265.128205128206,4300.512820512821,4410.256410256411,4361.025641025642,1681.0,1684.0,1129.51,1090.37451171875,0.0,0.0,0.0,0.0
1127764,15.0,0.0,436.0,4357.435897435898,4170.256410256411,4334.871794871796,4811.282051282052,3783.589743589744,4221.025641025642,4244.615384615385,4094.8717948717954,4395.8974358974365,4081.538461538462,4277.948717948719,4305.641025641026,4421.538461538462,4373.333333333334,1681.0,1683.0,1129.51,1090.37451171875,0.0,0.0,0.0,0.0
1127764,16.0,0.0,0.0,4367.179487179487,4170.256410256411,4338.461538461539,4817.435897435898,3785.6410256410263,4220.512820512821,4251.282051282052,4107.179487179487,4409.743589743591,4090.2564102564106,4289.74358974359,4309.743589743591,4433.846153846154,4386.666666666667,1681.0,1683.0,1129.51,1090.37451171875,0.0,0.0,0.0,0.0
1127764,17.0,0.0,0.0,4357.435897435898,4168.205128205129,4329.743589743591,4816.923076923077,3789.2307692307695,4227.6923076923085,4254.358974358975,4095.8974358974365,4404.102564102564,4084.615384615385,4283.589743589744,4305.641025641026,4431.794871794872,4383.076923076924,1682.0,1683.0,1129.51,1090.37451171875,0.0,0.0,0.0,0.0
1127765,18.0,0.0,0.0,4352.307692307693,4166.666666666667,4325.128205128206,4807.179487179488,3786.666666666667,4229.2307692307695,4251.282051282052,4087.692307692308,4391.282051282052,4076.410256410257,4273.333333333334,4303.076923076924,4421.538461538462,4370.256410256411,1681.0,1682.0,1129.51,1090.37451171875,0.0,0.0,0.0,0.0
1127765,19.0,0.0,0.0,4355.384615384616,4165.128205128206,4325.641025641026,4802.564102564103,3782.564102564103,4221.025641025642,4246.153846153847,4092.820512820513,4386.153846153847,4076.410256410257,4270.769230769231,4301.538461538462,4416.923076923077,4368.717948717949,1682.0,1682.0,1129.51,1090.37451171875,0.0,0.0,0.0,0.0
1127766,20.0,0.0,0.0,4349.743589743591,4166.153846153847,4322.051282051282,4807.179487179488,3783.076923076924,4214.871794871796,4243.589743589744,4082.564102564103,4381.538461538462,4073.8461538461543,4266.666666666667,4300.000000000001,4415.8974358974365,4372.307692307693,1680.0,1683.0,1129.51,1090.37451171875,0.0,0.0,0.0,0.0
1127766,21.0,0.0,0.0,4346.153846153847,4168.205128205129,4320.000000000001,4807.6923076923085,3784.1025641025644,4214.871794871796,4243.076923076924,4082.564102564103,4383.076923076924,4071.7948717948725,4264.102564102564,4302.051282051282,4415.384615384616,4369.743589743591,1682.0,1684.0,1129.512,1090.37451171875,0.0,0.0,0.0,0.0
1127766,22.0,0.0,0.0,4349.2307692307695,4164.102564102564,4320.000000000001,4804.615384615386,3784.1025641025644,4211.282051282052,4242.564102564103,4096.923076923077,4388.205128205129,4074.8717948717954,4267.179487179487,4304.615384615385,4413.333333333334,4365.128205128206,1681.0,1683.0,1129.519,1090.37451171875,0.0,0.0,0.0,0.0
1127766,23.0,0.0,0.0,4344.615384615385,4158.974358974359,4314.358974358975,4802.564102564103,3782.564102564103,4207.179487179487,4237.435897435898,4084.615384615385,4377.435897435898,4069.7435897435903,4258.974358974359,4300.512820512821,4404.102564102564,4360.512820512821,1680.0,1685.0,1129.527,1090.37451171875,0.0,0.0,0.0,0.0
1127767,24.0,0.0,0.0,4345.641025641026,4162.051282051282,4316.410256410257,4805.641025641026,3781.538461538462,4211.794871794872,4236.923076923077,4070.7692307692314,4374.871794871796,4070.2564102564106,4253.846153846154,4302.051282051282,4401.025641025642,4358.974358974359,1682.0,1683.0,1129.535,1090.37451171875,0.0,0.0,0.0,0.0
1127892,25.0,0.0,0.0,4362.564102564103,4170.769230769231,4330.769230769231,4813.846153846154,3784.1025641025644,4217.948717948719,4241.538461538462,4082.0512820512827,4393.333333333334,4081.538461538462,4268.717948717949,4311.794871794872,4414.871794871796,4370.256410256411,1680.0,1684.0,1129.543,1090.4996337890625,0.0,0.0,0.0,0.0
1127892,26.0,0.0,0.0,4367.6923076923085,4172.820512820514,4338.461538461539,4816.923076923077,3785.6410256410263,4209.74358974359,4242.051282051282,4086.666666666667,4397.435897435898,4082.564102564103,4280.000000000001,4313.333333333334,4426.666666666667,4388.717948717949,1682.0,1684.0,1129.551,1090.4996337890625,0.0,0.0,0.0,0.0
1127892,27.0,0.0,0.0,4353.846153846154,4163.589743589744,4331.282051282052,4809.2307692307695,3784.1025641025644,4204.102564102564,4240.512820512821,4087.1794871794878,4383.076923076924,4073.8461538461543,4266.153846153847,4305.128205128206,4416.923076923077,4387.179487179487,1680.0,1683.0,1129.559,1090.4996337890625,0.0,0.0,0.0,0.0
1127892,28.0,0.0,0.0,4347.179487179487,4158.461538461539,4317.435897435898,4800.512820512821,3783.589743589744,4217.435897435898,4242.564102564103,4094.358974358975,4379.48717948718,4070.7692307692314,4252.820512820514,4298.974358974359,4402.564102564103,4367.179487179487,1681.0,1684.0,1129.567,1090.4996337890625,0.0,0.0,0.0,0.0
1127892,29.0,0.0,0.0,4354.871794871796,4163.076923076924,4313.846153846154,4804.615384615386,3785.1282051282055,4219.48717948718,4241.538461538462,4085.6410256410263,4383.076923076924,4072.307692307693,4263.076923076924,4300.512820512821,4406.666666666667,4367.179487179487,1680.0,1684.0,1129.574,1090.4996337890625,0.0,0.0,0.0,0.0
1127893,30.0,0.0,0.0,4365.128205128206,4169.74358974359,4324.615384615385,4812.820512820514,3786.666666666667,4208.205128205129,4237.948717948719,4075.3846153846157,4385.641025641026,4078.9743589743593,4278.974358974359,4308.205128205129,4427.179487179487,4386.666666666667,1681.0,1684.0,1129.582,1090.4996337890625,0.0,0.0,0.0,0.0
1127893,31.0,0.0,0.0,4368.205128205129,4169.74358974359,4333.333333333334,4813.333333333334,3782.564102564103,4208.717948717949,4241.538461538462,4081.538461538462,4389.743589743591,4083.076923076924,4280.512820512821,4312.307692307693,4435.8974358974365,4391.282051282052,1680.0,1685.0,1129.591,1090.4996337890625,0.0,0.0,0.0,0.0
1127893,32.0,0.0,0.0,4354.871794871796,4162.051282051282,4325.128205128206,4804.102564102564,3780.0000000000005,4213.846153846154,4242.051282051282,4084.1025641025644,4383.589743589744,4071.7948717948725,4268.717948717949,4305.128205128206,4416.923076923077,4375.384615384616,1680.0,1686.0,1129.598,1090.4996337890625,0.0,0.0,0.0,0.0
1127893,33.0,0.0,0.0,4346.666666666667,4160.512820512821,4316.923076923077,4805.128205128206,3780.512820512821,4214.871794871796,4236.410256410257,4081.0256410256416,4376.410256410257,4064.615384615385,4259.48717948718,4301.025641025642,4402.564102564103,4367.179487179487,1680.0,1688.0,1129.606,1090.4996337890625,0.0,0.0,0.0,0.0
1127893,34.0,0.0,0.0,4364.102564102564,4168.717948717949,4322.564102564103,4815.8974358974365,3780.512820512821,4218.461538461539,4236.923076923077,4081.538461538462,4380.000000000001,4074.8717948717954,4265.641025641026,4306.666666666667,4419.48717948718,4377.948717948719,1681.0,1687.0,1129.614,1090.4996337890625,0.0,0.0,0.0,0.0
1127894,35.0,0.0,0.0,4373.846153846154,4171.794871794872,4327.6923076923085,4814.358974358975,3781.0256410256416,4218.974358974359,4243.076923076924,4080.0000000000005,4382.051282051282,4081.0256410256416,4277.435897435898,4309.743589743591,4437.948717948719,4387.6923076923085,1681.0,1687.0,1129.621,1090.4996337890625,0.0,0.0,0.0,0.0
1127894,36.0,0.0,0.0,4363.076923076924,4169.2307692307695,4325.128205128206,4809.2307692307695,3784.1025641025644,4213.846153846154,4245.641025641026,4085.1282051282055,4386.153846153847,4079.48717948718,4278.461538461539,4308.717948717949,4434.358974358975,4387.6923076923085,1681.0,1686.0,1129.63,1090.4996337890625,0.0,0.0,0.0,0.0
1127894,37.0,0.0,0.0,4357.435897435898,4168.205128205129,4324.615384615385,4814.871794871796,3785.6410256410263,4218.974358974359,4247.179487179487,4094.8717948717954,4393.846153846154,4078.9743589743593,4271.282051282052,4308.205128205129,4424.615384615385,4385.641025641026,1681.0,1686.0,1129.638,1090.4996337890625,0.0,0.0,0.0,0.0
1127894,38.0,0.0,0.0,4356.923076923077,4159.48717948718,4322.051282051282,4810.769230769231,3783.589743589744,4229.2307692307695,4246.153846153847,4086.1538461538466,4379.48717948718,4072.307692307693,4258.974358974359,4302.051282051282,4407.6923076923085,4374.358974358975,1682.0,1686.0,1129.644,1090.4996337890625,0.0,0.0,0.0,0.0
1127894,39.0,0.0,0.0,4353.846153846154,4154.358974358975,4314.871794871796,4798.461538461539,3780.512820512821,4224.615384615385,4240.512820512821,4069.7435897435903,4362.564102564103,4063.589743589744,4251.794871794872,4297.435897435898,4395.8974358974365,4366.666666666667,1681.0,1686.0,1129.652,1090.4996337890625,0.0,0.0,0.0,0.0
1127894,40.0,0.0,0.0,4357.948717948719,4167.179487179487,4319.48717948718,4804.615384615386,3780.0000000000005,4211.282051282052,4238.974358974359,4071.7948717948725,4375.8974358974365,4070.2564102564106,4265.641025641026,4305.128205128206,4412.820512820514,4377.948717948719,1682.0,1685.0,1129.66,1090.4996337890625,0.0,0.0,0.0,0.0
1128013,41.0,0.0,0.0,4362.051282051282,4175.384615384616,4330.256410256411,4813.846153846154,3780.0000000000005,4203.076923076924,4246.666666666667,4096.410256410257,4400.512820512821,4080.5128205128212,4280.000000000001,4313.333333333334,4428.717948717949,4382.564102564103,1681.0,1685.0,1129.669,1090.624755859375,0.0,0.0,0.0,0.0
1128013,42.0,0.0,0.0,4356.410256410257,4165.641025641026,4327.6923076923085,4809.2307692307695,3779.48717948718,4202.564102564103,4249.74358974359,4114.871794871796,4405.128205128206,4078.461538461539,4272.820512820514,4309.2307692307695,4421.025641025642,4374.358974358975,1681.0,1686.0,1129.676,1090.624755859375,0.0,0.0,0.0,0.0
1128013,43.0,0.0,0.0,4354.871794871796,4158.461538461539,4320.000000000001,4806.666666666667,3781.538461538462,4210.256410256411,4243.076923076924,4090.7692307692314,4390.769230769231,4075.8974358974365,4268.205128205129,4302.051282051282,4415.8974358974365,4377.948717948719,1681.0,1684.0,1129.683,1090.624755859375,0.0,0.0,0.0,0.0
1128013,44.0,0.0,0.0,4357.948717948719,4163.076923076924,4310.256410256411,4806.666666666667,3778.9743589743593,4220.512820512821,4241.538461538462,4065.6410256410263,4378.461538461539,4075.3846153846157,4270.769230769231,4298.461538461539,4416.410256410257,4376.923076923077,1680.0,1685.0,1129.691,1090.624755859375,0.0,0.0,0.0,0.0
1128013,45.0,0.0,0.0,4354.871794871796,4162.564102564103,4300.512820512821,4801.538461538462,3774.358974358975,4216.410256410257,4246.153846153847,4084.615384615385,4383.589743589744,4074.358974358975,4264.615384615385,4296.410256410257,4407.6923076923085,4362.564102564103,1682.0,1684.0,1129.699,1090.624755859375,0.0,0.0,0.0,0.0
1128013,46.0,0.0,0.0,4352.307692307693,4156.923076923077,4303.589743589744,4801.538461538462,3776.410256410257,4205.641025641026,4248.205128205129,4101.025641025642,4395.384615384616,4074.358974358975,4262.564102564103,4300.512820512821,4410.256410256411,4368.205128205129,1681.0,1684.0,1129.707,1090.624755859375,0.0,0.0,0.0,0.0
1128014,47.0,0.0,0.0,4348.205128205129,4154.358974358975,4304.615384615385,4802.051282051282,3781.0256410256416,4212.820512820514,4245.641025641026,4069.23076923077,4381.538461538462,4068.205128205129,4259.48717948718,4301.538461538462,4410.769230769231,4372.307692307693,1681.0,1685.0,1129.717,1090.624755859375,0.0,0.0,0.0,0.0
1128014,48.0,0.0,0.0,4344.102564102564,4153.846153846154,4296.923076923077,4792.820512820514,3782.0512820512827,4225.641025641026,4241.538461538462,4047.1794871794878,4361.025641025642,4060.5128205128212,4243.589743589744,4296.410256410257,4390.769230769231,4356.923076923077,1680.0,1684.0,1129.724,1090.624755859375,0.0,0.0,0.0,0.0
1128014,49.0,0.0,0.0,4352.307692307693,4152.307692307693,4303.589743589744,4792.820512820514,3781.538461538462,4215.384615384616,4241.025641025642,4078.461538461539,4376.923076923077,4066.666666666667,4245.641025641026,4300.512820512821,4391.794871794872,4362.051282051282,1681.0,1685.0,1129.73,1090.624755859375,0.0,0.0,0.0,0.0
1128014,50.0,0.0,0.0,4363.076923076924,4155.8974358974365,4318.974358974359,4804.102564102564,3780.0000000000005,4198.974358974359,4245.128205128206,4107.179487179487,4401.025641025642,4078.9743589743593,4268.205128205129,4306.666666666667,4417.435897435898,4384.615384615385,1680.0,1685.0,1129.738,1090.624755859375,0.0,0.0,0.0,0.0
1128014,51.0,0.0,0.0,4362.051282051282,4160.512820512821,4320.512820512821,4806.666666666667,3781.0256410256416,4204.102564102564,4249.74358974359,4104.102564102564,4397.435897435898,4081.0256410256416,4277.948717948719,4305.128205128206,4422.564102564103,4389.743589743591,1680.0,1685.0,1129.746,1090.624755859375,0.0,0.0,0.0,0.0
1128014,52.0,0.0,0.0,4354.358974358975,4156.923076923077,4312.307692307693,4799.48717948718,3787.1794871794878,4221.025641025642,4252.307692307693,4087.692307692308,4375.384615384616,4073.333333333334,4263.589743589744,4300.512820512821,4404.102564102564,4378.974358974359,1680.0,1684.0,1129.754,1090.624755859375,0.0,0.0,0.0,0.0
1128014,53.0,0.0,0.0,4351.282051282052,4153.333333333334,4308.717948717949,4797.948717948719,3787.1794871794878,4224.615384615385,4255.384615384616,4081.0256410256416,4365.128205128206,4069.23076923077,4251.794871794872,4300.000000000001,4396.923076923077,4372.820512820514,1679.0,1685.0,1129.762,1090.624755859375,0.0,0.0,0.0,0.0
1128014,54.0,0.0,0.0,4356.923076923077,4160.512820512821,4316.410256410257,4802.564102564103,3784.615384615385,4212.307692307693,4252.307692307693,4098.461538461539,4386.666666666667,4077.435897435898,4260.000000000001,4304.615384615385,4407.179487179487,4375.8974358974365,1681.0,1684.0,1129.769,1090.624755859375,0.0,0.0,0.0,0.0
1128015,55.0,0.0,0.0,4359.48717948718,4166.153846153847,4322.051282051282,4801.538461538462,3785.6410256410263,4207.179487179487,4245.641025641026,4108.717948717949,4404.102564102564,4084.1025641025644,4270.769230769231,4306.153846153847,4413.846153846154,4380.000000000001,1680.0,1684.0,1129.777,1090.624755859375,0.0,0.0,0.0,0.0
1128015,56.0,0.0,0.0,4351.794871794872,4160.000000000001,4311.282051282052,4796.410256410257,3784.615384615385,4218.461538461539,4244.615384615385,4084.615384615385,4382.051282051282,4074.8717948717954,4262.564102564103,4301.025641025642,4406.153846153847,4376.923076923077,1681.0,1684.0,1129.785,1090.624755859375,0.0,0.0,0.0,0.0
1128144,57.0,0.0,0.0,4349.743589743591,4152.820512820514,4301.538461538462,4794.871794871796,3784.615384615385,4225.128205128206,4243.589743589744,4067.692307692308,4361.025641025642,4065.6410256410263,4249.2307692307695,4297.435897435898,4394.358974358975,4367.6923076923085,1680.0,1684.0,1129.793,1090.7498779296875,0.0,0.0,0.0,0.0
1128144,58.0,0.0,0.0,4361.538461538462,4157.948717948719,4309.2307692307695,4801.538461538462,3785.1282051282055,4212.820512820514,4240.512820512821,4093.8461538461543,4382.564102564103,4070.7692307692314,4254.871794871796,4303.076923076924,4401.538461538462,4370.769230769231,1681.0,1683.0,1129.801,1090.7498779296875,0.0,0.0,0.0,0.0
1128144,59.0,0.0,0.0,4365.641025641026,4168.717948717949,4320.512820512821,4806.153846153847,3783.589743589744,4203.076923076924,4246.666666666667,4112.307692307693,4402.051282051282,4081.0256410256416,4266.666666666667,4309.743589743591,4420.512820512821,4382.564102564103,1681.0,1683.0,1129.809,1090.7498779296875,0.0,0.0,0.0,0.0
1128144,60.0,0.0,0.0,4361.538461538462,4167.179487179487,4319.48717948718,4805.128205128206,3783.589743589744,4206.153846153847,4253.846153846154,4097.435897435898,4391.794871794872,4081.0256410256416,4267.6923076923085,4306.666666666667,4423.076923076924,4385.128205128206,1681.0,1684.0,1129.816,1090.7498779296875,0.0,0.0,0.0,0.0
1128144,61.0,0.0,0.0,4363.076923076924,4157.948717948719,4310.256410256411,4802.564102564103,3784.615384615385,4213.333333333334,4246.153846153847,4076.9230769230776,4376.923076923077,4073.333333333334,4260.000000000001,4301.538461538462,4409.743589743591,4380.000000000001,1681.0,1684.0,1129.824,1090.7498779296875,0.0,0.0,0.0,0.0
1128145,62.0,0.0,0.0,4360.000000000001,4155.8974358974365,4303.076923076924,4797.435897435898,3782.0512820512827,4220.512820512821,4237.948717948719,4067.1794871794878,4368.717948717949,4068.205128205129,4247.6923076923085,4301.538461538462,4402.564102564103,4376.410256410257,1681.0,1684.0,1129.832,1090.7498779296875,0.0,0.0,0.0,0.0
1128145,63.0,0.0,0.0,4361.538461538462,4167.179487179487,4310.769230769231,4800.512820512821,3778.9743589743593,4214.871794871796,4241.025641025642,4081.538461538462,4378.461538461539,4073.333333333334,4252.820512820514,4307.6923076923085,4413.846153846154,4383.589743589744,1681.0,1683.0,1129.84,1090.7498779296875,0.0,0.0,0.0,0.0
1128145,64.0,0.0,475.0,4373.846153846154,4172.820512820514,4325.128205128206,4808.717948717949,3782.564102564103,4213.333333333334,4247.179487179487,4096.410256410257,4391.794871794872,4079.48717948718,4274.358974358975,4310.256410256411,4429.743589743591,4395.384615384616,1681.0,1685.0,1129.848,1090.7498779296875,0.0,0.0,0.0,0.0
1128145,65.0,0.0,258.0,4368.205128205129,4160.512820512821,4317.948717948719,4803.589743589744,3787.692307692308,4232.820512820514,4248.205128205129,4082.0512820512827,4379.48717948718,4075.3846153846157,4270.769230769231,4302.051282051282,4417.435897435898,4387.6923076923085,1682.0,1684.0,1129.855,1090.7498779296875,0.0,0.0,0.0,0.0
1128145,66.0,0.0,451.0,4356.923076923077,4150.769230769231,4306.666666666667,4794.871794871796,3786.666666666667,4241.025641025642,4248.717948717949,4081.0256410256416,4371.282051282052,4070.7692307692314,4252.307692307693,4299.48717948718,4394.871794871796,4375.8974358974365,1680.0,1684.0,1129.863,1090.7498779296875,0.0,0.0,0.0,0.0
1128146,67.0,0.0,357.0,4367.179487179487,4160.512820512821,4317.948717948719,4798.974358974359,3784.1025641025644,4223.589743589744,4251.282051282052,4108.205128205129,4393.333333333334,4080.5128205128212,4265.641025641026,4307.179487179487,4408.717948717949,4389.2307692307695,1682.0,1684.0,1129.871,1090.7498779296875,0.0,0.0,0.0,0.0
1128146,68.0,0.0,456.0,4377.948717948719,4171.282051282052,4330.769230769231,4809.743589743591,3787.1794871794878,4212.820512820514,4249.2307692307695,4110.256410256411,4406.666666666667,4090.7692307692314,4290.256410256411,4312.307692307693,4437.948717948719,4404.615384615385,1681.0,1683.0,1129.879,1090.7498779296875,0.0,0.0,0.0,0.0
1128146,69.0,0.0,548.0,4376.923076923077,4171.282051282052,4331.282051282052,4812.307692307693,3789.7435897435903,4217.435897435898,4249.2307692307695,4093.8461538461543,4397.435897435898,4089.7435897435903,4292.307692307693,4312.820512820514,4438.461538461539,4405.128205128206,1681.0,1684.0,1129.887,1090.7498779296875,0.0,0.0,0.0,0.0
1128146,70.0,0.0,533.0,4374.871794871796,4167.179487179487,4328.205128205129,4807.6923076923085,3791.2820512820517,4216.410256410257,4251.282051282052,4098.974358974359,4391.794871794872,4083.589743589744,4283.076923076924,4312.307692307693,4425.641025641026,4400.512820512821,1681.0,1684.0,1129.895,1090.7498779296875,0.0,0.0,0.0,0.0
1128147,71.0,0.0,479.0,4366.666666666667,4157.435897435898,4322.051282051282,4801.538461538462,3791.2820512820517,4215.384615384616,4248.205128205129,4101.025641025642,4389.743589743591,4076.410256410257,4273.846153846154,4306.666666666667,4417.948717948719,4390.256410256411,1680.0,1684.0,1129.902,1090.7498779296875,0.0,0.0,0.0,0.0
1128147,72.0,0.0,423.0,4358.974358974359,4154.358974358975,4313.846153846154,4799.48717948718,3787.692307692308,4219.48717948718,4241.538461538462,4080.0000000000005,4378.461538461539,4070.2564102564106,4266.153846153847,4301.025641025642,4411.282051282052,4382.051282051282,1680.0,1683.0,1129.91,1090.7498779296875,0.0,0.0,0.0,0.0
1128264,73.0,0.0,454.0,4365.641025641026,4165.641025641026,4314.358974358975,4803.589743589744,3787.1794871794878,4215.8974358974365,4238.974358974359,4074.358974358975,4372.820512820514,4072.820512820513,4263.589743589744,4304.102564102564,4414.871794871796,4390.769230769231,1680.0,1684.0,1129.918,1090.875,0.0,0.0,0.0,0.0
1128264,74.0,0.0,487.0,4367.6923076923085,4163.589743589744,4313.333333333334,4800.512820512821,3790.7692307692314,4212.307692307693,4240.000000000001,4089.23076923077,4381.025641025642,4076.9230769230776,4264.102564102564,4306.666666666667,4420.000000000001,4397.435897435898,1680.0,1682.0,1129.926,1090.875,0.0,0.0,0.0,0.0
1128264,75.0,0.0,436.0,4361.538461538462,4151.282051282052,4307.179487179487,4793.333333333334,3789.2307692307695,4220.512820512821,4235.8974358974365,4088.205128205129,4381.025641025642,4074.358974358975,4262.564102564103,4300.512820512821,4412.307692307693,4389.743589743591,1680.0,1682.0,1129.934,1090.875,0.0,0.0,0.0,0.0
1128264,76.0,0.0,447.0,4362.051282051282,4159.48717948718,4312.307692307693,4796.923076923077,3786.1538461538466,4222.051282051282,4233.846153846154,4084.615384615385,4376.923076923077,4072.820512820513,4263.589743589744,4298.974358974359,4410.769230769231,4388.717948717949,1681.0,1683.0,1129.942,1090.875,0.0,0.0,0.0,0.0
1128265,77.0,0.0,252.0,4368.205128205129,4171.794871794872,4321.025641025642,4804.615384615386,3788.205128205129,4206.666666666667,4238.461538461539,4091.7948717948725,4385.641025641026,4079.48717948718,4268.205128205129,4308.205128205129,4419.48717948718,4396.410256410257,1680.0,1683.0,1129.949,1090.875,0.0,0.0,0.0,0.0
1128265,78.0,0.0,487.0,4369.2307692307695,4162.051282051282,4320.000000000001,4803.076923076924,3785.6410256410263,4199.48717948718,4237.948717948719,4081.538461538462,4387.6923076923085,4080.5128205128212,4273.333333333334,4309.743589743591,4420.512820512821,4396.410256410257,1681.0,1683.0,1129.958,1090.875,0.0,0.0,0.0,0.0
1128265,79.0,0.0,436.0,4365.128205128206,4153.846153846154,4316.923076923077,4797.948717948719,3786.666666666667,4208.205128205129,4234.358974358975,4066.666666666667,4377.948717948719,4072.820512820513,4274.358974358975,4304.102564102564,4416.923076923077,4390.256410256411,1680.0,1682.0,1129.965,1090.875,0.0,0.0,0.0,0.0
1128265,80.0,0.0,447.0,4362.564102564103,4163.076923076924,4314.358974358975,4801.025641025642,3796.9230769230776,4217.435897435898,4241.538461538462,4080.0000000000005,4379.48717948718,4072.820512820513,4269.2307692307695,4302.564102564103,4415.384615384616,4389.2307692307695,1680.0,1685.0,1129.973,1090.875,0.0,0.0,0.0,0.0
1128265,81.0,0.0,252.0,4363.076923076924,4167.179487179487,4308.717948717949,4804.102564102564,3801.0256410256416,4223.589743589744,4251.794871794872,4102.564102564103,4390.256410256411,4081.0256410256416,4268.205128205129,4305.641025641026,4414.358974358975,4392.307692307693,1680.0,1684.0,1129.981,1090.875,0.0,0.0,0.0,0.0
1128266,82.0,0.0,487.0,4364.102564102564,4161.538461538462,4309.743589743591,4802.564102564103,3797.435897435898,4228.717948717949,4249.2307692307695,4106.153846153847,4388.717948717949,4083.076923076924,4271.282051282052,4308.717948717949,4419.48717948718,4394.358974358975,1679.0,1685.0,1129.989,1090.875,0.0,0.0,0.0,0.0
1128266,83.0,0.0,436.0,4373.333333333334,4164.102564102564,4320.512820512821,4805.128205128206,3796.9230769230776,4225.641025641026,4246.153846153847,4100.000000000001,4385.128205128206,4083.589743589744,4272.307692307693,4310.769230769231,4428.205128205129,4399.48717948718,1680.0,1684.0,1129.996,1090.875,0.0,0.0,0.0,0.0
1128266,84.0,0.0,447.0,4386.666666666667,4171.794871794872,4329.2307692307695,4812.307692307693,3800.0000000000005,4217.948717948719,4253.846153846154,4101.538461538462,4396.410256410257,4090.7692307692314,4282.051282051282,4313.333333333334,4438.974358974359,4409.2307692307695,1680.0,1685.0,1130.004,1090.875,0.0,0.0,0.0,0.0
1128267,85.0,0.0,252.0,4376.923076923077,4170.256410256411,4325.641025641026,4813.333333333334,3800.512820512821,4220.512820512821,4257.948717948719,4103.076923076924,4397.948717948719,4087.1794871794878,4283.589743589744,4310.769230769231,4435.384615384616,4407.179487179487,1680.0,1685.0,1130.012,1090.875,0.0,0.0,0.0,0.0
1128267,86.0,0.0,487.0,4363.076923076924,4166.153846153847,4315.384615384616,4805.128205128206,3797.435897435898,4224.615384615385,4251.282051282052,4096.410256410257,4385.641025641026,4074.358974358975,4267.6923076923085,4302.564102564103,4418.461538461539,4394.871794871796,1680.0,1686.0,1130.02,1090.875,0.0,0.0,0.0,0.0
1128267,87.0,0.0,436.0,4373.846153846154,4168.717948717949,4318.461538461539,4807.179487179488,3795.3846153846157,4222.564102564103,4246.666666666667,4091.2820512820517,4387.6923076923085,4077.435897435898,4270.769230769231,4303.589743589744,4422.051282051282,4399.48717948718,1681.0,1686.0,1130.027,1090.875,0.0,0.0,0.0,0.0
1128267,88.0,0.0,447.0,4383.076923076924,4171.282051282052,4330.256410256411,4816.923076923077,3799.48717948718,4224.102564102564,4251.794871794872,4091.7948717948725,4401.538461538462,4090.2564102564106,4291.282051282052,4312.307692307693,4438.461538461539,4410.769230769231,1681.0,1686.0,1130.035,1090.875,0.0,0.0,0.0,0.0
1128392,89.0,0.0,252.0,4372.307692307693,4169.2307692307695,4328.717948717949,4812.820512820514,3801.538461538462,4231.794871794872,4254.358974358975,4087.692307692308,4396.923076923077,4086.666666666667,4287.179487179487,4312.307692307693,4429.2307692307695,4403.076923076924,1682.0,1685.0,1130.043,1091.0001220703125,0.0,0.0,0.0,0.0
1128392,90.0,0.0,487.0,4366.153846153847,4164.615384615385,4316.410256410257,4802.051282051282,3797.9487179487182,4236.923076923077,4254.358974358975,4078.461538461539,4378.974358974359,4076.9230769230776,4267.179487179487,4304.615384615385,4410.769230769231,4390.256410256411,1681.0,1685.0,1130.051,1091.0001220703125,0.0,0.0,0.0,0.0
1128392,91.0,0.0,436.0,4369.2307692307695,4167.179487179487,4318.461538461539,4803.589743589744,3797.9487179487182,4234.871794871796,4255.8974358974365,4089.23076923077,4384.615384615385,4082.564102564103,4271.282051282052,4306.153846153847,4416.410256410257,4395.384615384616,1682.0,1684.0,1130.059,1091.0001220703125,0.0,0.0,0.0,0.0
1128392,92.0,0.0,447.0,4369.2307692307695,4170.256410256411,4331.282051282052,4811.282051282052,3800.512820512821,4232.307692307693,4260.000000000001,4112.820512820514,4403.589743589744,4091.2820512820517,4286.666666666667,4312.307692307693,4428.717948717949,4405.641025641026,1681.0,1683.0,1130.067,1091.0001220703125,0.0,0.0,0.0,0.0
1128392,93.0,0.0,252.0,4372.307692307693,4168.717948717949,4331.794871794872,4813.333333333334,3802.0512820512827,4230.769230769231,4259.48717948718,4109.2307692307695,4401.025641025642,4086.666666666667,4286.153846153847,4310.769230769231,4429.2307692307695,4403.589743589744,1681.0,1682.0,1130.074,1091.0001220703125,0.0,0.0,0.0,0.0
1128392,94.0,0.0,487.0,4376.410256410257,4170.769230769231,4329.2307692307695,4818.461538461539,3802.564102564103,4229.74358974359,4255.8974358974365,4091.7948717948725,4391.794871794872,4085.6410256410263,4286.153846153847,4310.256410256411,4432.307692307693,4403.076923076924,1680.0,1683.0,1130.083,1091.0001220703125,0.0,0.0,0.0,0.0
1128393,95.0,0.0,436.0,4373.333333333334,4172.820512820514,4335.8974358974365,4821.538461538462,3801.538461538462,4233.846153846154,4262.051282051282,4107.179487179487,4407.179487179487,4092.820512820513,4295.8974358974365,4314.871794871796,4439.48717948718,4406.153846153847,1681.0,1682.0,1130.091,1091.0001220703125,0.0,0.0,0.0,0.0
1128393,96.0,0.0,447.0,4372.307692307693,4170.769230769231,4340.512820512821,4817.948717948719,3805.6410256410263,4241.538461538462,4272.307692307693,4129.74358974359,4422.051282051282,4094.358974358975,4293.846153846154,4312.820512820514,4436.923076923077,4401.025641025642,1680.0,1683.0,1130.098,1091.0001220703125,0.0,0.0,0.0,0.0
1128393,97.0,0.0,252.0,4383.076923076924,4171.282051282052,4337.435897435898,4818.461538461539,3812.307692307693,4245.128205128206,4272.820512820514,4119.48717948718,4416.410256410257,4093.333333333334,4284.102564102564,4308.717948717949,4433.846153846154,4398.974358974359,1681.0,1683.0,1130.107,1091.0001220703125,0.0,0.0,0.0,0.0
1128393,98.0,0.0,487.0,4381.025641025642,4172.820512820514,4333.333333333334,4821.025641025642,3809.2307692307695,4243.076923076924,4266.153846153847,4108.717948717949,4411.794871794872,4093.8461538461543,4285.641025641026,4307.6923076923085,4432.820512820514,4397.435897435898,1680.0,1683.0,1130.113,1091.0001220703125,0.0,0.0,0.0,0.0
1128393,99.0,0.0,436.0,4360.000000000001,4165.128205128206,4323.589743589744,4809.743589743591,3806.666666666667,4253.846153846154,4267.179487179487,4108.205128205129,4404.615384615385,4084.1025641025644,4278.461538461539,4300.512820512821,4419.48717948718,4383.589743589744,1680.0,1685.0,1130.121,1091.0001220703125,0.0,0.0,0.0,0.0
1128393,100.0,0.0,447.0,4363.076923076924,4167.179487179487,4323.589743589744,4805.641025641026,3809.2307692307695,4259.48717948718,4270.769230769231,4101.025641025642,4397.948717948719,4081.0256410256416,4268.717948717949,4300.512820512821,4416.410256410257,4381.538461538462,1680.0,1683.0,1130.129,1091.0001220703125,0.0,0.0,0.0,0.0
1128393,101.0,0.0,252.0,4388.205128205129,4181.538461538462,4341.538461538462,4824.102564102564,3812.307692307693,4241.538461538462,4271.794871794872,4105.128205128206,4409.2307692307695,4097.435897435898,4284.102564102564,4312.820512820514,4436.410256410257,4402.051282051282,1680.0,1685.0,1130.137,1091.0001220703125,0.0,0.0,0.0,0.0
1128394,102.0,0.0,487.0,4392.307692307693,4187.6923076923085,4344.615384615385,4833.846153846154,3811.2820512820517,4235.384615384616,4273.846153846154,4118.461538461539,4423.589743589744,4104.102564102564,4299.48717948718,4316.410256410257,4446.153846153847,4409.743589743591,1681.0,1684.0,1130.145,1091.0001220703125,0.0,0.0,0.0,0.0
1128394,103.0,0.0,436.0,4376.410256410257,4180.512820512821,4333.333333333334,4822.564102564103,3806.1538461538466,4242.564102564103,4265.128205128206,4109.74358974359,4418.461538461539,4092.307692307693,4292.820512820514,4307.179487179487,4441.025641025642,4399.48717948718,1681.0,1685.0,1130.153,1091.0001220703125,0.0,0.0,0.0,0.0
1128394,104.0,0.0,447.0,4370.769230769231,4171.282051282052,4326.666666666667,4816.410256410257,3800.0000000000005,4238.461538461539,4253.333333333334,4090.7692307692314,4402.564102564103,4083.589743589744,4285.641025641026,4303.076923076924,4437.435897435898,4393.333333333334,1681.0,1685.0,1130.16,1091.0001220703125,0.0,0.0,0.0,0.0
1128520,105.0,0.0,252.0,4376.923076923077,4169.74358974359,4325.641025641026,4817.435897435898,3799.48717948718,4235.384615384616,4254.358974358975,4100.000000000001,4404.102564102564,4087.692307692308,4290.256410256411,4306.666666666667,4437.948717948719,4396.923076923077,1681.0,1685.0,1130.168,1091.125244140625,0.0,0.0,0.0,0.0
1128520,106.0,0.0,487.0,4372.820512820514,4168.717948717949,4322.051282051282,4814.871794871796,3795.8974358974365,4237.948717948719,4255.8974358974365,4116.923076923077,4413.846153846154,4087.692307692308,4289.74358974359,4306.666666666667,4432.820512820514,4396.923076923077,1682.0,1685.0,1130.176,1091.125244140625,0.0,0.0,0.0,0.0
1128520,107.0,0.0,436.0,4360.512820512821,4158.974358974359,4312.307692307693,4805.641025641026,3784.1025641025644,4228.205128205129,4244.615384615385,4104.615384615385,4401.025641025642,4074.8717948717954,4269.2307692307695,4297.948717948719,4415.384615384616,4380.512820512821,1680.0,1686.0,1130.184,1091.125244140625,0.0,0.0,0.0,0.0
1128520,108.0,0.0,447.0,4362.564102564103,4156.410256410257,4303.589743589744,4800.000000000001,3783.076923076924,4220.000000000001,4238.974358974359,4079.48717948718,4381.025641025642,4066.1538461538466,4256.410256410257,4293.333333333334,4403.076923076924,4368.717948717949,1681.0,1686.0,1130.192,1091.125244140625,0.0,0.0,0.0,0.0
1128521,109.0,0.0,252.0,4377.435897435898,4168.205128205129,4312.307692307693,4806.153846153847,3787.1794871794878,4219.48717948718,4242.051282051282,4077.435897435898,4387.179487179487,4077.9487179487187,4271.794871794872,4304.615384615385,4417.435897435898,4385.128205128206,1681.0,1685.0,1130.2,1091.125244140625,0.0,0.0,0.0,0.0
1128521,110.0,0.0,487.0,4374.358974358975,4172.820512820514,4325.128205128206,4811.282051282052,3784.615384615385,4215.8974358974365,4244.615384615385,4096.923076923077,4401.538461538462,4088.717948717949,4285.641025641026,4312.307692307693,4431.794871794872,4397.948717948719,1681.0,1687.0,1130.208,1091.125244140625,0.0,0.0,0.0,0.0
1128521,111.0,0.0,436.0,4360.512820512821,4167.179487179487,4321.025641025642,4807.179487179488,3786.1538461538466,4213.846153846154,4249.2307692307695,4106.153846153847,4398.974358974359,4081.0256410256416,4278.461538461539,4304.615384615385,4425.641025641026,4390.769230769231,1682.0,1685.0,1130.215,1091.125244140625,0.0,0.0,0.0,0.0
1128521,112.0,0.0,447.0,4370.769230769231,4169.2307692307695,4321.025641025642,4807.6923076923085,3791.2820512820517,4212.820512820514,4250.256410256411,4101.025641025642,4401.538461538462,4079.48717948718,4283.076923076924,4305.641025641026,4430.256410256411,4396.923076923077,1681.0,1686.0,1130.224,1091.125244140625,0.0,0.0,0.0,0.0
1128521,113.0,0.0,252.0,4381.025641025642,4169.2307692307695,4326.153846153847,4809.743589743591,3787.1794871794878,4213.846153846154,4243.589743589744,4090.7692307692314,4405.641025641026,4085.1282051282055,4288.717948717949,4310.256410256411,4435.384615384616,4403.076923076924,1683.0,1686.0,1130.231,1091.125244140625,0.0,0.0,0.0,0.0
1128521,114.0,0.0,487.0,4374.358974358975,4166.666666666667,4320.512820512821,4806.666666666667,3787.1794871794878,4218.461538461539,4242.051282051282,4091.7948717948725,4395.8974358974365,4081.538461538462,4275.384615384616,4304.615384615385,4423.076923076924,4390.256410256411,1681.0,1686.0,1130.24,1091.125244140625,0.0,0.0,0.0,0.0
1128521,115.0,0.0,436.0,4366.666666666667,4167.6923076923085,4315.384615384616,4805.641025641026,3791.7948717948725,4222.051282051282,4249.74358974359,4098.461538461539,4389.2307692307695,4076.9230769230776,4271.282051282052,4300.512820512821,4415.384615384616,4384.102564102564,1682.0,1686.0,1130.246,1091.125244140625,0.0,0.0,0.0,0.0
1128521,116.0,0.0,447.0,4362.564102564103,4164.102564102564,4314.871794871796,4804.615384615386,3788.205128205129,4221.025641025642,4250.769230769231,4089.7435897435903,4387.6923076923085,4078.461538461539,4275.384615384616,4301.025641025642,4415.8974358974365,4384.615384615385,1682.0,1685.0,1130.254,1091.125244140625,0.0,0.0,0.0,0.0
1128522,117.0,0.0,252.0,4366.153846153847,4162.051282051282,4316.410256410257,4803.589743589744,3788.205128205129,4221.025641025642,4246.666666666667,4084.1025641025644,4389.2307692307695,4079.48717948718,4272.307692307693,4301.538461538462,4416.410256410257,4381.538461538462,1682.0,1685.0,1130.262,1091.125244140625,0.0,0.0,0.0,0.0
1128522,118.0,0.0,487.0,4375.8974358974365,4167.179487179487,4320.000000000001,4809.743589743591,3794.8717948717954,4221.538461538462,4248.717948717949,4092.820512820513,4389.2307692307695,4079.48717948718,4272.820512820514,4300.512820512821,4415.8974358974365,4383.589743589744,1681.0,1685.0,1130.27,1091.125244140625,0.0,0.0,0.0,0.0
1128522,119.0,0.0,436.0,4378.461538461539,4171.282051282052,4320.512820512821,4810.769230769231,3792.820512820513,4216.410256410257,4248.205128205129,4093.8461538461543,4388.717948717949,4081.538461538462,4275.8974358974365,4302.564102564103,4420.512820512821,4388.717948717949,1681.0,1686.0,1130.279,1091.125244140625,0.0,0.0,0.0,0.0
1128522,120.0,0.0,447.0,4376.923076923077,4170.256410256411,4320.512820512821,4809.743589743591,3785.6410256410263,4214.871794871796,4243.076923076924,4084.615384615385,4392.307692307693,4083.589743589744,4275.8974358974365,4308.205128205129,4429.2307692307695,4393.846153846154,1681.0,1685.0,1130.286,1091.125244140625,0.0,0.0,0.0,0.0
1128647,121.0,0.0,252.0,4382.051282051282,4170.769230769231,4324.102564102564,4814.871794871796,3787.692307692308,4216.923076923077,4242.564102564103,4086.1538461538466,4398.974358974359,4087.1794871794878,4285.128205128206,4308.717948717949,4436.410256410257,4402.051282051282,1681.0,1687.0,1130.293,1091.250244140625,0.0,0.0,0.0,0.0
1128648,122.0,0.0,487.0,4382.564102564103,4171.282051282052,4325.128205128206,4813.846153846154,3791.2820512820517,4214.871794871796,4243.076923076924,4093.333333333334,4401.025641025642,4085.6410256410263,4293.846153846154,4306.153846153847,4433.333333333334,4401.025641025642,1681.0,1685.0,1130.301,1091.250244140625,0.0,0.0,0.0,0.0
1128648,123.0,0.0,436.0,4375.384615384616,4168.717948717949,4323.076923076924,4809.2307692307695,3788.205128205129,4213.333333333334,4244.102564102564,4098.461538461539,4396.923076923077,4081.0256410256416,4283.076923076924,4306.153846153847,4424.615384615385,4393.333333333334,1680.0,1686.0,1130.309,1091.250244140625,0.0,0.0,0.0,0.0
1128649,124.0,0.0,447.0,4376.923076923077,4167.6923076923085,4325.128205128206,4810.769230769231,3790.7692307692314,4219.48717948718,4248.205128205129,4092.307692307693,4390.256410256411,4083.076923076924,4272.307692307693,4305.641025641026,4424.102564102564,4394.871794871796,1682.0,1685.0,1130.317,1091.250244140625,0.0,0.0,0.0,0.0
1128649,125.0,0.0,252.0,4383.076923076924,4169.74358974359,4330.769230769231,4813.333333333334,3796.410256410257,4227.179487179487,4249.74358974359,4073.333333333334,4385.128205128206,4087.692307692308,4280.000000000001,4306.153846153847,4431.282051282052,4402.051282051282,1681.0,1685.0,1130.325,1091.250244140625,0.0,0.0,0.0,0.0
1128649,126.0,0.0,487.0,4387.179487179487,4173.846153846154,4334.871794871796,4815.8974358974365,3795.3846153846157,4226.666666666667,4251.282051282052,4072.820512820513,4389.2307692307695,4086.666666666667,4290.256410256411,4310.769230769231,4435.8974358974365,4405.641025641026,1681.0,1685.0,1130.332,1091.250244140625,0.0,0.0,0.0,0.0
1128649,127.0,0.0,436.0,4387.6923076923085,4168.717948717949,4333.333333333334,4815.8974358974365,3793.333333333334,4222.564102564103,4254.358974358975,4092.307692307693,4392.820512820514,4084.615384615385,4282.051282051282,4311.282051282052,4429.2307692307695,4402.564102564103,1681.0,1684.0,1130.341,1091.250244140625,0.0,0.0,0.0,0.0
1128649,128.0,0.0,447.0,4388.205128205129,4168.717948717949,4334.871794871796,4812.307692307693,3795.3846153846157,4216.410256410257,4253.846153846154,4105.128205128206,4397.435897435898,4092.307692307693,4278.461538461539,4311.282051282052,4430.256410256411,4406.153846153847,1681.0,1685.0,1130.348,1091.250244140625,0.0,0.0,0.0,0.0
1128649,0.0,0.0,475.0,4392.307692307693,4178.461538461539,4344.615384615385,4818.461538461539,3798.9743589743593,4216.923076923077,4250.769230769231,4100.512820512821,4405.641025641026,4098.974358974359,4291.794871794872,4315.8974358974365,4447.179487179487,4421.538461538462,1681.0,1684.0,1130.357,1091.250244140625,0.0,0.0,0.0,0.0
1128649,1.0,0.0,258.0,4392.307692307693,4177.435897435898,4344.102564102564,4825.128205128206,3797.9487179487182,4222.051282051282,4251.794871794872,4088.717948717949,4401.538461538462,4090.7692307692314,4297.435897435898,4315.8974358974365,4449.2307692307695,4423.076923076924,1681.0,1685.0,1130.364,1091.250244140625,0.0,0.0,0.0,0.0
1128650,2.0,0.0,451.0,4388.717948717949,4168.205128205129,4337.435897435898,4818.461538461539,3794.8717948717954,4220.512820512821,4255.384615384616,4095.8974358974365,4396.923076923077,4084.615384615385,4290.769230769231,4311.794871794872,4441.025641025642,4412.307692307693,1680.0,1684.0,1130.375,1091.250244140625,0.0,0.0,0.0,0.0
1128650,3.0,0.0,357.0,4390.256410256411,4169.74358974359,4338.461538461539,4815.384615384616,3796.9230769230776,4225.128205128206,4261.025641025642,4113.846153846154,4404.615384615385,4092.820512820513,4288.205128205129,4311.794871794872,4440.512820512821,4411.794871794872,1680.0,1684.0,1130.379,1091.250244140625,0.0,0.0,0.0,0.0
1128650,4.0,0.0,456.0,4392.820512820514,4173.846153846154,4337.948717948719,4822.564102564103,3800.512820512821,4232.820512820514,4262.564102564103,4111.794871794872,4405.641025641026,4095.8974358974365,4287.179487179487,4312.307692307693,4444.102564102564,4414.358974358975,1681.0,1684.0,1130.387,1091.250244140625,0.0,0.0,0.0,0.0
1128650,5.0,0.0,548.0,4389.2307692307695,4170.769230769231,4331.282051282052,4820.000000000001,3796.9230769230776,4229.2307692307695,4254.358974358975,4088.717948717949,4390.769230769231,4087.692307692308,4282.564102564103,4309.743589743591,4443.589743589744,4406.666666666667,1680.0,1684.0,1130.395,1091.250244140625,0.0,0.0,0.0,0.0
1128650,6.0,0.0,533.0,4384.615384615385,4169.74358974359,4325.128205128206,4810.256410256411,3792.307692307693,4225.641025641026,4249.2307692307695,4078.461538461539,4383.076923076924,4083.589743589744,4280.000000000001,4304.615384615385,4438.461538461539,4400.512820512821,1682.0,1684.0,1130.403,1091.250244140625,0.0,0.0,0.0,0.0
1128651,7.0,0.0,479.0,4376.923076923077,4167.179487179487,4317.435897435898,4808.717948717949,3792.307692307693,4225.128205128206,4248.717948717949,4087.1794871794878,4389.743589743591,4082.0512820512827,4275.384615384616,4300.512820512821,4428.205128205129,4395.384615384616,1681.0,1683.0,1130.411,1091.250244140625,0.0,0.0,0.0,0.0
1128770,8.0,0.0,423.0,4373.333333333334,4165.641025641026,4322.051282051282,4814.358974358975,3793.8461538461543,4224.615384615385,4251.282051282052,4097.435897435898,4398.461538461539,4082.0512820512827,4274.871794871796,4304.102564102564,4429.2307692307695,4397.948717948719,1681.0,1684.0,1130.418,1091.3753662109375,0.0,0.0,0.0,0.0
1128770,9.0,0.0,454.0,4393.846153846154,4180.512820512821,4343.076923076924,4822.051282051282,3798.9743589743593,4225.641025641026,4257.948717948719,4102.051282051282,4408.205128205129,4095.8974358974365,4293.846153846154,4315.8974358974365,4453.846153846154,4422.051282051282,1681.0,1683.0,1130.427,1091.3753662109375,0.0,0.0,0.0,0.0
1128770,10.0,0.0,487.0,4410.256410256411,4187.179487179487,4349.743589743591,4826.153846153847,3803.076923076924,4221.025641025642,4264.102564102564,4106.153846153847,4416.923076923077,4106.666666666667,4308.717948717949,4318.461538461539,4466.153846153847,4436.923076923077,1681.0,1684.0,1130.434,1091.3753662109375,0.0,0.0,0.0,0.0
1128770,11.0,0.0,436.0,4399.48717948718,4173.333333333334,4343.589743589744,4821.025641025642,3801.0256410256416,4221.025641025642,4267.179487179487,4116.923076923077,4422.564102564103,4101.538461538462,4302.051282051282,4314.358974358975,4453.846153846154,4424.102564102564,1682.0,1683.0,1130.442,1091.3753662109375,0.0,0.0,0.0,0.0
1128771,12.0,0.0,447.0,4388.717948717949,4167.6923076923085,4346.153846153847,4815.384615384616,3797.435897435898,4231.282051282052,4267.179487179487,4115.8974358974365,4421.538461538462,4094.8717948717954,4293.333333333334,4313.333333333334,4446.153846153847,4415.8974358974365,1681.0,1684.0,1130.45,1091.3753662109375,0.0,0.0,0.0,0.0
1128771,13.0,0.0,252.0,4392.820512820514,4175.384615384616,4348.205128205129,4820.000000000001,3795.8974358974365,4224.615384615385,4259.48717948718,4099.48717948718,4412.820512820514,4093.8461538461543,4293.333333333334,4312.307692307693,4446.666666666667,4420.512820512821,1681.0,1683.0,1130.458,1091.3753662109375,0.0,0.0,0.0,0.0
1128771,14.0,0.0,487.0,4393.846153846154,4173.333333333334,4339.48717948718,4821.538461538462,3795.8974358974365,4212.307692307693,4255.8974358974365,4091.2820512820517,4403.589743589744,4091.2820512820517,4290.256410256411,4309.743589743591,4441.538461538462,4418.974358974359,1680.0,1684.0,1130.465,1091.3753662109375,0.0,0.0,0.0,0.0
1128772,15.0,0.0,436.0,4384.615384615385,4166.666666666667,4332.307692307693,4814.871794871796,3792.307692307693,4220.000000000001,4257.435897435898,4096.923076923077,4398.974358974359,4087.692307692308,4278.974358974359,4306.666666666667,4430.256410256411,4408.717948717949,1680.0,1684.0,1130.474,1091.3753662109375,0.0,0.0,0.0,0.0
1128772,16.0,0.0,0.0,4380.512820512821,4167.179487179487,4333.333333333334,4812.307692307693,3789.7435897435903,4227.179487179487,4253.333333333334,4103.076923076924,4398.974358974359,4087.692307692308,4274.871794871796,4304.615384615385,4424.102564102564,4401.025641025642,1680.0,1684.0,1130.481,1091.3753662109375,0.0,0.0,0.0,0.0
1128772,17.0,0.0,0.0,4390.256410256411,4171.282051282052,4339.48717948718,4817.435897435898,3795.8974358974365,4225.641025641026,4252.820512820514,4095.8974358974365,4398.974358974359,4089.7435897435903,4283.076923076924,4306.666666666667,4427.6923076923085,4404.615384615385,1680.0,1684.0,1130.489,1091.3753662109375,0.0,0.0,0.0,0.0
1128772,18.0,0.0,0.0,4398.974358974359,4174.358974358975,4343.076923076924,4821.025641025642,3801.538461538462,4226.666666666667,4262.051282051282,4091.7948717948725,4401.025641025642,4091.2820512820517,4290.256410256411,4310.769230769231,4436.410256410257,4413.846153846154,1681.0,1684.0,1130.497,1091.3753662109375,0.0,0.0,0.0,0.0
1128772,19.0,0.0,0.0,4391.282051282052,4171.282051282052,4338.974358974359,4816.410256410257,3798.461538461539,4226.153846153847,4264.615384615385,4100.000000000001,4403.076923076924,4089.23076923077,4287.6923076923085,4310.256410256411,4432.820512820514,4410.769230769231,1680.0,1684.0,1130.504,1091.3753662109375,0.0,0.0,0.0,0.0
1128773,20.0,0.0,0.0,4384.102564102564,4166.153846153847,4331.282051282052,4811.794871794872,3791.7948717948725,4222.051282051282,4255.384615384616,4102.564102564103,4398.974358974359,4082.564102564103,4281.538461538462,4304.102564102564,4419.48717948718,4397.435897435898,1680.0,1685.0,1130.512,1091.3753662109375,0.0,0.0,0.0,0.0
1128773,21.0,0.0,0.0,4391.794871794872,4167.179487179487,4331.282051282052,4816.923076923077,3788.717948717949,4218.461538461539,4250.769230769231,4094.8717948717954,4397.948717948719,4085.1282051282055,4282.564102564103,4304.615384615385,4423.076923076924,4400.000000000001,1680.0,1684.0,1130.52,1091.3753662109375,0.0,0.0,0.0,0.0
1128773,22.0,0.0,0.0,4395.384615384616,4171.794871794872,4342.051282051282,4823.076923076924,3793.333333333334,4216.923076923077,4257.435897435898,4095.3846153846157,4403.589743589744,4092.820512820513,4287.6923076923085,4310.769230769231,4436.923076923077,4411.794871794872,1680.0,1685.0,1130.528,1091.3753662109375,0.0,0.0,0.0,0.0
1128773,23.0,0.0,0.0,4390.769230769231,4173.333333333334,4343.076923076924,4820.000000000001,3800.0000000000005,4221.025641025642,4265.128205128206,4104.102564102564,4408.205128205129,4093.333333333334,4288.717948717949,4310.256410256411,4435.8974358974365,4410.769230769231,1682.0,1685.0,1130.536,1091.3753662109375,0.0,0.0,0.0,0.0
1128894,24.0,0.0,0.0,4392.820512820514,4170.769230769231,4336.923076923077,4816.410256410257,3798.9743589743593,4224.102564102564,4263.076923076924,4105.641025641026,4408.717948717949,4089.7435897435903,4289.2307692307695,4309.2307692307695,4432.307692307693,4406.153846153847,1680.0,1686.0,1130.544,1091.50048828125,0.0,0.0,0.0,0.0
1128894,25.0,0.0,0.0,4398.461538461539,4169.2307692307695,4338.974358974359,4816.923076923077,3797.435897435898,4226.666666666667,4263.076923076924,4101.025641025642,4408.205128205129,4092.307692307693,4294.358974358975,4311.794871794872,4436.923076923077,4411.794871794872,1681.0,1686.0,1130.551,1091.50048828125,0.0,0.0,0.0,0.0
1128894,26.0,0.0,0.0,4395.8974358974365,4171.794871794872,4341.538461538462,4819.48717948718,3799.48717948718,4231.794871794872,4264.615384615385,4099.48717948718,4408.717948717949,4094.8717948717954,4295.8974358974365,4313.333333333334,4440.000000000001,4417.435897435898,1681.0,1685.0,1130.559,1091.50048828125,0.0,0.0,0.0,0.0
1128894,27.0,0.0,0.0,4391.794871794872,4172.307692307693,4334.358974358975,4822.051282051282,3794.8717948717954,4223.076923076924,4258.974358974359,4108.717948717949,4413.846153846154,4094.8717948717954,4291.794871794872,4311.282051282052,4439.48717948718,4416.923076923077,1681.0,1687.0,1130.567,1091.50048828125,0.0,0.0,0.0,0.0
1128895,28.0,0.0,0.0,4391.282051282052,4169.2307692307695,4330.769230769231,4818.974358974359,3792.307692307693,4212.307692307693,4256.410256410257,4115.384615384616,4417.435897435898,4094.358974358975,4290.256410256411,4307.179487179487,4437.435897435898,4413.846153846154,1681.0,1685.0,1130.576,1091.50048828125,0.0,0.0,0.0,0.0
1128895,29.0,0.0,0.0,4390.256410256411,4173.333333333334,4337.948717948719,4817.435897435898,3798.461538461539,4224.615384615385,4263.076923076924,4110.769230769231,4415.384615384616,4093.333333333334,4294.871794871796,4305.641025641026,4437.948717948719,4412.820512820514,1681.0,1686.0,1130.583,1091.50048828125,0.0,0.0,0.0,0.0
1128895,30.0,0.0,0.0,4390.769230769231,4182.051282051282,4343.589743589744,4821.538461538462,3800.512820512821,4238.974358974359,4263.589743589744,4101.538461538462,4412.307692307693,4091.7948717948725,4297.948717948719,4309.2307692307695,4442.051282051282,4416.410256410257,1682.0,1686.0,1130.591,1091.50048828125,0.0,0.0,0.0,0.0
1128896,31.0,0.0,0.0,4396.410256410257,4179.48717948718,4337.948717948719,4825.128205128206,3798.461538461539,4229.2307692307695,4257.948717948719,4093.8461538461543,4409.743589743591,4092.307692307693,4295.384615384616,4310.769230769231,4440.000000000001,4415.384615384616,1681.0,1687.0,1130.598,1091.50048828125,0.0,0.0,0.0,0.0
1128896,32.0,0.0,0.0,4395.8974358974365,4169.2307692307695,4325.641025641026,4818.974358974359,3798.461538461539,4224.102564102564,4263.589743589744,4101.538461538462,4410.256410256411,4092.307692307693,4288.717948717949,4307.179487179487,4431.282051282052,4404.102564102564,1681.0,1686.0,1130.607,1091.50048828125,0.0,0.0,0.0,0.0
1128896,33.0,0.0,0.0,4387.6923076923085,4166.666666666667,4321.025641025642,4811.794871794872,3796.410256410257,4233.333333333334,4267.6923076923085,4113.846153846154,4409.2307692307695,4089.7435897435903,4281.538461538462,4304.615384615385,4426.666666666667,4397.948717948719,1681.0,1687.0,1130.614,1091.50048828125,0.0,0.0,0.0,0.0
1128897,34.0,0.0,0.0,4387.179487179487,4171.794871794872,4329.2307692307695,4815.384615384616,3795.3846153846157,4229.74358974359,4261.025641025642,4106.153846153847,4403.589743589744,4087.1794871794878,4282.564102564103,4307.6923076923085,4427.179487179487,4402.051282051282,1682.0,1686.0,1130.626,1091.50048828125,0.0,0.0,0.0,0.0
1128897,35.0,0.0,0.0,4397.435897435898,4173.333333333334,4335.8974358974365,4824.102564102564,3800.0000000000005,4217.435897435898,4265.128205128206,4110.256410256411,4412.820512820514,4094.8717948717954,4293.846153846154,4312.820512820514,4436.410256410257,4411.794871794872,1680.0,1686.0,1130.63,1091.50048828125,0.0,0.0,0.0,0.0
1128897,36.0,0.0,0.0,4395.8974358974365,4170.769230769231,4331.794871794872,4820.000000000001,3801.0256410256416,4216.923076923077,4273.846153846154,4135.384615384616,4428.205128205129,4102.051282051282,4296.923076923077,4310.769230769231,4444.615384615385,4414.871794871796,1682.0,1686.0,1130.638,1091.50048828125,0.0,0.0,0.0,0.0
1128897,37.0,0.0,0.0,4381.025641025642,4168.205128205129,4320.512820512821,4809.743589743591,3798.461538461539,4231.794871794872,4269.2307692307695,4119.48717948718,4413.846153846154,4091.2820512820517,4279.48717948718,4302.564102564103,4429.743589743591,4403.076923076924,1681.0,1685.0,1130.646,1091.50048828125,0.0,0.0,0.0,0.0
1128897,38.0,0.0,0.0,4378.974358974359,4169.2307692307695,4316.923076923077,4813.846153846154,3800.0000000000005,4236.923076923077,4261.538461538462,4079.48717948718,4389.743589743591,4082.564102564103,4269.74358974359,4301.538461538462,4416.923076923077,4394.871794871796,1681.0,1685.0,1130.653,1091.50048828125,0.0,0.0,0.0,0.0
1128897,39.0,0.0,0.0,4389.2307692307695,4172.307692307693,4322.051282051282,4821.538461538462,3800.512820512821,4230.769230769231,4265.128205128206,4091.2820512820517,4399.48717948718,4087.692307692308,4278.461538461539,4303.589743589744,4426.153846153847,4403.076923076924,1681.0,1683.0,1130.661,1091.50048828125,0.0,0.0,0.0,0.0
1129015,40.0,0.0,0.0,4389.2307692307695,4169.74358974359,4317.435897435898,4814.871794871796,3795.8974358974365,4227.179487179487,4266.153846153847,4115.8974358974365,4411.794871794872,4089.23076923077,4276.923076923077,4301.538461538462,4425.641025641026,4404.102564102564,1680.0,1685.0,1130.669,1091.6256103515625,0.0,0.0,0.0,0.0
1129015,41.0,0.0,0.0,4379.48717948718,4166.153846153847,4306.666666666667,4807.179487179488,3793.333333333334,4225.128205128206,4257.435897435898,4094.358974358975,4397.435897435898,4081.538461538462,4266.666666666667,4301.538461538462,4410.769230769231,4390.256410256411,1681.0,1683.0,1130.677,1091.6256103515625,0.0,0.0,0.0,0.0
1129015,42.0,0.0,0.0,4378.461538461539,4166.666666666667,4310.256410256411,4807.179487179488,3792.820512820513,4223.589743589744,4253.846153846154,4087.1794871794878,4391.794871794872,4081.0256410256416,4267.6923076923085,4307.179487179487,4409.743589743591,4387.6923076923085,1681.0,1684.0,1130.684,1091.6256103515625,0.0,0.0,0.0,0.0
1129016,43.0,0.0,0.0,4386.666666666667,4168.717948717949,4318.974358974359,4808.717948717949,3792.307692307693,4222.051282051282,4257.948717948719,4115.384615384616,4406.666666666667,4087.692307692308,4274.871794871796,4311.794871794872,4416.923076923077,4397.435897435898,1681.0,1684.0,1130.692,1091.6256103515625,0.0,0.0,0.0,0.0
1129016,44.0,0.0,0.0,4392.307692307693,4170.769230769231,4317.948717948719,4813.846153846154,3793.333333333334,4223.076923076924,4258.974358974359,4110.769230769231,4408.205128205129,4088.717948717949,4276.923076923077,4313.333333333334,4418.974358974359,4403.076923076924,1680.0,1684.0,1130.7,1091.6256103515625,0.0,0.0,0.0,0.0
1129017,45.0,0.0,0.0,4398.461538461539,4173.333333333334,4323.589743589744,4820.512820512821,3798.461538461539,4223.589743589744,4258.974358974359,4090.2564102564106,4401.025641025642,4091.7948717948725,4283.076923076924,4315.384615384616,4430.256410256411,4410.769230769231,1681.0,1683.0,1130.709,1091.6256103515625,0.0,0.0,0.0,0.0
1129017,46.0,0.0,0.0,4403.076923076924,4171.282051282052,4331.794871794872,4821.025641025642,3800.512820512821,4223.589743589744,4264.615384615385,4104.615384615385,4404.615384615385,4096.410256410257,4287.179487179487,4313.333333333334,4440.512820512821,4413.846153846154,1680.0,1684.0,1130.716,1091.6256103515625,0.0,0.0,0.0,0.0
1129017,47.0,0.0,0.0,4403.076923076924,4171.794871794872,4331.282051282052,4820.512820512821,3798.9743589743593,4224.615384615385,4271.282051282052,4124.615384615385,4411.282051282052,4095.8974358974365,4287.6923076923085,4313.333333333334,4440.000000000001,4409.2307692307695,1682.0,1683.0,1130.723,1091.6256103515625,0.0,0.0,0.0,0.0
1129018,48.0,0.0,0.0,4405.641025641026,4182.564102564103,4333.333333333334,4826.153846153847,3800.512820512821,4226.153846153847,4274.358974358975,4126.153846153847,4416.923076923077,4096.923076923077,4294.871794871796,4318.461538461539,4444.615384615385,4415.384615384616,1680.0,1683.0,1130.731,1091.6256103515625,0.0,0.0,0.0,0.0
1129018,49.0,0.0,0.0,4410.256410256411,4184.102564102564,4338.974358974359,4829.2307692307695,3801.538461538462,4228.205128205129,4277.435897435898,4128.205128205129,4428.205128205129,4106.666666666667,4305.128205128206,4321.538461538462,4456.923076923077,4427.6923076923085,1681.0,1685.0,1130.74,1091.6256103515625,0.0,0.0,0.0,0.0
1129018,50.0,0.0,0.0,4402.051282051282,4170.256410256411,4334.358974358975,4822.564102564103,3800.0000000000005,4228.205128205129,4282.051282051282,4132.820512820514,4430.256410256411,4109.74358974359,4301.025641025642,4316.410256410257,4455.8974358974365,4421.538461538462,1682.0,1683.0,1130.747,1091.6256103515625,0.0,0.0,0.0,0.0
1129018,51.0,0.0,0.0,4390.769230769231,4164.615384615385,4322.564102564103,4814.358974358975,3801.0256410256416,4229.2307692307695,4277.948717948719,4129.2307692307695,4420.000000000001,4097.948717948719,4289.2307692307695,4307.6923076923085,4438.461538461539,4403.589743589744,1680.0,1684.0,1130.756,1091.6256103515625,0.0,0.0,0.0,0.0
1129018,52.0,0.0,0.0,4388.717948717949,4170.769230769231,4318.461538461539,4812.307692307693,3800.512820512821,4230.769230769231,4264.615384615385,4114.358974358975,4411.282051282052,4089.7435897435903,4288.205128205129,4306.666666666667,4428.717948717949,4399.48717948718,1682.0,1684.0,1130.763,1091.6256103515625,0.0,0.0,0.0,0.0
1129018,53.0,0.0,0.0,4391.282051282052,4172.307692307693,4320.512820512821,4816.923076923077,3797.435897435898,4225.641025641026,4258.974358974359,4097.948717948719,4405.128205128206,4092.307692307693,4292.307692307693,4309.2307692307695,4432.820512820514,4407.179487179487,1681.0,1685.0,1130.77,1091.6256103515625,0.0,0.0,0.0,0.0
1129018,54.0,0.0,0.0,4393.846153846154,4170.256410256411,4323.076923076924,4821.538461538462,3795.8974358974365,4212.307692307693,4263.076923076924,4100.512820512821,4401.538461538462,4093.8461538461543,4291.282051282052,4307.6923076923085,4433.846153846154,4410.256410256411,1682.0,1685.0,1130.778,1091.6256103515625,0.0,0.0,0.0,0.0
1129018,55.0,0.0,0.0,4390.769230769231,4169.2307692307695,4315.384615384616,4817.948717948719,3797.435897435898,4214.871794871796,4263.076923076924,4101.025641025642,4392.307692307693,4083.589743589744,4277.948717948719,4299.48717948718,4418.461538461539,4397.435897435898,1681.0,1685.0,1130.786,1091.6256103515625,0.0,0.0,0.0,0.0
1129146,56.0,0.0,0.0,4383.589743589744,4169.2307692307695,4303.589743589744,4812.820512820514,3798.9743589743593,4234.871794871796,4260.512820512821,4082.0512820512827,4378.461538461539,4076.410256410257,4260.000000000001,4295.8974358974365,4398.461538461539,4383.589743589744,1682.0,1685.0,1130.794,1091.750732421875,0.0,0.0,0.0,0.0
1129146,57.0,0.0,0.0,4387.6923076923085,4170.256410256411,4305.128205128206,4812.307692307693,3798.461538461539,4235.8974358974365,4267.179487179487,4091.2820512820517,4386.666666666667,4084.615384615385,4263.589743589744,4304.102564102564,4400.000000000001,4388.205128205129,1681.0,1685.0,1130.802,1091.750732421875,0.0,0.0,0.0,0.0
1129146,58.0,0.0,0.0,4395.384615384616,4170.256410256411,4315.384615384616,4814.871794871796,3798.9743589743593,4228.717948717949,4276.410256410257,4127.6923076923085,4412.820512820514,4095.8974358974365,4283.076923076924,4309.2307692307695,4419.48717948718,4398.974358974359,1682.0,1684.0,1130.809,1091.750732421875,0.0,0.0,0.0,0.0
1129146,59.0,0.0,0.0,4396.410256410257,4170.769230769231,4321.025641025642,4818.974358974359,3802.0512820512827,4232.820512820514,4276.410256410257,4130.256410256411,4418.974358974359,4098.974358974359,4294.871794871796,4309.2307692307695,4434.871794871796,4407.6923076923085,1681.0,1684.0,1130.817,1091.750732421875,0.0,0.0,0.0,0.0
1129147,60.0,0.0,0.0,4400.000000000001,4170.769230769231,4320.000000000001,4821.538461538462,3801.538461538462,4236.410256410257,4272.307692307693,4114.358974358975,4413.846153846154,4096.410256410257,4299.48717948718,4311.794871794872,4437.948717948719,4416.410256410257,1681.0,1685.0,1130.826,1091.750732421875,0.0,0.0,0.0,0.0
1129147,61.0,0.0,0.0,4403.589743589744,4172.307692307693,4323.076923076924,4821.538461538462,3798.461538461539,4235.8974358974365,4275.384615384616,4117.948717948719,4419.48717948718,4099.48717948718,4304.102564102564,4312.820512820514,4439.48717948718,4416.410256410257,1681.0,1683.0,1130.834,1091.750732421875,0.0,0.0,0.0,0.0
1129147,62.0,0.0,0.0,4403.076923076924,4173.333333333334,4327.179487179487,4820.512820512821,3802.564102564103,4235.384615384616,4278.461538461539,4117.435897435898,4420.512820512821,4100.512820512821,4301.538461538462,4312.307692307693,4444.102564102564,4410.769230769231,1680.0,1684.0,1130.842,1091.750732421875,0.0,0.0,0.0,0.0
1129148,63.0,0.0,0.0,4402.564102564103,4171.794871794872,4323.076923076924,4819.48717948718,3803.589743589744,4229.74358974359,4273.333333333334,4107.179487179487,4412.307692307693,4097.435897435898,4298.461538461539,4311.794871794872,4442.564102564103,4412.820512820514,1681.0,1683.0,1130.849,1091.750732421875,0.0,0.0,0.0,0.0
1129148,64.0,0.0,475.0,4398.461538461539,4170.769230769231,4313.846153846154,4821.025641025642,3796.9230769230776,4227.179487179487,4269.74358974359,4112.307692307693,4407.6923076923085,4094.8717948717954,4300.000000000001,4307.179487179487,4432.820512820514,4409.743589743591,1680.0,1682.0,1130.857,1091.750732421875,0.0,0.0,0.0,0.0
1129148,65.0,0.0,258.0,4397.948717948719,4172.820512820514,4312.820512820514,4821.538461538462,3795.8974358974365,4234.358974358975,4271.794871794872,4116.410256410257,4404.102564102564,4090.7692307692314,4294.871794871796,4305.641025641026,4425.641025641026,4398.974358974359,1680.0,1683.0,1130.864,1091.750732421875,0.0,0.0,0.0,0.0
1129148,66.0,0.0,451.0,4403.076923076924,4173.333333333334,4320.000000000001,4817.948717948719,3800.0000000000005,4231.282051282052,4269.2307692307695,4105.641025641026,4403.589743589744,4090.7692307692314,4288.717948717949,4309.2307692307695,4428.717948717949,4403.076923076924,1680.0,1684.0,1130.872,1091.750732421875,0.0,0.0,0.0,0.0
1129148,67.0,0.0,357.0,4404.102564102564,4177.435897435898,4320.000000000001,4818.461538461539,3801.0256410256416,4222.564102564103,4266.153846153847,4101.538461538462,4410.256410256411,4096.410256410257,4295.8974358974365,4310.769230769231,4435.8974358974365,4413.846153846154,1681.0,1684.0,1130.88,1091.750732421875,0.0,0.0,0.0,0.0
1129148,68.0,0.0,456.0,4406.666666666667,4181.025641025642,4323.076923076924,4825.128205128206,3801.0256410256416,4227.6923076923085,4271.282051282052,4107.179487179487,4414.871794871796,4102.051282051282,4310.769230769231,4313.846153846154,4445.641025641026,4421.538461538462,1680.0,1684.0,1130.889,1091.750732421875,0.0,0.0,0.0,0.0
1129148,69.0,0.0,548.0,4408.717948717949,4173.846153846154,4327.6923076923085,4821.025641025642,3803.076923076924,4235.8974358974365,4277.435897435898,4115.384615384616,4417.948717948719,4100.000000000001,4310.769230769231,4314.871794871796,4447.179487179487,4420.512820512821,1681.0,1684.0,1130.896,1091.750732421875,0.0,0.0,0.0,0.0
1129148,70.0,0.0,533.0,4396.923076923077,4166.666666666667,4321.538461538462,4810.256410256411,3802.564102564103,4233.333333333334,4276.923076923077,4118.974358974359,4416.410256410257,4093.333333333334,4297.435897435898,4308.205128205129,4433.333333333334,4408.717948717949,1680.0,1686.0,1130.903,1091.750732421875,0.0,0.0,0.0,0.0
1129148,71.0,0.0,479.0,4385.641025641026,4167.6923076923085,4311.794871794872,4812.307692307693,3798.461538461539,4226.153846153847,4265.641025641026,4100.512820512821,4398.974358974359,4086.1538461538466,4288.717948717949,4304.102564102564,4422.564102564103,4402.564102564103,1681.0,1685.0,1130.911,1091.750732421875,0.0,0.0,0.0,0.0
1129268,72.0,0.0,423.0,4392.820512820514,4168.717948717949,4314.871794871796,4813.333333333334,3794.8717948717954,4222.051282051282,4260.000000000001,4091.2820512820517,4390.256410256411,4085.1282051282055,4290.769230769231,4308.205128205129,4427.6923076923085,4409.2307692307695,1680.0,1685.0,1130.919,1091.8758544921875,0.0,0.0,0.0,0.0
1129268,73.0,0.0,454.0,4402.564102564103,4168.717948717949,4328.205128205129,4811.794871794872,3797.435897435898,4220.000000000001,4270.769230769231,4117.435897435898,4410.256410256411,4094.358974358975,4301.538461538462,4313.333333333334,4435.8974358974365,4419.48717948718,1681.0,1685.0,1130.927,1091.8758544921875,0.0,0.0,0.0,0.0
1129269,74.0,0.0,487.0,4398.461538461539,4169.74358974359,4329.743589743591,4814.871794871796,3800.512820512821,4224.615384615385,4273.846153846154,4121.025641025642,4413.333333333334,4096.923076923077,4302.051282051282,4312.820512820514,4433.846153846154,4417.948717948719,1681.0,1685.0,1130.935,1091.8758544921875,0.0,0.0,0.0,0.0
1129269,75.0,0.0,436.0,4394.871794871796,4169.2307692307695,4321.538461538462,4814.358974358975,3798.9743589743593,4231.282051282052,4267.6923076923085,4100.512820512821,4400.000000000001,4091.2820512820517,4294.358974358975,4311.794871794872,4431.282051282052,4412.307692307693,1682.0,1685.0,1130.942,1091.8758544921875,0.0,0.0,0.0,0.0
1129270,76.0,0.0,447.0,4400.512820512821,4170.256410256411,4322.051282051282,4813.333333333334,3798.461538461539,4230.256410256411,4269.74358974359,4110.769230769231,4411.794871794872,4095.3846153846157,4301.025641025642,4313.846153846154,4435.8974358974365,4413.333333333334,1681.0,1685.0,1130.95,1091.8758544921875,0.0,0.0,0.0,0.0
1129271,77.0,0.0,251.0,4404.615384615385,4172.307692307693,4329.2307692307695,4820.000000000001,3798.461538461539,4223.076923076924,4274.358974358975,4118.461538461539,4419.48717948718,4102.051282051282,4310.256410256411,4314.358974358975,4440.000000000001,4418.461538461539,1682.0,1686.0,1130.959,1091.8758544921875,0.0,0.0,0.0,0.0
1129271,78.0,0.0,487.0,4404.615384615385,4172.820512820514,4331.282051282052,4824.102564102564,3797.435897435898,4215.8974358974365,4269.74358974359,4105.641025641026,4406.666666666667,4097.948717948719,4308.717948717949,4313.333333333334,4440.000000000001,4422.051282051282,1681.0,1685.0,1130.968,1091.8758544921875,0.0,0.0,0.0,0.0
1129272,79.0,0.0,436.0,4405.128205128206,4171.794871794872,4326.153846153847,4820.000000000001,3799.48717948718,4215.8974358974365,4265.641025641026,4105.641025641026,4400.512820512821,4090.7692307692314,4304.102564102564,4311.794871794872,4438.461538461539,4420.000000000001,1681.0,1687.0,1130.975,1091.8758544921875,0.0,0.0,0.0,0.0
1129272,80.0,0.0,447.0,4402.564102564103,4171.282051282052,4322.564102564103,4818.974358974359,3801.538461538462,4229.2307692307695,4269.2307692307695,4104.615384615385,4401.025641025642,4092.820512820513,4299.48717948718,4309.743589743591,4434.358974358975,4414.871794871796,1682.0,1685.0,1130.982,1091.8758544921875,0.0,0.0,0.0,0.0
1129273,81.0,0.0,251.0,4396.410256410257,4172.307692307693,4323.076923076924,4819.48717948718,3799.48717948718,4233.846153846154,4270.256410256411,4099.48717948718,4401.025641025642,4095.8974358974365,4295.8974358974365,4308.717948717949,4429.2307692307695,4407.179487179487,1681.0,1686.0,1130.99,1091.8758544921875,0.0,0.0,0.0,0.0
1129273,82.0,0.0,487.0,4389.743589743591,4169.2307692307695,4323.589743589744,4816.923076923077,3797.9487179487182,4221.538461538462,4266.153846153847,4106.666666666667,4401.538461538462,4089.7435897435903,4290.256410256411,4306.666666666667,4421.025641025642,4396.410256410257,1682.0,1685.0,1130.997,1091.8758544921875,0.0,0.0,0.0,0.0
1129273,83.0,0.0,436.0,4388.205128205129,4170.769230769231,4323.076923076924,4815.384615384616,3798.461538461539,4222.051282051282,4266.666666666667,4104.615384615385,4395.8974358974365,4087.1794871794878,4285.641025641026,4306.153846153847,4417.948717948719,4393.333333333334,1680.0,1684.0,1131.006,1091.8758544921875,0.0,0.0,0.0,0.0
1129273,84.0,0.0,447.0,4400.000000000001,4181.025641025642,4330.256410256411,4823.076923076924,3801.0256410256416,4233.333333333334,4273.333333333334,4095.3846153846157,4397.948717948719,4097.435897435898,4296.410256410257,4311.794871794872,4434.358974358975,4406.666666666667,1681.0,1684.0,1131.013,1091.8758544921875,0.0,0.0,0.0,0.0
1129273,85.0,0.0,251.0,4405.128205128206,4181.025641025642,4334.358974358975,4830.256410256411,3802.0512820512827,4231.794871794872,4272.307692307693,4097.948717948719,4406.666666666667,4099.48717948718,4308.205128205129,4316.410256410257,4445.128205128206,4414.358974358975,1681.0,1684.0,1131.022,1091.8758544921875,0.0,0.0,0.0,0.0
1129274,86.0,0.0,487.0,4382.051282051282,4167.179487179487,4316.923076923077,4820.512820512821,3795.8974358974365,4225.128205128206,4264.102564102564,4106.666666666667,4403.076923076924,4086.1538461538466,4291.282051282052,4307.179487179487,4425.128205128206,4395.384615384616,1681.0,1684.0,1131.028,1091.8758544921875,0.0,0.0,0.0,0.0
1129274,87.0,0.0,436.0,4368.205128205129,4163.076923076924,4302.051282051282,4808.205128205129,3790.7692307692314,4222.564102564103,4258.461538461539,4107.179487179487,4392.820512820514,4081.0256410256416,4272.820512820514,4298.974358974359,4407.6923076923085,4382.051282051282,1680.0,1684.0,1131.036,1091.8758544921875,0.0,0.0,0.0,0.0
1129389,88.0,0.0,447.0,4389.743589743591,4172.820512820514,4312.820512820514,4813.846153846154,3794.358974358975,4220.512820512821,4255.384615384616,4094.358974358975,4389.2307692307695,4089.7435897435903,4286.153846153847,4305.641025641026,4422.564102564103,4396.410256410257,1681.0,1683.0,1131.044,1092.0009765625,0.0,0.0,0.0,0.0
1129389,89.0,0.0,251.0,4405.128205128206,4172.820512820514,4322.564102564103,4822.051282051282,3796.9230769230776,4221.538461538462,4256.923076923077,4088.717948717949,4390.769230769231,4090.7692307692314,4294.871794871796,4310.256410256411,4433.846153846154,4405.641025641026,1680.0,1683.0,1131.052,1092.0009765625,0.0,0.0,0.0,0.0
1129389,90.0,0.0,487.0,4395.384615384616,4167.6923076923085,4315.8974358974365,4819.48717948718,3796.9230769230776,4225.641025641026,4263.076923076924,4106.666666666667,4401.538461538462,4086.666666666667,4283.589743589744,4306.666666666667,4424.102564102564,4397.435897435898,1680.0,1683.0,1131.06,1092.0009765625,0.0,0.0,0.0,0.0
1129390,91.0,0.0,436.0,4395.384615384616,4175.8974358974365,4316.410256410257,4819.48717948718,3797.435897435898,4226.153846153847,4268.205128205129,4115.8974358974365,4411.794871794872,4092.820512820513,4290.769230769231,4310.256410256411,4429.2307692307695,4400.000000000001,1681.0,1682.0,1131.068,1092.0009765625,0.0,0.0,0.0,0.0
1129390,92.0,0.0,447.0,4410.256410256411,4186.153846153847,4332.307692307693,4828.205128205129,3797.9487179487182,4223.589743589744,4264.102564102564,4098.974358974359,4409.743589743591,4103.589743589744,4309.743589743591,4317.948717948719,4449.743589743591,4414.871794871796,1680.0,1684.0,1131.076,1092.0009765625,0.0,0.0,0.0,0.0
1129390,93.0,0.0,251.0,4410.256410256411,4182.051282051282,4336.923076923077,4829.743589743591,3795.8974358974365,4222.051282051282,4259.48717948718,4089.23076923077,4404.615384615385,4103.076923076924,4308.717948717949,4315.384615384616,4454.871794871796,4420.512820512821,1681.0,1683.0,1131.083,1092.0009765625,0.0,0.0,0.0,0.0
1129390,94.0,0.0,487.0,4398.974358974359,4170.256410256411,4323.589743589744,4822.051282051282,3793.333333333334,4223.589743589744,4264.102564102564,4099.48717948718,4403.589743589744,4093.8461538461543,4298.461538461539,4307.179487179487,4439.48717948718,4414.358974358975,1680.0,1684.0,1131.092,1092.0009765625,0.0,0.0,0.0,0.0
1129391,95.0,0.0,436.0,4402.051282051282,4170.769230769231,4321.025641025642,4821.538461538462,3794.8717948717954,4216.923076923077,4265.641025641026,4108.717948717949,4405.128205128206,4092.820512820513,4295.8974358974365,4307.6923076923085,4432.820512820514,4408.205128205129,1681.0,1685.0,1131.099,1092.0009765625,0.0,0.0,0.0,0.0
1129391,96.0,0.0,447.0,4406.153846153847,4176.923076923077,4330.256410256411,4825.641025641026,3796.410256410257,4209.74358974359,4261.538461538462,4107.6923076923085,4404.615384615385,4096.410256410257,4296.410256410257,4310.769230769231,4441.538461538462,4408.205128205129,1681.0,1685.0,1131.109,1092.0009765625,0.0,0.0,0.0,0.0
1129391,97.0,0.0,251.0,4396.923076923077,4171.282051282052,4325.128205128206,4822.051282051282,3794.358974358975,4215.8974358974365,4260.000000000001,4094.8717948717954,4395.384615384616,4091.2820512820517,4288.717948717949,4305.128205128206,4438.974358974359,4403.076923076924,1681.0,1686.0,1131.114,1092.0009765625,0.0,0.0,0.0,0.0
1129391,98.0,0.0,487.0,4394.358974358975,4168.205128205129,4317.435897435898,4818.974358974359,3792.820512820513,4217.435897435898,4260.000000000001,4078.461538461539,4385.128205128206,4086.1538461538466,4283.589743589744,4303.589743589744,4429.743589743591,4400.000000000001,1681.0,1686.0,1131.124,1092.0009765625,0.0,0.0,0.0,0.0
1129392,99.0,0.0,436.0,4404.102564102564,4176.923076923077,4325.128205128206,4825.128205128206,3797.435897435898,4210.769230769231,4262.051282051282,4089.7435897435903,4392.820512820514,4090.7692307692314,4292.820512820514,4309.2307692307695,4432.820512820514,4409.2307692307695,1682.0,1686.0,1131.13,1092.0009765625,0.0,0.0,0.0,0.0
1129392,100.0,0.0,447.0,4404.615384615385,4177.948717948719,4330.769230769231,4827.179487179488,3801.0256410256416,4215.384615384616,4269.74358974359,4120.512820512821,4409.2307692307695,4098.461538461539,4299.48717948718,4309.2307692307695,4436.410256410257,4412.307692307693,1681.0,1685.0,1131.139,1092.0009765625,0.0,0.0,0.0,0.0
1129392,101.0,0.0,251.0,4401.025641025642,4172.307692307693,4326.153846153847,4823.589743589744,3798.9743589743593,4225.641025641026,4273.333333333334,4116.410256410257,4406.666666666667,4096.923076923077,4293.846153846154,4307.179487179487,4431.794871794872,4406.666666666667,1681.0,1686.0,1131.146,1092.0009765625,0.0,0.0,0.0,0.0
1129392,102.0,0.0,487.0,4403.076923076924,4176.410256410257,4323.589743589744,4823.076923076924,3794.8717948717954,4224.102564102564,4266.666666666667,4085.1282051282055,4391.794871794872,4089.7435897435903,4291.794871794872,4308.205128205129,4430.769230769231,4407.179487179487,1683.0,1684.0,1131.153,1092.0009765625,0.0,0.0,0.0,0.0
1129393,103.0,0.0,436.0,4406.153846153847,4183.076923076924,4327.179487179487,4825.128205128206,3792.820512820513,4216.923076923077,4262.564102564103,4090.2564102564106,4393.846153846154,4090.2564102564106,4298.461538461539,4309.743589743591,4434.871794871796,4412.820512820514,1682.0,1685.0,1131.161,1092.0009765625,0.0,0.0,0.0,0.0
1129521,104.0,0.0,447.0,4407.6923076923085,4182.564102564103,4330.769230769231,4829.743589743591,3795.3846153846157,4211.282051282052,4264.102564102564,4109.2307692307695,4406.666666666667,4094.358974358975,4296.923076923077,4312.307692307693,4435.8974358974365,4411.282051282052,1683.0,1686.0,1131.169,1092.1260986328125,0.0,0.0,0.0,0.0
1129521,105.0,0.0,251.0,4408.205128205129,4180.000000000001,4326.153846153847,4829.743589743591,3796.410256410257,4213.333333333334,4264.615384615385,4094.358974358975,4398.974358974359,4092.820512820513,4287.179487179487,4310.769230769231,4432.307692307693,4402.564102564103,1682.0,1686.0,1131.177,1092.1260986328125,0.0,0.0,0.0,0.0
1129521,106.0,0.0,487.0,4412.820512820514,4184.102564102564,4327.179487179487,4826.153846153847,3796.9230769230776,4220.512820512821,4269.2307692307695,4093.8461538461543,4394.871794871796,4093.8461538461543,4291.282051282052,4309.743589743591,4438.974358974359,4409.2307692307695,1682.0,1687.0,1131.185,1092.1260986328125,0.0,0.0,0.0,0.0
1129521,107.0,0.0,436.0,4415.384615384616,4183.589743589744,4331.282051282052,4828.717948717949,3801.538461538462,4220.512820512821,4271.794871794872,4119.48717948718,4410.256410256411,4097.948717948719,4301.538461538462,4313.846153846154,4448.717948717949,4424.102564102564,1681.0,1686.0,1131.193,1092.1260986328125,0.0,0.0,0.0,0.0
1129522,108.0,0.0,447.0,4402.051282051282,4174.358974358975,4323.076923076924,4830.256410256411,3802.564102564103,4218.461538461539,4270.256410256411,4110.769230769231,4407.179487179487,4094.8717948717954,4294.358974358975,4312.307692307693,4439.48717948718,4418.461538461539,1680.0,1686.0,1131.2,1092.1260986328125,0.0,0.0,0.0,0.0
1129522,109.0,0.0,251.0,4394.871794871796,4173.333333333334,4316.410256410257,4823.076923076924,3801.0256410256416,4227.179487179487,4272.307692307693,4090.2564102564106,4390.256410256411,4092.307692307693,4279.48717948718,4306.153846153847,4425.128205128206,4409.2307692307695,1681.0,1685.0,1131.208,1092.1260986328125,0.0,0.0,0.0,0.0
1129522,110.0,0.0,487.0,4405.128205128206,4178.974358974359,4323.076923076924,4823.076923076924,3803.076923076924,4231.282051282052,4272.307692307693,4099.48717948718,4394.358974358975,4094.8717948717954,4278.974358974359,4305.641025641026,4426.666666666667,4416.410256410257,1680.0,1685.0,1131.216,1092.1260986328125,0.0,0.0,0.0,0.0
1129522,111.0,0.0,436.0,4409.2307692307695,4174.871794871796,4323.589743589744,4827.179487179488,3801.538461538462,4227.6923076923085,4270.769230769231,4107.6923076923085,4406.666666666667,4097.948717948719,4286.666666666667,4310.256410256411,4430.256410256411,4418.461538461539,1680.0,1686.0,1131.227,1092.1260986328125,0.0,0.0,0.0,0.0
1129522,112.0,0.0,447.0,4401.025641025642,4169.2307692307695,4310.769230769231,4820.000000000001,3795.8974358974365,4224.102564102564,4268.205128205129,4088.717948717949,4395.384615384616,4093.333333333334,4283.589743589744,4307.6923076923085,4421.538461538462,4406.153846153847,1680.0,1686.0,1131.232,1092.1260986328125,0.0,0.0,0.0,0.0
1129522,113.0,0.0,251.0,4400.000000000001,4169.74358974359,4303.589743589744,4815.384615384616,3794.358974358975,4218.974358974359,4258.461538461539,4065.1282051282055,4373.333333333334,4082.0512820512827,4270.256410256411,4301.538461538462,4411.794871794872,4397.948717948719,1681.0,1686.0,1131.242,1092.1260986328125,0.0,0.0,0.0,0.0
1129522,114.0,0.0,487.0,4406.666666666667,4173.846153846154,4310.769230769231,4820.512820512821,3797.9487179487182,4219.48717948718,4253.846153846154,4070.7692307692314,4378.974358974359,4084.1025641025644,4268.205128205129,4304.615384615385,4414.871794871796,4401.025641025642,1680.0,1687.0,1131.247,1092.1260986328125,0.0,0.0,0.0,0.0
1129522,115.0,0.0,436.0,4412.307692307693,4180.512820512821,4321.538461538462,4826.666666666667,3800.512820512821,4217.948717948719,4264.615384615385,4101.025641025642,4405.641025641026,4098.461538461539,4286.666666666667,4312.820512820514,4431.282051282052,4413.333333333334,1682.0,1686.0,1131.256,1092.1260986328125,0.0,0.0,0.0,0.0
1129523,116.0,0.0,447.0,4412.307692307693,4178.974358974359,4322.051282051282,4826.153846153847,3800.512820512821,4212.820512820514,4274.871794871796,4115.8974358974365,4413.333333333334,4100.512820512821,4298.461538461539,4312.307692307693,4437.948717948719,4420.512820512821,1681.0,1686.0,1131.263,1092.1260986328125,0.0,0.0,0.0,0.0
1129523,117.0,0.0,251.0,4404.102564102564,4170.769230769231,4316.923076923077,4822.564102564103,3797.9487179487182,4216.410256410257,4270.256410256411,4110.256410256411,4409.2307692307695,4093.333333333334,4290.769230769231,4308.205128205129,4432.307692307693,4413.846153846154,1681.0,1687.0,1131.272,1092.1260986328125,0.0,0.0,0.0,0.0
1129523,118.0,0.0,487.0,4399.48717948718,4169.74358974359,4314.358974358975,4822.051282051282,3797.9487179487182,4228.205128205129,4266.666666666667,4110.256410256411,4409.743589743591,4092.820512820513,4283.589743589744,4308.205128205129,4427.6923076923085,4406.666666666667,1681.0,1685.0,1131.279,1092.1260986328125,0.0,0.0,0.0,0.0
1129523,119.0,0.0,436.0,4405.641025641026,4175.384615384616,4312.820512820514,4822.564102564103,3800.0000000000005,4232.307692307693,4269.74358974359,4110.256410256411,4404.615384615385,4093.333333333334,4281.538461538462,4306.666666666667,4423.589743589744,4407.179487179487,1681.0,1686.0,1131.286,1092.1260986328125,0.0,0.0,0.0,0.0
1129652,120.0,0.0,447.0,4413.846153846154,4180.000000000001,4320.512820512821,4825.128205128206,3800.0000000000005,4221.025641025642,4274.358974358975,4112.820512820514,4408.717948717949,4097.948717948719,4286.153846153847,4308.717948717949,4428.205128205129,4415.384615384616,1681.0,1684.0,1131.294,1092.2510986328125,0.0,0.0,0.0,0.0
1129652,121.0,0.0,251.0,4412.820512820514,4180.000000000001,4331.794871794872,4827.179487179488,3799.48717948718,4218.461538461539,4277.948717948719,4117.948717948719,4416.410256410257,4103.076923076924,4294.358974358975,4315.384615384616,4441.025641025642,4425.641025641026,1680.0,1684.0,1131.302,1092.2510986328125,0.0,0.0,0.0,0.0
1129653,122.0,0.0,487.0,4406.666666666667,4174.358974358975,4327.179487179487,4825.128205128206,3801.538461538462,4226.153846153847,4274.358974358975,4107.6923076923085,4405.641025641026,4095.3846153846157,4289.74358974359,4312.307692307693,4439.48717948718,4423.076923076924,1681.0,1684.0,1131.31,1092.2510986328125,0.0,0.0,0.0,0.0
1129653,123.0,0.0,436.0,4403.589743589744,4171.794871794872,4316.923076923077,4821.538461538462,3800.0000000000005,4227.6923076923085,4267.6923076923085,4100.512820512821,4398.974358974359,4090.7692307692314,4279.48717948718,4302.051282051282,4426.153846153847,4412.307692307693,1680.0,1684.0,1131.318,1092.2510986328125,0.0,0.0,0.0,0.0
1129653,124.0,0.0,447.0,4404.102564102564,4173.333333333334,4318.461538461539,4824.102564102564,3798.461538461539,4226.153846153847,4266.153846153847,4093.333333333334,4400.000000000001,4093.333333333334,4275.8974358974365,4302.051282051282,4420.512820512821,4412.307692307693,1681.0,1684.0,1131.326,1092.2510986328125,0.0,0.0,0.0,0.0
1129653,125.0,0.0,251.0,4402.051282051282,4170.256410256411,4319.48717948718,4828.717948717949,3800.512820512821,4229.2307692307695,4267.6923076923085,4082.564102564103,4389.743589743591,4092.307692307693,4273.333333333334,4304.615384615385,4417.435897435898,4412.820512820514,1682.0,1684.0,1131.333,1092.2510986328125,0.0,0.0,0.0,0.0
1129653,126.0,0.0,487.0,4409.2307692307695,4175.8974358974365,4320.000000000001,4828.717948717949,3801.0256410256416,4230.256410256411,4271.794871794872,4108.205128205129,4403.076923076924,4098.974358974359,4280.000000000001,4308.717948717949,4423.076923076924,4411.794871794872,1681.0,1684.0,1131.341,1092.2510986328125,0.0,0.0,0.0,0.0
1129653,127.0,0.0,436.0,4424.102564102564,4185.641025641026,4329.2307692307695,4831.282051282052,3800.512820512821,4225.128205128206,4274.871794871796,4133.333333333334,4430.769230769231,4111.794871794872,4296.410256410257,4314.871794871796,4440.512820512821,4429.2307692307695,1681.0,1685.0,1131.349,1092.2510986328125,0.0,0.0,0.0,0.0
