timestamp,cnt,inerpolated,raw_cq,af3,f7,f3,fc5,t7,p7,o1,o2,p8,t8,fc6,f4,f8,af4,gyrox,gyroy,epoc_timestamp,epoc_es_timestamp,func_id,func_value,marker,sync_signal
1091126,46.0,0.0,0.0,4327.6923076923085,4160.512820512821,4309.743589743591,4815.384615384616,3787.692307692308,4195.8974358974365,4241.025641025642,4100.000000000001,4392.820512820514,4073.8461538461543,4273.846153846154,4337.435897435898,4429.743589743591,4384.102564102564,1681.0,1686.0,1092.384,1053.3583984375,0.0,0.0,0.0,0.0
1091126,47.0,0.0,0.0,4321.025641025642,4151.794871794872,4299.48717948718,4809.2307692307695,3786.1538461538466,4200.512820512821,4238.461538461539,4086.666666666667,4387.6923076923085,4067.692307692308,4263.076923076924,4333.333333333334,4422.564102564103,4374.871794871796,1682.0,1685.0,1092.393,1053.3583984375,0.0,0.0,0.0,0.0
1091126,48.0,0.0,0.0,4319.48717948718,4152.307692307693,4296.923076923077,4808.717948717949,3789.2307692307695,4203.076923076924,4239.48717948718,4080.0000000000005,4386.666666666667,4063.076923076924,4258.461538461539,4329.743589743591,4421.025641025642,4373.333333333334,1681.0,1686.0,1092.4,1053.3583984375,0.0,0.0,0.0,0.0
1091126,49.0,0.0,0.0,4317.435897435898,4155.384615384616,4300.000000000001,4808.717948717949,3787.692307692308,4197.435897435898,4237.948717948719,4084.1025641025644,4389.2307692307695,4061.0256410256416,4257.948717948719,4331.282051282052,4422.051282051282,4373.333333333334,1682.0,1685.0,1092.407,1053.3583984375,0.0,0.0,0.0,0.0
1091127,50.0,0.0,0.0,4316.410256410257,4153.333333333334,4293.333333333334,4806.666666666667,3788.205128205129,4195.384615384616,4235.8974358974365,4079.48717948718,4383.076923076924,4058.9743589743593,4250.769230769231,4328.717948717949,4415.8974358974365,4366.666666666667,1681.0,1684.0,1092.415,1053.3583984375,0.0,0.0,0.0,0.0
1091127,51.0,0.0,0.0,4324.102564102564,4157.435897435898,4289.74358974359,4808.205128205129,3791.7948717948725,4198.461538461539,4240.000000000001,4080.0000000000005,4382.051282051282,4063.076923076924,4250.769230769231,4327.6923076923085,4414.358974358975,4366.666666666667,1682.0,1684.0,1092.423,1053.3583984375,0.0,0.0,0.0,0.0
1091127,52.0,0.0,0.0,4325.641025641026,4159.48717948718,4294.871794871796,4810.256410256411,3788.205128205129,4200.512820512821,4243.589743589744,4086.666666666667,4387.6923076923085,4065.1282051282055,4256.923076923077,4330.769230769231,4418.974358974359,4370.256410256411,1682.0,1685.0,1092.431,1053.3583984375,0.0,0.0,0.0,0.0
1091127,53.0,0.0,0.0,4319.48717948718,4152.820512820514,4295.8974358974365,4809.743589743591,3787.1794871794878,4205.641025641026,4239.48717948718,4081.538461538462,4386.153846153847,4061.0256410256416,4252.820512820514,4330.769230769231,4416.923076923077,4366.153846153847,1682.0,1685.0,1092.439,1053.3583984375,0.0,0.0,0.0,0.0
1091127,54.0,0.0,0.0,4325.128205128206,4158.461538461539,4300.512820512821,4812.307692307693,3794.8717948717954,4209.74358974359,4236.410256410257,4076.410256410257,4383.076923076924,4063.589743589744,4254.358974358975,4332.307692307693,4418.461538461539,4372.307692307693,1682.0,1684.0,1092.446,1053.3583984375,0.0,0.0,0.0,0.0
1091127,55.0,0.0,0.0,4331.282051282052,4167.179487179487,4308.205128205129,4815.8974358974365,3795.8974358974365,4209.74358974359,4240.512820512821,4083.589743589744,4388.717948717949,4070.7692307692314,4265.641025641026,4335.8974358974365,4431.282051282052,4386.153846153847,1682.0,1685.0,1092.454,1053.3583984375,0.0,0.0,0.0,0.0
1091128,56.0,0.0,0.0,4328.717948717949,4157.435897435898,4306.153846153847,4813.333333333334,3789.2307692307695,4205.128205128206,4245.128205128206,4100.000000000001,4401.025641025642,4071.7948717948725,4267.179487179487,4334.358974358975,4436.923076923077,4388.205128205129,1682.0,1686.0,1092.462,1053.3583984375,0.0,0.0,0.0,0.0
1091128,57.0,0.0,0.0,4329.2307692307695,4153.333333333334,4303.589743589744,4812.820512820514,3789.7435897435903,4200.512820512821,4244.102564102564,4107.6923076923085,4405.128205128206,4072.820512820513,4260.000000000001,4330.769230769231,4431.794871794872,4383.076923076924,1682.0,1686.0,1092.47,1053.3583984375,0.0,0.0,0.0,0.0
1091128,58.0,0.0,0.0,4333.333333333334,4165.128205128206,4307.179487179487,4814.871794871796,3793.8461538461543,4201.538461538462,4241.538461538462,4092.820512820513,4389.743589743591,4072.307692307693,4255.384615384616,4331.282051282052,4428.205128205129,4382.051282051282,1682.0,1687.0,1092.479,1053.3583984375,0.0,0.0,0.0,0.0
1091128,59.0,0.0,0.0,4333.846153846154,4162.564102564103,4307.179487179487,4812.307692307693,3795.3846153846157,4202.564102564103,4243.589743589744,4079.48717948718,4377.435897435898,4069.23076923077,4253.846153846154,4335.384615384616,4430.256410256411,4385.128205128206,1683.0,1687.0,1092.486,1053.3583984375,0.0,0.0,0.0,0.0
1091128,60.0,0.0,0.0,4332.307692307693,4151.794871794872,4307.6923076923085,4811.282051282052,3793.333333333334,4197.948717948719,4245.641025641026,4092.307692307693,4387.179487179487,4069.7435897435903,4256.923076923077,4336.923076923077,4431.794871794872,4386.666666666667,1682.0,1687.0,1092.494,1053.3583984375,0.0,0.0,0.0,0.0
1091128,61.0,0.0,0.0,4324.615384615385,4153.333333333334,4305.641025641026,4812.307692307693,3789.7435897435903,4200.512820512821,4241.538461538462,4094.8717948717954,4391.282051282052,4068.717948717949,4255.8974358974365,4331.794871794872,4424.102564102564,4378.461538461539,1683.0,1685.0,1092.501,1053.3583984375,0.0,0.0,0.0,0.0
1091128,62.0,0.0,0.0,4317.435897435898,4155.384615384616,4300.000000000001,4807.179487179488,3789.7435897435903,4211.282051282052,4236.410256410257,4066.666666666667,4371.794871794872,4061.538461538462,4243.589743589744,4327.6923076923085,4413.333333333334,4367.6923076923085,1682.0,1685.0,1092.51,1053.3583984375,0.0,0.0,0.0,0.0
1091129,63.0,0.0,0.0,4320.512820512821,4153.846153846154,4305.128205128206,4803.076923076924,3789.7435897435903,4207.6923076923085,4234.358974358975,4051.2820512820517,4358.974358974359,4056.410256410257,4237.435897435898,4330.256410256411,4412.820512820514,4368.205128205129,1682.0,1685.0,1092.517,1053.3583984375,0.0,0.0,0.0,0.0
1091129,64.0,0.0,474.0,4323.589743589744,4156.923076923077,4310.256410256411,4810.256410256411,3786.1538461538466,4196.410256410257,4233.846153846154,4069.7435897435903,4373.333333333334,4058.9743589743593,4246.666666666667,4332.820512820514,4420.000000000001,4373.846153846154,1682.0,1683.0,1092.525,1053.3583984375,0.0,0.0,0.0,0.0
1091129,65.0,0.0,263.0,4323.589743589744,4156.923076923077,4304.615384615385,4811.282051282052,3786.1538461538466,4195.384615384616,4238.461538461539,4095.8974358974365,4396.410256410257,4066.1538461538466,4253.846153846154,4330.769230769231,4421.025641025642,4369.743589743591,1681.0,1684.0,1092.532,1053.3583984375,0.0,0.0,0.0,0.0
1091129,66.0,0.0,451.0,4327.179487179487,4154.871794871796,4306.666666666667,4806.153846153847,3789.7435897435903,4196.923076923077,4244.615384615385,4099.48717948718,4400.512820512821,4070.7692307692314,4254.871794871796,4331.794871794872,4422.564102564103,4367.6923076923085,1681.0,1682.0,1092.54,1053.3583984375,0.0,0.0,0.0,0.0
1091129,67.0,0.0,357.0,4331.282051282052,4161.025641025642,4316.410256410257,4811.794871794872,3788.717948717949,4193.333333333334,4240.000000000001,4083.076923076924,4389.2307692307695,4071.2820512820517,4256.923076923077,4335.384615384616,4430.769230769231,4376.410256410257,1680.0,1683.0,1092.548,1053.3583984375,0.0,0.0,0.0,0.0
1091129,68.0,0.0,456.0,4328.205128205129,4166.666666666667,4310.256410256411,4818.461538461539,3791.2820512820517,4196.923076923077,4234.358974358975,4072.307692307693,4381.538461538462,4068.205128205129,4254.358974358975,4331.794871794872,4432.307692307693,4375.384615384616,1681.0,1683.0,1092.556,1053.3583984375,0.0,0.0,0.0,0.0
1091129,69.0,0.0,549.0,4321.025641025642,4159.48717948718,4300.000000000001,4812.820512820514,3796.9230769230776,4214.358974358975,4238.974358974359,4073.8461538461543,4383.589743589744,4066.1538461538466,4245.641025641026,4326.666666666667,4423.076923076924,4362.564102564103,1680.0,1683.0,1092.564,1053.3583984375,0.0,0.0,0.0,0.0
1091129,70.0,0.0,533.0,4324.102564102564,4151.282051282052,4305.641025641026,4810.256410256411,3797.9487179487182,4213.846153846154,4244.615384615385,4091.2820512820517,4395.8974358974365,4070.2564102564106,4247.179487179487,4329.2307692307695,4421.538461538462,4362.051282051282,1681.0,1683.0,1092.572,1053.3583984375,0.0,0.0,0.0,0.0
1091130,71.0,0.0,478.0,4328.717948717949,4154.358974358975,4307.179487179487,4813.846153846154,3795.3846153846157,4195.8974358974365,4240.512820512821,4104.615384615385,4399.48717948718,4071.7948717948725,4250.769230769231,4332.820512820514,4422.051282051282,4366.153846153847,1680.0,1683.0,1092.579,1053.3583984375,0.0,0.0,0.0,0.0
1091130,72.0,0.0,421.0,4321.025641025642,4156.923076923077,4296.923076923077,4808.205128205129,3790.2564102564106,4196.410256410257,4232.820512820514,4077.435897435898,4377.435897435898,4062.0512820512827,4244.102564102564,4327.6923076923085,4410.769230769231,4353.333333333334,1682.0,1684.0,1092.587,1053.3583984375,0.0,0.0,0.0,0.0
1091131,73.0,0.0,455.0,4314.358974358975,4151.794871794872,4295.384615384616,4803.076923076924,3788.205128205129,4209.2307692307695,4236.410256410257,4056.9230769230776,4370.769230769231,4058.9743589743593,4244.102564102564,4326.153846153847,4409.2307692307695,4349.2307692307695,1681.0,1683.0,1092.595,1053.3583984375,0.0,0.0,0.0,0.0
1091131,74.0,0.0,487.0,4328.205128205129,4156.410256410257,4306.153846153847,4809.2307692307695,3790.2564102564106,4204.102564102564,4246.666666666667,4090.2564102564106,4400.512820512821,4072.307692307693,4257.435897435898,4335.384615384616,4429.2307692307695,4370.256410256411,1682.0,1684.0,1092.603,1053.3583984375,0.0,0.0,0.0,0.0
1091132,75.0,0.0,437.0,4342.564102564103,4169.2307692307695,4315.8974358974365,4816.410256410257,3791.7948717948725,4193.333333333334,4247.179487179487,4107.6923076923085,4410.769230769231,4078.9743589743593,4265.128205128206,4338.974358974359,4440.000000000001,4383.076923076924,1682.0,1684.0,1092.611,1053.3583984375,0.0,0.0,0.0,0.0
1091132,76.0,0.0,447.0,4336.410256410257,4167.179487179487,4312.820512820514,4813.846153846154,3791.2820512820517,4196.923076923077,4238.461538461539,4077.9487179487187,4385.128205128206,4068.717948717949,4257.948717948719,4333.333333333334,4425.128205128206,4372.307692307693,1682.0,1686.0,1092.618,1053.3583984375,0.0,0.0,0.0,0.0
1091132,77.0,0.0,250.0,4326.666666666667,4155.8974358974365,4305.128205128206,4809.2307692307695,3788.717948717949,4200.000000000001,4236.923076923077,4071.2820512820517,4377.948717948719,4064.1025641025644,4253.846153846154,4331.282051282052,4414.871794871796,4365.641025641026,1684.0,1685.0,1092.626,1053.3583984375,0.0,0.0,0.0,0.0
1091133,78.0,0.0,487.0,4332.307692307693,4159.48717948718,4307.6923076923085,4812.307692307693,3788.717948717949,4200.000000000001,4241.025641025642,4094.358974358975,4396.410256410257,4071.7948717948725,4262.564102564103,4334.358974358975,4427.179487179487,4374.358974358975,1682.0,1686.0,1092.634,1053.3583984375,0.0,0.0,0.0,0.0
1091133,79.0,0.0,437.0,4338.974358974359,4164.615384615385,4313.333333333334,4815.384615384616,3790.2564102564106,4206.153846153847,4239.48717948718,4098.974358974359,4402.564102564103,4074.8717948717954,4263.589743589744,4333.333333333334,4431.794871794872,4378.461538461539,1683.0,1686.0,1092.643,1053.3583984375,0.0,0.0,0.0,0.0
1091133,80.0,0.0,447.0,4329.743589743591,4154.871794871796,4305.641025641026,4810.769230769231,3788.717948717949,4210.769230769231,4236.923076923077,4093.8461538461543,4394.871794871796,4067.692307692308,4252.307692307693,4327.179487179487,4414.871794871796,4368.717948717949,1683.0,1685.0,1092.65,1053.3583984375,0.0,0.0,0.0,0.0
1091134,81.0,0.0,250.0,4327.6923076923085,4150.256410256411,4300.000000000001,4807.6923076923085,3786.1538461538466,4206.153846153847,4238.461538461539,4095.3846153846157,4393.846153846154,4067.1794871794878,4249.74358974359,4324.102564102564,4410.769230769231,4365.128205128206,1683.0,1686.0,1092.659,1053.3583984375,0.0,0.0,0.0,0.0
1091134,82.0,0.0,487.0,4340.512820512821,4162.051282051282,4306.153846153847,4811.282051282052,3786.666666666667,4206.666666666667,4239.48717948718,4091.2820512820517,4398.461538461539,4071.7948717948725,4261.025641025642,4328.205128205129,4429.2307692307695,4375.384615384616,1682.0,1685.0,1092.665,1053.3583984375,0.0,0.0,0.0,0.0
1091134,83.0,0.0,437.0,4342.051282051282,4169.2307692307695,4307.179487179487,4814.871794871796,3789.2307692307695,4207.6923076923085,4237.948717948719,4084.1025641025644,4397.435897435898,4069.23076923077,4261.025641025642,4333.333333333334,4438.461538461539,4382.051282051282,1682.0,1685.0,1092.673,1053.3583984375,0.0,0.0,0.0,0.0
1091134,84.0,0.0,447.0,4335.384615384616,4167.179487179487,4306.666666666667,4818.461538461539,3793.333333333334,4204.615384615385,4242.051282051282,4096.410256410257,4401.538461538462,4070.7692307692314,4254.358974358975,4333.333333333334,4433.846153846154,4380.000000000001,1682.0,1684.0,1092.681,1053.3583984375,0.0,0.0,0.0,0.0
1091134,85.0,0.0,250.0,4338.974358974359,4168.205128205129,4312.820512820514,4820.512820512821,3795.8974358974365,4205.641025641026,4244.102564102564,4101.025641025642,4404.102564102564,4075.8974358974365,4257.948717948719,4331.794871794872,4431.282051282052,4378.461538461539,1682.0,1685.0,1092.689,1053.3583984375,0.0,0.0,0.0,0.0
1091134,86.0,0.0,487.0,4342.564102564103,4165.641025641026,4313.333333333334,4816.410256410257,3792.307692307693,4206.153846153847,4238.974358974359,4081.538461538462,4395.384615384616,4071.7948717948725,4258.974358974359,4330.256410256411,4432.820512820514,4376.923076923077,1682.0,1684.0,1092.698,1053.3583984375,0.0,0.0,0.0,0.0
1091134,87.0,0.0,437.0,4333.846153846154,4158.461538461539,4307.179487179487,4811.794871794872,3791.7948717948725,4207.6923076923085,4239.48717948718,4081.0256410256416,4393.846153846154,4068.717948717949,4249.2307692307695,4328.205128205129,4429.2307692307695,4374.358974358975,1680.0,1686.0,1092.704,1053.3583984375,0.0,0.0,0.0,0.0
1091135,88.0,0.0,447.0,4325.128205128206,4157.435897435898,4302.051282051282,4809.2307692307695,3795.3846153846157,4217.435897435898,4246.666666666667,4099.48717948718,4398.974358974359,4071.2820512820517,4245.128205128206,4326.666666666667,4424.615384615385,4372.820512820514,1682.0,1685.0,1092.712,1053.3583984375,0.0,0.0,0.0,0.0
1091135,89.0,0.0,250.0,4326.666666666667,4160.512820512821,4298.974358974359,4809.2307692307695,3794.8717948717954,4222.564102564103,4248.205128205129,4093.8461538461543,4396.410256410257,4072.307692307693,4247.6923076923085,4325.128205128206,4427.179487179487,4371.794871794872,1680.0,1685.0,1092.72,1053.3583984375,0.0,0.0,0.0,0.0
1091135,90.0,0.0,487.0,4330.769230769231,4156.410256410257,4296.410256410257,4806.153846153847,3793.8461538461543,4215.384615384616,4241.538461538462,4084.1025641025644,4396.410256410257,4073.333333333334,4245.641025641026,4325.128205128206,4427.6923076923085,4366.666666666667,1681.0,1684.0,1092.728,1053.3583984375,0.0,0.0,0.0,0.0
1091135,91.0,0.0,437.0,4330.256410256411,4151.282051282052,4295.384615384616,4804.615384615386,3793.333333333334,4209.74358974359,4235.384615384616,4093.8461538461543,4401.538461538462,4071.2820512820517,4243.076923076924,4328.717948717949,4420.512820512821,4363.589743589744,1680.0,1684.0,1092.736,1053.3583984375,0.0,0.0,0.0,0.0
1091136,92.0,0.0,447.0,4333.846153846154,4156.923076923077,4298.461538461539,4808.717948717949,3789.2307692307695,4206.153846153847,4234.871794871796,4098.974358974359,4401.025641025642,4066.1538461538466,4247.179487179487,4331.282051282052,4420.000000000001,4371.282051282052,1680.0,1686.0,1092.744,1053.3583984375,0.0,0.0,0.0,0.0
1091136,93.0,0.0,250.0,4346.153846153847,4167.6923076923085,4305.641025641026,4814.358974358975,3787.1794871794878,4203.076923076924,4240.512820512821,4092.820512820513,4400.000000000001,4071.7948717948725,4252.307692307693,4330.769230769231,4429.743589743591,4378.974358974359,1680.0,1684.0,1092.751,1053.3583984375,0.0,0.0,0.0,0.0
1091136,94.0,0.0,487.0,4343.589743589744,4164.102564102564,4305.641025641026,4815.384615384616,3788.205128205129,4204.615384615385,4238.461538461539,4089.7435897435903,4401.538461538462,4074.358974358975,4249.2307692307695,4327.6923076923085,4424.102564102564,4372.820512820514,1681.0,1686.0,1092.76,1053.3583984375,0.0,0.0,0.0,0.0
1091136,95.0,0.0,437.0,4327.179487179487,4151.794871794872,4296.923076923077,4808.205128205129,3785.1282051282055,4206.666666666667,4230.769230769231,4089.23076923077,4401.025641025642,4064.615384615385,4241.025641025642,4325.128205128206,4404.615384615385,4362.564102564103,1681.0,1685.0,1092.767,1053.3583984375,0.0,0.0,0.0,0.0
1091136,96.0,0.0,447.0,4330.256410256411,4150.256410256411,4298.461538461539,4801.025641025642,3785.1282051282055,4208.717948717949,4232.307692307693,4094.358974358975,4401.538461538462,4064.615384615385,4237.435897435898,4325.128205128206,4402.051282051282,4364.102564102564,1681.0,1686.0,1092.775,1053.3583984375,0.0,0.0,0.0,0.0
1091136,97.0,0.0,250.0,4347.179487179487,4156.410256410257,4307.179487179487,4803.589743589744,3789.7435897435903,4208.717948717949,4238.461538461539,4097.435897435898,4398.461538461539,4070.7692307692314,4242.564102564103,4327.6923076923085,4412.307692307693,4368.717948717949,1681.0,1685.0,1092.783,1053.3583984375,0.0,0.0,0.0,0.0
1091136,98.0,0.0,487.0,4348.205128205129,4159.48717948718,4310.256410256411,4813.846153846154,3788.717948717949,4205.641025641026,4236.410256410257,4090.2564102564106,4390.769230769231,4067.692307692308,4244.102564102564,4330.256410256411,4418.974358974359,4372.307692307693,1681.0,1686.0,1092.79,1053.3583984375,0.0,0.0,0.0,0.0
1091136,99.0,0.0,437.0,4344.102564102564,4165.641025641026,4313.333333333334,4814.871794871796,3785.1282051282055,4198.974358974359,4231.794871794872,4085.6410256410263,4390.769230769231,4067.692307692308,4246.153846153847,4331.794871794872,4424.102564102564,4381.025641025642,1682.0,1685.0,1092.798,1053.3583984375,0.0,0.0,0.0,0.0
1091137,100.0,0.0,447.0,4350.256410256411,4169.74358974359,4316.923076923077,4810.769230769231,3785.1282051282055,4196.410256410257,4236.410256410257,4094.358974358975,4402.564102564103,4073.333333333334,4254.871794871796,4335.384615384616,4429.2307692307695,4387.179487179487,1681.0,1685.0,1092.806,1053.3583984375,0.0,0.0,0.0,0.0
1091137,101.0,0.0,250.0,4345.641025641026,4165.128205128206,4307.6923076923085,4812.820512820514,3788.205128205129,4200.512820512821,4240.000000000001,4101.538461538462,4402.051282051282,4070.7692307692314,4253.333333333334,4332.307692307693,4424.102564102564,4383.076923076924,1682.0,1685.0,1092.814,1053.3583984375,0.0,0.0,0.0,0.0
1091137,102.0,0.0,487.0,4332.820512820514,4159.48717948718,4297.948717948719,4812.820512820514,3788.205128205129,4203.589743589744,4235.384615384616,4097.435897435898,4391.794871794872,4069.7435897435903,4245.641025641026,4327.6923076923085,4417.948717948719,4378.461538461539,1681.0,1684.0,1092.822,1053.3583984375,0.0,0.0,0.0,0.0
1091137,103.0,0.0,437.0,4335.8974358974365,4158.974358974359,4304.615384615385,4812.820512820514,3787.692307692308,4204.615384615385,4228.717948717949,4087.692307692308,4392.307692307693,4073.333333333334,4249.2307692307695,4331.282051282052,4428.717948717949,4384.615384615385,1682.0,1685.0,1092.83,1053.3583984375,0.0,0.0,0.0,0.0
1091137,104.0,0.0,447.0,4339.48717948718,4155.8974358974365,4304.615384615385,4812.307692307693,3786.666666666667,4205.128205128206,4225.128205128206,4076.9230769230776,4390.769230769231,4068.717948717949,4252.307692307693,4331.282051282052,4432.820512820514,4382.564102564103,1682.0,1684.0,1092.837,1053.3583984375,0.0,0.0,0.0,0.0
1091137,105.0,0.0,250.0,4335.384615384616,4154.358974358975,4297.435897435898,4810.769230769231,3785.6410256410263,4204.615384615385,4229.74358974359,4085.1282051282055,4391.794871794872,4066.666666666667,4251.282051282052,4328.717948717949,4426.153846153847,4375.8974358974365,1681.0,1684.0,1092.845,1053.3583984375,0.0,0.0,0.0,0.0
1091137,106.0,0.0,487.0,4339.48717948718,4159.48717948718,4305.128205128206,4811.794871794872,3787.1794871794878,4206.666666666667,4233.333333333334,4100.000000000001,4403.589743589744,4072.820512820513,4256.923076923077,4332.307692307693,4431.794871794872,4381.025641025642,1682.0,1683.0,1092.853,1053.3583984375,0.0,0.0,0.0,0.0
1091137,107.0,0.0,437.0,4345.128205128206,4163.589743589744,4310.769230769231,4813.846153846154,3788.205128205129,4207.6923076923085,4229.2307692307695,4092.307692307693,4405.128205128206,4074.358974358975,4256.410256410257,4331.794871794872,4438.974358974359,4388.717948717949,1681.0,1683.0,1092.861,1053.3583984375,0.0,0.0,0.0,0.0
1091138,108.0,0.0,447.0,4344.102564102564,4163.589743589744,4304.102564102564,4813.333333333334,3786.666666666667,4200.512820512821,4229.74358974359,4089.23076923077,4399.48717948718,4072.307692307693,4249.2307692307695,4327.179487179487,4432.820512820514,4386.153846153847,1681.0,1683.0,1092.869,1053.3583984375,0.0,0.0,0.0,0.0
1091138,109.0,0.0,250.0,4342.564102564103,4165.641025641026,4300.000000000001,4811.794871794872,3785.1282051282055,4194.871794871796,4233.846153846154,4096.923076923077,4401.538461538462,4070.7692307692314,4247.6923076923085,4327.179487179487,4426.153846153847,4379.48717948718,1681.0,1684.0,1092.878,1053.3583984375,0.0,0.0,0.0,0.0
1091253,110.0,0.0,487.0,4342.051282051282,4169.74358974359,4304.102564102564,4814.871794871796,3786.666666666667,4203.589743589744,4230.769230769231,4086.1538461538466,4394.871794871796,4069.23076923077,4245.641025641026,4328.717948717949,4427.179487179487,4379.48717948718,1681.0,1683.0,1092.884,1053.8587646484375,0.0,0.0,0.0,0.0
1091253,111.0,0.0,437.0,4338.974358974359,4165.641025641026,4304.102564102564,4817.435897435898,3789.2307692307695,4217.435897435898,4227.179487179487,4072.307692307693,4383.589743589744,4067.692307692308,4237.948717948719,4328.717948717949,4423.076923076924,4381.025641025642,1681.0,1684.0,1092.893,1053.8587646484375,0.0,0.0,0.0,0.0
1091253,112.0,0.0,447.0,4333.846153846154,4159.48717948718,4300.000000000001,4814.871794871796,3788.205128205129,4220.000000000001,4232.307692307693,4078.9743589743593,4386.666666666667,4069.7435897435903,4236.923076923077,4328.717948717949,4417.948717948719,4378.974358974359,1681.0,1683.0,1092.9,1053.8587646484375,0.0,0.0,0.0,0.0
1091253,113.0,0.0,250.0,4334.358974358975,4161.538461538462,4297.435897435898,4810.256410256411,3788.205128205129,4211.282051282052,4234.358974358975,4084.615384615385,4397.435897435898,4070.2564102564106,4241.025641025642,4331.282051282052,4422.564102564103,4376.410256410257,1681.0,1684.0,1092.909,1053.8587646484375,0.0,0.0,0.0,0.0
1091254,114.0,0.0,487.0,4341.538461538462,4166.666666666667,4298.974358974359,4812.307692307693,3787.692307692308,4207.179487179487,4232.307692307693,4076.9230769230776,4395.8974358974365,4068.717948717949,4241.538461538462,4331.794871794872,4427.179487179487,4377.948717948719,1681.0,1683.0,1092.916,1053.8587646484375,0.0,0.0,0.0,0.0
1091254,115.0,0.0,437.0,4348.717948717949,4167.179487179487,4306.666666666667,4819.48717948718,3787.1794871794878,4207.179487179487,4234.871794871796,4082.0512820512827,4394.871794871796,4071.7948717948725,4245.128205128206,4331.282051282052,4428.205128205129,4386.153846153847,1680.0,1684.0,1092.923,1053.8587646484375,0.0,0.0,0.0,0.0
1091254,116.0,0.0,447.0,4348.205128205129,4167.179487179487,4312.820512820514,4820.512820512821,3787.692307692308,4202.564102564103,4237.435897435898,4099.48717948718,4403.589743589744,4075.8974358974365,4247.6923076923085,4330.769230769231,4429.743589743591,4391.282051282052,1680.0,1684.0,1092.931,1053.8587646484375,0.0,0.0,0.0,0.0
1091254,117.0,0.0,250.0,4344.615384615385,4164.102564102564,4307.179487179487,4816.410256410257,3786.666666666667,4201.538461538462,4234.358974358975,4098.461538461539,4405.641025641026,4071.7948717948725,4241.025641025642,4328.205128205129,4424.615384615385,4381.025641025642,1680.0,1685.0,1092.939,1053.8587646484375,0.0,0.0,0.0,0.0
1091254,118.0,0.0,487.0,4341.538461538462,4154.871794871796,4298.461538461539,4811.794871794872,3784.1025641025644,4210.256410256411,4234.358974358975,4080.5128205128212,4393.846153846154,4067.692307692308,4235.384615384616,4326.153846153847,4415.8974358974365,4367.6923076923085,1681.0,1684.0,1092.947,1053.8587646484375,0.0,0.0,0.0,0.0
1091254,119.0,0.0,437.0,4340.512820512821,4156.923076923077,4297.948717948719,4812.307692307693,3787.692307692308,4218.974358974359,4237.435897435898,4084.615384615385,4392.820512820514,4070.2564102564106,4240.512820512821,4326.666666666667,4418.974358974359,4371.794871794872,1679.0,1686.0,1092.955,1053.8587646484375,0.0,0.0,0.0,0.0
1091254,120.0,0.0,447.0,4347.179487179487,4169.2307692307695,4308.717948717949,4820.512820512821,3789.2307692307695,4217.948717948719,4238.461538461539,4106.153846153847,4404.615384615385,4075.8974358974365,4247.179487179487,4332.307692307693,4429.743589743591,4385.641025641026,1681.0,1687.0,1092.963,1053.8587646484375,0.0,0.0,0.0,0.0
1091255,121.0,0.0,250.0,4352.820512820514,4170.769230769231,4314.358974358975,4821.538461538462,3785.1282051282055,4211.282051282052,4240.000000000001,4101.538461538462,4405.641025641026,4079.48717948718,4248.205128205129,4334.871794871796,4432.820512820514,4390.769230769231,1680.0,1685.0,1092.97,1053.8587646484375,0.0,0.0,0.0,0.0
1091255,122.0,0.0,487.0,4348.205128205129,4164.102564102564,4305.128205128206,4817.435897435898,3786.1538461538466,4211.794871794872,4242.051282051282,4086.1538461538466,4398.461538461539,4075.3846153846157,4247.179487179487,4331.282051282052,4428.717948717949,4385.641025641026,1680.0,1686.0,1092.978,1053.8587646484375,0.0,0.0,0.0,0.0
1091255,123.0,0.0,437.0,4344.615384615385,4161.538461538462,4295.8974358974365,4816.923076923077,3787.1794871794878,4216.923076923077,4242.051282051282,4097.948717948719,4405.128205128206,4072.307692307693,4248.717948717949,4329.743589743591,4425.641025641026,4383.076923076924,1680.0,1685.0,1092.986,1053.8587646484375,0.0,0.0,0.0,0.0
1091256,124.0,0.0,447.0,4349.2307692307695,4165.641025641026,4301.538461538462,4818.974358974359,3784.615384615385,4214.871794871796,4243.076923076924,4112.820512820514,4413.846153846154,4074.358974358975,4252.820512820514,4330.769230769231,4429.2307692307695,4385.641025641026,1680.0,1685.0,1092.995,1053.8587646484375,0.0,0.0,0.0,0.0
1091256,125.0,0.0,250.0,4352.307692307693,4169.2307692307695,4306.153846153847,4822.564102564103,3789.2307692307695,4215.384615384616,4247.179487179487,4094.8717948717954,4404.102564102564,4075.3846153846157,4253.333333333334,4331.282051282052,4433.333333333334,4387.179487179487,1680.0,1685.0,1093.002,1053.8587646484375,0.0,0.0,0.0,0.0
1091373,126.0,0.0,487.0,4349.2307692307695,4167.6923076923085,4299.48717948718,4821.538461538462,3794.358974358975,4222.051282051282,4249.2307692307695,4081.538461538462,4393.333333333334,4074.358974358975,4247.179487179487,4330.769230769231,4429.743589743591,4381.025641025642,1681.0,1686.0,1093.01,1053.98388671875,0.0,0.0,0.0,0.0
1091373,127.0,0.0,437.0,4342.564102564103,4165.641025641026,4296.923076923077,4817.948717948719,3788.205128205129,4221.538461538462,4244.102564102564,4094.358974358975,4396.410256410257,4073.333333333334,4242.051282051282,4330.256410256411,4421.538461538462,4372.820512820514,1681.0,1685.0,1093.017,1053.98388671875,0.0,0.0,0.0,0.0
1091374,128.0,0.0,447.0,4340.000000000001,4167.179487179487,4302.051282051282,4820.000000000001,3784.615384615385,4212.820512820514,4240.512820512821,4092.307692307693,4395.384615384616,4070.7692307692314,4243.076923076924,4328.717948717949,4420.512820512821,4373.333333333334,1680.0,1687.0,1093.025,1053.98388671875,0.0,0.0,0.0,0.0
1091374,0.0,0.0,474.0,4344.102564102564,4166.153846153847,4302.051282051282,4822.051282051282,3787.692307692308,4208.205128205129,4243.076923076924,4079.48717948718,4391.282051282052,4069.7435897435903,4246.666666666667,4327.6923076923085,4423.589743589744,4377.435897435898,1681.0,1686.0,1093.033,1053.98388671875,0.0,0.0,0.0,0.0
1091374,1.0,0.0,263.0,4345.641025641026,4165.128205128206,4298.974358974359,4819.48717948718,3787.1794871794878,4209.2307692307695,4243.589743589744,4090.2564102564106,4398.974358974359,4072.820512820513,4246.666666666667,4328.205128205129,4418.974358974359,4373.333333333334,1680.0,1686.0,1093.042,1053.98388671875,0.0,0.0,0.0,0.0
1091374,2.0,0.0,451.0,4346.666666666667,4167.179487179487,4305.641025641026,4819.48717948718,3785.1282051282055,4213.333333333334,4244.102564102564,4106.153846153847,4408.717948717949,4076.9230769230776,4251.794871794872,4330.256410256411,4418.974358974359,4374.358974358975,1681.0,1686.0,1093.049,1053.98388671875,0.0,0.0,0.0,0.0
1091374,3.0,0.0,357.0,4354.871794871796,4171.794871794872,4316.410256410257,4825.641025641026,3786.666666666667,4211.282051282052,4247.179487179487,4104.102564102564,4407.6923076923085,4079.48717948718,4257.948717948719,4332.820512820514,4429.743589743591,4385.641025641026,1681.0,1685.0,1093.056,1053.98388671875,0.0,0.0,0.0,0.0
1091374,4.0,0.0,456.0,4353.333333333334,4166.153846153847,4311.794871794872,4824.615384615386,3788.205128205129,4208.205128205129,4245.641025641026,4098.974358974359,4398.461538461539,4073.333333333334,4246.153846153847,4329.2307692307695,4424.615384615385,4382.051282051282,1680.0,1686.0,1093.064,1053.98388671875,0.0,0.0,0.0,0.0
1091374,5.0,0.0,549.0,4338.974358974359,4157.435897435898,4300.512820512821,4815.8974358974365,3785.6410256410263,4217.948717948719,4240.000000000001,4094.8717948717954,4389.2307692307695,4066.666666666667,4233.333333333334,4325.128205128206,4408.717948717949,4366.666666666667,1682.0,1684.0,1093.072,1053.98388671875,0.0,0.0,0.0,0.0
1091375,6.0,0.0,533.0,4341.025641025642,4163.076923076924,4304.615384615385,4815.8974358974365,3786.1538461538466,4226.153846153847,4244.615384615385,4093.333333333334,4392.820512820514,4073.8461538461543,4248.205128205129,4331.282051282052,4422.051282051282,4376.923076923077,1680.0,1686.0,1093.08,1053.98388671875,0.0,0.0,0.0,0.0
1091375,7.0,0.0,479.0,4360.512820512821,4172.820512820514,4323.076923076924,4827.6923076923085,3791.7948717948725,4217.435897435898,4253.333333333334,4102.051282051282,4411.282051282052,4087.1794871794878,4274.358974358975,4340.512820512821,4453.333333333334,4402.564102564103,1681.0,1685.0,1093.088,1053.98388671875,0.0,0.0,0.0,0.0
1091375,8.0,0.0,421.0,4368.205128205129,4172.307692307693,4332.307692307693,4834.358974358975,3796.9230769230776,4212.307692307693,4253.846153846154,4110.256410256411,4418.461538461539,4091.2820512820517,4276.923076923077,4337.948717948719,4458.974358974359,4407.179487179487,1681.0,1685.0,1093.095,1053.98388671875,0.0,0.0,0.0,0.0
1091375,9.0,0.0,455.0,4363.076923076924,4169.74358974359,4327.179487179487,4827.6923076923085,3797.435897435898,4220.000000000001,4249.74358974359,4112.820512820514,4407.6923076923085,4083.589743589744,4263.076923076924,4332.307692307693,4438.461538461539,4399.48717948718,1681.0,1685.0,1093.103,1053.98388671875,0.0,0.0,0.0,0.0
1091375,10.0,0.0,487.0,4363.076923076924,4169.74358974359,4323.076923076924,4827.179487179488,3792.820512820513,4221.538461538462,4245.128205128206,4111.282051282052,4400.512820512821,4079.48717948718,4257.435897435898,4331.282051282052,4427.6923076923085,4398.974358974359,1680.0,1685.0,1093.111,1053.98388671875,0.0,0.0,0.0,0.0
1091375,11.0,0.0,437.0,4366.153846153847,4169.74358974359,4328.205128205129,4829.743589743591,3791.2820512820517,4215.384615384616,4241.538461538462,4098.974358974359,4403.076923076924,4083.076923076924,4261.025641025642,4330.769230769231,4433.846153846154,4400.512820512821,1681.0,1684.0,1093.119,1053.98388671875,0.0,0.0,0.0,0.0
1091375,12.0,0.0,447.0,4359.48717948718,4170.769230769231,4326.666666666667,4827.6923076923085,3794.358974358975,4215.384615384616,4241.025641025642,4089.7435897435903,4402.564102564103,4081.538461538462,4259.48717948718,4330.256410256411,4435.384615384616,4398.461538461539,1681.0,1684.0,1093.127,1053.98388671875,0.0,0.0,0.0,0.0
1091501,13.0,0.0,250.0,4352.820512820514,4169.74358974359,4319.48717948718,4828.717948717949,3795.3846153846157,4219.48717948718,4247.6923076923085,4102.051282051282,4401.538461538462,4081.0256410256416,4257.948717948719,4331.282051282052,4431.794871794872,4397.435897435898,1682.0,1684.0,1093.135,1054.1090087890625,0.0,0.0,0.0,0.0
1091501,14.0,0.0,487.0,4356.923076923077,4169.74358974359,4320.512820512821,4829.2307692307695,3796.410256410257,4219.48717948718,4254.358974358975,4109.74358974359,4404.102564102564,4084.615384615385,4265.641025641026,4330.769230769231,4436.410256410257,4400.000000000001,1682.0,1684.0,1093.142,1054.1090087890625,0.0,0.0,0.0,0.0
1091501,15.0,0.0,437.0,4358.461538461539,4170.256410256411,4318.974358974359,4823.076923076924,3794.8717948717954,4213.846153846154,4253.333333333334,4104.615384615385,4408.205128205129,4083.076923076924,4267.179487179487,4329.2307692307695,4442.051282051282,4398.974358974359,1681.0,1685.0,1093.15,1054.1090087890625,0.0,0.0,0.0,0.0
1091501,16.0,0.0,0.0,4347.179487179487,4158.461538461539,4307.179487179487,4813.333333333334,3793.333333333334,4210.769230769231,4250.769230769231,4107.6923076923085,4407.6923076923085,4075.8974358974365,4256.923076923077,4328.205128205129,4437.948717948719,4388.717948717949,1682.0,1684.0,1093.158,1054.1090087890625,0.0,0.0,0.0,0.0
1091501,17.0,0.0,0.0,4340.000000000001,4150.256410256411,4298.974358974359,4809.2307692307695,3791.7948717948725,4214.358974358975,4246.666666666667,4101.538461538462,4397.948717948719,4071.2820512820517,4253.846153846154,4324.615384615385,4430.256410256411,4381.025641025642,1681.0,1685.0,1093.166,1054.1090087890625,0.0,0.0,0.0,0.0
1091502,18.0,0.0,0.0,4351.282051282052,4162.564102564103,4306.666666666667,4813.333333333334,3788.717948717949,4213.846153846154,4244.615384615385,4101.025641025642,4403.076923076924,4078.461538461539,4264.615384615385,4326.153846153847,4431.794871794872,4388.205128205129,1682.0,1684.0,1093.174,1054.1090087890625,0.0,0.0,0.0,0.0
1091502,19.0,0.0,0.0,4361.538461538462,4167.6923076923085,4315.384615384616,4817.435897435898,3790.7692307692314,4210.256410256411,4250.256410256411,4127.179487179487,4424.102564102564,4087.1794871794878,4270.769230769231,4333.333333333334,4438.461538461539,4396.923076923077,1681.0,1683.0,1093.181,1054.1090087890625,0.0,0.0,0.0,0.0
1091502,20.0,0.0,0.0,4353.846153846154,4160.000000000001,4310.769230769231,4815.384615384616,3795.8974358974365,4217.948717948719,4251.282051282052,4114.871794871796,4412.820512820514,4081.538461538462,4260.512820512821,4331.282051282052,4436.410256410257,4392.820512820514,1681.0,1683.0,1093.189,1054.1090087890625,0.0,0.0,0.0,0.0
1091502,21.0,0.0,0.0,4344.102564102564,4158.974358974359,4301.538461538462,4813.333333333334,3793.333333333334,4225.641025641026,4243.589743589744,4067.692307692308,4382.051282051282,4070.2564102564106,4252.820512820514,4326.153846153847,4428.717948717949,4386.666666666667,1681.0,1683.0,1093.197,1054.1090087890625,0.0,0.0,0.0,0.0
1091502,22.0,0.0,0.0,4348.717948717949,4163.589743589744,4302.051282051282,4813.333333333334,3783.076923076924,4209.74358974359,4241.025641025642,4071.7948717948725,4386.153846153847,4070.7692307692314,4258.461538461539,4327.179487179487,4427.179487179487,4387.179487179487,1682.0,1683.0,1093.205,1054.1090087890625,0.0,0.0,0.0,0.0
1091502,23.0,0.0,0.0,4353.846153846154,4163.076923076924,4306.153846153847,4812.307692307693,3783.589743589744,4192.820512820514,4242.564102564103,4107.179487179487,4407.6923076923085,4074.8717948717954,4258.974358974359,4328.205128205129,4426.666666666667,4388.717948717949,1680.0,1683.0,1093.214,1054.1090087890625,0.0,0.0,0.0,0.0
1091502,24.0,0.0,0.0,4348.717948717949,4157.435897435898,4303.589743589744,4812.307692307693,3785.6410256410263,4200.000000000001,4238.974358974359,4104.615384615385,4403.589743589744,4071.7948717948725,4247.6923076923085,4325.641025641026,4418.974358974359,4385.128205128206,1681.0,1685.0,1093.221,1054.1090087890625,0.0,0.0,0.0,0.0
1091503,25.0,0.0,0.0,4352.307692307693,4156.410256410257,4302.051282051282,4810.769230769231,3783.589743589744,4211.282051282052,4238.974358974359,4081.0256410256416,4388.205128205129,4069.7435897435903,4247.179487179487,4325.641025641026,4420.512820512821,4384.615384615385,1681.0,1684.0,1093.228,1054.1090087890625,0.0,0.0,0.0,0.0
1091503,26.0,0.0,0.0,4367.179487179487,4165.128205128206,4308.717948717949,4812.820512820514,3785.6410256410263,4207.179487179487,4241.538461538462,4083.076923076924,4392.307692307693,4073.333333333334,4260.512820512821,4330.256410256411,4433.846153846154,4394.871794871796,1680.0,1686.0,1093.236,1054.1090087890625,0.0,0.0,0.0,0.0
1091503,27.0,0.0,0.0,4369.743589743591,4172.820512820514,4318.974358974359,4821.025641025642,3788.205128205129,4205.128205128206,4241.538461538462,4099.48717948718,4402.051282051282,4077.9487179487187,4267.179487179487,4334.871794871796,4438.461538461539,4404.102564102564,1681.0,1685.0,1093.244,1054.1090087890625,0.0,0.0,0.0,0.0
1091503,28.0,0.0,0.0,4361.538461538462,4168.717948717949,4316.923076923077,4821.538461538462,3788.205128205129,4210.769230769231,4239.48717948718,4096.410256410257,4394.358974358975,4079.48717948718,4263.076923076924,4332.820512820514,4433.333333333334,4400.512820512821,1680.0,1685.0,1093.252,1054.1090087890625,0.0,0.0,0.0,0.0
1091627,29.0,0.0,0.0,4364.615384615385,4166.153846153847,4311.794871794872,4819.48717948718,3788.205128205129,4206.666666666667,4239.48717948718,4087.1794871794878,4388.205128205129,4080.0000000000005,4263.589743589744,4330.256410256411,4436.410256410257,4400.000000000001,1681.0,1685.0,1093.26,1054.234130859375,0.0,0.0,0.0,0.0
1091627,30.0,0.0,0.0,4370.769230769231,4171.282051282052,4316.923076923077,4821.025641025642,3788.717948717949,4205.128205128206,4248.717948717949,4098.461538461539,4396.923076923077,4080.0000000000005,4267.179487179487,4332.307692307693,4438.974358974359,4405.128205128206,1680.0,1684.0,1093.267,1054.234130859375,0.0,0.0,0.0,0.0
1091627,31.0,0.0,0.0,4356.923076923077,4163.589743589744,4313.333333333334,4817.948717948719,3790.7692307692314,4216.410256410257,4254.358974358975,4100.000000000001,4392.307692307693,4073.333333333334,4256.923076923077,4327.6923076923085,4417.948717948719,4392.820512820514,1680.0,1684.0,1093.275,1054.234130859375,0.0,0.0,0.0,0.0
1091627,32.0,0.0,0.0,4345.128205128206,4154.358974358975,4300.000000000001,4808.717948717949,3795.3846153846157,4224.615384615385,4245.128205128206,4079.48717948718,4373.333333333334,4064.1025641025644,4242.051282051282,4321.538461538462,4396.410256410257,4375.384615384616,1680.0,1684.0,1093.283,1054.234130859375,0.0,0.0,0.0,0.0
1091628,33.0,0.0,0.0,4351.282051282052,4160.000000000001,4302.564102564103,4808.205128205129,3795.3846153846157,4223.076923076924,4242.564102564103,4078.9743589743593,4374.358974358975,4065.6410256410263,4245.641025641026,4327.179487179487,4410.769230769231,4382.564102564103,1680.0,1684.0,1093.291,1054.234130859375,0.0,0.0,0.0,0.0
1091628,34.0,0.0,0.0,4363.076923076924,4171.282051282052,4318.974358974359,4821.025641025642,3793.8461538461543,4220.512820512821,4253.333333333334,4099.48717948718,4396.923076923077,4081.538461538462,4266.666666666667,4335.8974358974365,4439.48717948718,4404.615384615385,1680.0,1683.0,1093.299,1054.234130859375,0.0,0.0,0.0,0.0
1091628,35.0,0.0,0.0,4369.2307692307695,4170.769230769231,4323.076923076924,4825.641025641026,3795.8974358974365,4217.435897435898,4256.923076923077,4112.820512820514,4410.769230769231,4088.205128205129,4285.128205128206,4337.948717948719,4451.794871794872,4413.846153846154,1680.0,1684.0,1093.307,1054.234130859375,0.0,0.0,0.0,0.0
1091628,36.0,0.0,0.0,4370.256410256411,4165.128205128206,4316.923076923077,4816.923076923077,3795.8974358974365,4214.358974358975,4250.256410256411,4112.307692307693,4405.128205128206,4082.0512820512827,4285.128205128206,4333.333333333334,4445.641025641026,4407.6923076923085,1680.0,1684.0,1093.314,1054.234130859375,0.0,0.0,0.0,0.0
1091628,37.0,0.0,0.0,4367.6923076923085,4166.153846153847,4315.384615384616,4816.410256410257,3795.3846153846157,4218.974358974359,4251.282051282052,4108.205128205129,4402.564102564103,4081.538461538462,4276.410256410257,4330.769230769231,4436.923076923077,4400.512820512821,1681.0,1684.0,1093.323,1054.234130859375,0.0,0.0,0.0,0.0
1091628,38.0,0.0,0.0,4362.051282051282,4168.205128205129,4314.871794871796,4822.564102564103,3798.9743589743593,4225.128205128206,4258.461538461539,4113.333333333334,4414.358974358975,4086.666666666667,4275.8974358974365,4332.820512820514,4441.538461538462,4403.589743589744,1681.0,1685.0,1093.33,1054.234130859375,0.0,0.0,0.0,0.0
1091629,39.0,0.0,0.0,4361.025641025642,4167.6923076923085,4312.307692307693,4821.025641025642,3800.512820512821,4223.076923076924,4253.846153846154,4109.74358974359,4410.256410256411,4085.6410256410263,4282.051282051282,4332.307692307693,4445.128205128206,4403.589743589744,1682.0,1685.0,1093.338,1054.234130859375,0.0,0.0,0.0,0.0
1091629,40.0,0.0,0.0,4367.179487179487,4167.6923076923085,4314.871794871796,4818.461538461539,3797.435897435898,4222.564102564103,4247.6923076923085,4095.3846153846157,4396.410256410257,4081.538461538462,4285.128205128206,4330.256410256411,4441.025641025642,4399.48717948718,1681.0,1685.0,1093.346,1054.234130859375,0.0,0.0,0.0,0.0
1091629,41.0,0.0,0.0,4373.333333333334,4169.2307692307695,4322.564102564103,4821.025641025642,3794.358974358975,4221.538461538462,4252.820512820514,4098.974358974359,4405.128205128206,4082.564102564103,4287.6923076923085,4334.871794871796,4445.641025641026,4409.743589743591,1682.0,1685.0,1093.354,1054.234130859375,0.0,0.0,0.0,0.0
1091629,42.0,0.0,0.0,4370.256410256411,4170.256410256411,4323.589743589744,4823.589743589744,3794.358974358975,4212.820512820514,4256.410256410257,4113.846153846154,4419.48717948718,4088.717948717949,4295.384615384616,4336.410256410257,4454.871794871796,4418.461538461539,1681.0,1685.0,1093.362,1054.234130859375,0.0,0.0,0.0,0.0
1091629,43.0,0.0,0.0,4361.538461538462,4167.6923076923085,4313.846153846154,4820.512820512821,3794.8717948717954,4214.358974358975,4249.2307692307695,4110.769230769231,4412.820512820514,4089.23076923077,4291.282051282052,4331.282051282052,4446.666666666667,4409.743589743591,1682.0,1685.0,1093.369,1054.234130859375,0.0,0.0,0.0,0.0
1091629,44.0,0.0,0.0,4363.589743589744,4166.666666666667,4310.256410256411,4817.435897435898,3794.8717948717954,4222.051282051282,4245.128205128206,4094.358974358975,4398.461538461539,4080.5128205128212,4281.538461538462,4331.282051282052,4439.48717948718,4407.179487179487,1681.0,1684.0,1093.377,1054.234130859375,0.0,0.0,0.0,0.0
1091744,45.0,0.0,0.0,4372.307692307693,4171.282051282052,4318.461538461539,4820.512820512821,3794.358974358975,4217.948717948719,4251.282051282052,4092.307692307693,4401.538461538462,4080.5128205128212,4282.564102564103,4336.410256410257,4448.205128205129,4420.000000000001,1681.0,1686.0,1093.385,1054.3592529296875,0.0,0.0,0.0,0.0
1091744,46.0,0.0,0.0,4368.205128205129,4167.179487179487,4316.923076923077,4821.025641025642,3792.307692307693,4215.384615384616,4253.333333333334,4102.564102564103,4406.666666666667,4081.0256410256416,4281.538461538462,4332.820512820514,4441.538461538462,4416.923076923077,1682.0,1684.0,1093.393,1054.3592529296875,0.0,0.0,0.0,0.0
1091744,47.0,0.0,0.0,4355.8974358974365,4158.974358974359,4306.666666666667,4811.282051282052,3789.7435897435903,4219.48717948718,4249.2307692307695,4096.923076923077,4396.410256410257,4071.2820512820517,4270.769230769231,4325.128205128206,4421.538461538462,4400.000000000001,1680.0,1685.0,1093.4,1054.3592529296875,0.0,0.0,0.0,0.0
1091744,48.0,0.0,0.0,4357.948717948719,4164.615384615385,4309.2307692307695,4808.205128205129,3791.7948717948725,4215.8974358974365,4250.256410256411,4084.615384615385,4398.974358974359,4076.410256410257,4273.846153846154,4327.6923076923085,4425.641025641026,4403.076923076924,1681.0,1685.0,1093.408,1054.3592529296875,0.0,0.0,0.0,0.0
1091744,49.0,0.0,0.0,4363.589743589744,4169.2307692307695,4314.871794871796,4816.923076923077,3793.333333333334,4210.256410256411,4255.8974358974365,4090.7692307692314,4417.435897435898,4087.1794871794878,4284.615384615385,4333.333333333334,4437.948717948719,4414.358974358975,1681.0,1684.0,1093.416,1054.3592529296875,0.0,0.0,0.0,0.0
1091744,50.0,0.0,0.0,4361.025641025642,4158.461538461539,4307.179487179487,4814.358974358975,3791.7948717948725,4211.282051282052,4252.307692307693,4102.564102564103,4413.846153846154,4080.0000000000005,4274.358974358975,4330.769230769231,4425.641025641026,4408.717948717949,1681.0,1685.0,1093.424,1054.3592529296875,0.0,0.0,0.0,0.0
1091745,51.0,0.0,0.0,4355.384615384616,4153.846153846154,4296.923076923077,4805.128205128206,3790.7692307692314,4216.410256410257,4243.589743589744,4095.3846153846157,4391.282051282052,4068.205128205129,4255.384615384616,4322.564102564103,4408.205128205129,4392.307692307693,1681.0,1685.0,1093.432,1054.3592529296875,0.0,0.0,0.0,0.0
1091745,52.0,0.0,0.0,4348.717948717949,4155.384615384616,4292.307692307693,4803.076923076924,3790.7692307692314,4221.538461538462,4243.076923076924,4088.717948717949,4384.615384615385,4066.1538461538466,4249.74358974359,4315.8974358974365,4401.538461538462,4380.512820512821,1682.0,1686.0,1093.44,1054.3592529296875,0.0,0.0,0.0,0.0
1091745,53.0,0.0,0.0,4344.102564102564,4152.820512820514,4284.615384615385,4802.051282051282,3786.666666666667,4215.384615384616,4248.717948717949,4099.48717948718,4394.871794871796,4069.23076923077,4252.307692307693,4316.410256410257,4398.461538461539,4378.461538461539,1681.0,1686.0,1093.447,1054.3592529296875,0.0,0.0,0.0,0.0
1091745,54.0,0.0,0.0,4346.153846153847,4153.333333333334,4285.128205128206,4799.48717948718,3784.1025641025644,4202.564102564103,4250.256410256411,4105.128205128206,4401.025641025642,4070.7692307692314,4256.410256410257,4324.102564102564,4403.076923076924,4383.589743589744,1681.0,1686.0,1093.455,1054.3592529296875,0.0,0.0,0.0,0.0
1091745,55.0,0.0,0.0,4352.307692307693,4156.410256410257,4296.410256410257,4803.076923076924,3791.2820512820517,4206.153846153847,4250.769230769231,4095.8974358974365,4397.948717948719,4071.7948717948725,4258.974358974359,4328.205128205129,4409.2307692307695,4386.666666666667,1681.0,1685.0,1093.464,1054.3592529296875,0.0,0.0,0.0,0.0
1091745,56.0,0.0,0.0,4357.435897435898,4160.512820512821,4305.128205128206,4809.2307692307695,3797.9487179487182,4218.974358974359,4253.333333333334,4088.205128205129,4390.256410256411,4072.820512820513,4261.538461538462,4326.666666666667,4412.307692307693,4388.205128205129,1680.0,1686.0,1093.471,1054.3592529296875,0.0,0.0,0.0,0.0
1091746,57.0,0.0,0.0,4364.615384615385,4167.6923076923085,4312.820512820514,4812.307692307693,3797.435897435898,4217.435897435898,4255.8974358974365,4091.7948717948725,4389.2307692307695,4075.8974358974365,4268.717948717949,4330.769230769231,4420.000000000001,4396.410256410257,1682.0,1684.0,1093.48,1054.3592529296875,0.0,0.0,0.0,0.0
1091746,58.0,0.0,0.0,4366.153846153847,4164.615384615385,4318.461538461539,4812.307692307693,3795.3846153846157,4214.358974358975,4256.923076923077,4103.076923076924,4395.8974358974365,4078.9743589743593,4271.282051282052,4334.871794871796,4423.589743589744,4396.410256410257,1680.0,1685.0,1093.486,1054.3592529296875,0.0,0.0,0.0,0.0
1091746,59.0,0.0,0.0,4357.435897435898,4153.333333333334,4309.2307692307695,4807.179487179488,3797.435897435898,4224.102564102564,4255.8974358974365,4110.769230769231,4398.461538461539,4077.9487179487187,4260.512820512821,4326.153846153847,4411.282051282052,4381.538461538462,1681.0,1685.0,1093.494,1054.3592529296875,0.0,0.0,0.0,0.0
1091746,60.0,0.0,0.0,4352.307692307693,4154.358974358975,4302.051282051282,4804.102564102564,3800.0000000000005,4231.282051282052,4256.923076923077,4107.6923076923085,4399.48717948718,4075.3846153846157,4261.025641025642,4322.051282051282,4409.2307692307695,4380.512820512821,1680.0,1685.0,1093.502,1054.3592529296875,0.0,0.0,0.0,0.0
1091875,61.0,0.0,0.0,4357.948717948719,4162.051282051282,4311.282051282052,4806.666666666667,3797.435897435898,4221.025641025642,4261.025641025642,4100.512820512821,4401.025641025642,4078.461538461539,4275.384615384616,4331.794871794872,4425.641025641026,4395.8974358974365,1681.0,1686.0,1093.51,1054.484375,0.0,0.0,0.0,0.0
1091875,62.0,0.0,0.0,4361.538461538462,4156.923076923077,4310.256410256411,4805.641025641026,3793.333333333334,4208.205128205129,4257.435897435898,4101.025641025642,4397.948717948719,4080.5128205128212,4273.333333333334,4333.846153846154,4425.128205128206,4397.435897435898,1681.0,1685.0,1093.518,1054.484375,0.0,0.0,0.0,0.0
1091875,63.0,0.0,0.0,4358.461538461539,4151.794871794872,4301.025641025642,4804.615384615386,3791.2820512820517,4208.717948717949,4250.769230769231,4107.6923076923085,4397.948717948719,4077.435897435898,4266.153846153847,4328.205128205129,4416.410256410257,4389.2307692307695,1680.0,1685.0,1093.527,1054.484375,0.0,0.0,0.0,0.0
1091875,64.0,0.0,474.0,4361.538461538462,4161.538461538462,4305.641025641026,4811.282051282052,3793.333333333334,4210.256410256411,4252.820512820514,4109.2307692307695,4406.666666666667,4075.8974358974365,4272.307692307693,4329.743589743591,4422.564102564103,4388.717948717949,1681.0,1685.0,1093.534,1054.484375,0.0,0.0,0.0,0.0
1091876,65.0,0.0,263.0,4364.615384615385,4168.205128205129,4307.179487179487,4812.820512820514,3795.8974358974365,4211.282051282052,4255.8974358974365,4095.3846153846157,4404.102564102564,4076.410256410257,4268.717948717949,4330.769230769231,4425.641025641026,4386.666666666667,1681.0,1684.0,1093.542,1054.484375,0.0,0.0,0.0,0.0
1091876,66.0,0.0,451.0,4363.076923076924,4160.000000000001,4298.461538461539,4805.641025641026,3796.9230769230776,4218.974358974359,4254.358974358975,4080.5128205128212,4389.2307692307695,4074.358974358975,4254.871794871796,4327.179487179487,4421.538461538462,4381.538461538462,1681.0,1683.0,1093.549,1054.484375,0.0,0.0,0.0,0.0
1091876,67.0,0.0,357.0,4362.564102564103,4154.358974358975,4296.410256410257,4806.153846153847,3796.410256410257,4223.589743589744,4253.333333333334,4093.333333333334,4392.820512820514,4074.8717948717954,4254.871794871796,4327.6923076923085,4422.051282051282,4387.179487179487,1680.0,1684.0,1093.557,1054.484375,0.0,0.0,0.0,0.0
1091876,68.0,0.0,456.0,4361.538461538462,4160.512820512821,4300.512820512821,4811.282051282052,3796.410256410257,4222.564102564103,4256.410256410257,4113.333333333334,4408.205128205129,4077.9487179487187,4262.564102564103,4329.2307692307695,4423.589743589744,4392.820512820514,1681.0,1683.0,1093.566,1054.484375,0.0,0.0,0.0,0.0
1091876,69.0,0.0,549.0,4364.615384615385,4166.666666666667,4300.512820512821,4813.333333333334,3800.0000000000005,4221.025641025642,4257.948717948719,4113.333333333334,4411.794871794872,4082.0512820512827,4266.666666666667,4330.769230769231,4428.205128205129,4392.820512820514,1679.0,1683.0,1093.572,1054.484375,0.0,0.0,0.0,0.0
1091876,70.0,0.0,533.0,4374.871794871796,4168.205128205129,4303.076923076924,4812.820512820514,3800.0000000000005,4220.512820512821,4259.48717948718,4109.2307692307695,4409.743589743591,4084.615384615385,4269.74358974359,4332.820512820514,4438.461538461539,4398.461538461539,1681.0,1684.0,1093.58,1054.484375,0.0,0.0,0.0,0.0
1091876,71.0,0.0,479.0,4381.025641025642,4167.179487179487,4309.2307692307695,4813.333333333334,3796.410256410257,4220.512820512821,4257.948717948719,4107.179487179487,4407.179487179487,4084.1025641025644,4272.820512820514,4332.307692307693,4439.48717948718,4407.179487179487,1680.0,1684.0,1093.589,1054.484375,0.0,0.0,0.0,0.0
1091876,72.0,0.0,421.0,4378.461538461539,4167.6923076923085,4313.333333333334,4815.8974358974365,3798.9743589743593,4224.615384615385,4254.871794871796,4097.435897435898,4404.102564102564,4084.1025641025644,4278.461538461539,4331.794871794872,4438.461538461539,4410.769230769231,1681.0,1685.0,1093.597,1054.484375,0.0,0.0,0.0,0.0
1091877,73.0,0.0,455.0,4375.8974358974365,4166.153846153847,4310.256410256411,4815.384615384616,3801.0256410256416,4221.538461538462,4253.846153846154,4095.3846153846157,4404.615384615385,4084.1025641025644,4279.48717948718,4332.307692307693,4437.948717948719,4406.153846153847,1681.0,1683.0,1093.604,1054.484375,0.0,0.0,0.0,0.0
1091877,74.0,0.0,487.0,4372.307692307693,4157.948717948719,4301.538461538462,4808.717948717949,3794.8717948717954,4217.948717948719,4253.846153846154,4101.025641025642,4401.025641025642,4079.48717948718,4270.769230769231,4327.6923076923085,4427.6923076923085,4397.435897435898,1680.0,1684.0,1093.612,1054.484375,0.0,0.0,0.0,0.0
1091877,75.0,0.0,437.0,4365.128205128206,4153.333333333334,4300.512820512821,4802.564102564103,3791.2820512820517,4220.000000000001,4255.8974358974365,4104.615384615385,4400.000000000001,4076.410256410257,4266.666666666667,4323.076923076924,4423.589743589744,4395.8974358974365,1681.0,1684.0,1093.619,1054.484375,0.0,0.0,0.0,0.0
1091877,76.0,0.0,447.0,4367.179487179487,4162.051282051282,4313.333333333334,4808.205128205129,3792.307692307693,4208.717948717949,4257.948717948719,4114.871794871796,4415.384615384616,4083.076923076924,4277.948717948719,4328.717948717949,4437.435897435898,4405.641025641026,1681.0,1684.0,1093.628,1054.484375,0.0,0.0,0.0,0.0
1092003,77.0,0.0,250.0,4376.923076923077,4168.717948717949,4319.48717948718,4815.384615384616,3790.2564102564106,4199.48717948718,4257.435897435898,4116.410256410257,4417.948717948719,4087.1794871794878,4280.000000000001,4333.333333333334,4442.564102564103,4408.205128205129,1681.0,1684.0,1093.635,1054.609375,0.0,0.0,0.0,0.0
1092003,78.0,0.0,487.0,4374.871794871796,4165.641025641026,4312.307692307693,4812.307692307693,3792.307692307693,4212.820512820514,4256.923076923077,4096.410256410257,4394.358974358975,4080.5128205128212,4264.102564102564,4328.205128205129,4429.743589743591,4397.948717948719,1681.0,1685.0,1093.643,1054.609375,0.0,0.0,0.0,0.0
1092003,79.0,0.0,437.0,4371.282051282052,4165.641025641026,4310.256410256411,4811.282051282052,3795.8974358974365,4225.128205128206,4255.8974358974365,4084.615384615385,4381.538461538462,4076.410256410257,4257.948717948719,4327.179487179487,4425.641025641026,4395.8974358974365,1682.0,1685.0,1093.652,1054.609375,0.0,0.0,0.0,0.0
1092003,80.0,0.0,447.0,4375.8974358974365,4168.205128205129,4314.358974358975,4816.410256410257,3792.307692307693,4217.948717948719,4252.820512820514,4086.666666666667,4388.717948717949,4077.9487179487187,4268.717948717949,4331.282051282052,4432.307692307693,4401.025641025642,1680.0,1686.0,1093.658,1054.609375,0.0,0.0,0.0,0.0
1092004,81.0,0.0,250.0,4373.333333333334,4167.179487179487,4312.307692307693,4813.846153846154,3791.7948717948725,4212.307692307693,4254.358974358975,4083.076923076924,4391.282051282052,4075.8974358974365,4274.358974358975,4333.846153846154,4433.846153846154,4403.076923076924,1682.0,1687.0,1093.665,1054.609375,0.0,0.0,0.0,0.0
1092004,82.0,0.0,487.0,4367.179487179487,4166.153846153847,4309.2307692307695,4810.256410256411,3796.410256410257,4217.435897435898,4255.384615384616,4080.0000000000005,4384.102564102564,4074.358974358975,4266.153846153847,4329.2307692307695,4428.205128205129,4398.974358974359,1681.0,1685.0,1093.675,1054.609375,0.0,0.0,0.0,0.0
1092004,83.0,0.0,437.0,4373.846153846154,4166.666666666667,4309.2307692307695,4816.923076923077,3794.8717948717954,4215.8974358974365,4251.794871794872,4094.358974358975,4388.205128205129,4078.461538461539,4258.461538461539,4325.641025641026,4425.128205128206,4393.333333333334,1681.0,1687.0,1093.683,1054.609375,0.0,0.0,0.0,0.0
1092004,84.0,0.0,447.0,4383.076923076924,4169.74358974359,4311.282051282052,4821.538461538462,3795.8974358974365,4209.74358974359,4258.461538461539,4111.282051282052,4407.6923076923085,4084.615384615385,4266.153846153847,4330.256410256411,4434.358974358975,4397.948717948719,1681.0,1685.0,1093.69,1054.609375,0.0,0.0,0.0,0.0
1092004,85.0,0.0,250.0,4381.025641025642,4171.794871794872,4314.358974358975,4822.564102564103,3802.0512820512827,4208.717948717949,4265.128205128206,4106.666666666667,4409.743589743591,4085.1282051282055,4274.358974358975,4332.307692307693,4442.564102564103,4405.128205128206,1680.0,1685.0,1093.699,1054.609375,0.0,0.0,0.0,0.0
1092004,86.0,0.0,487.0,4375.384615384616,4169.74358974359,4312.820512820514,4824.102564102564,3798.9743589743593,4213.333333333334,4258.461538461539,4093.8461538461543,4392.820512820514,4080.0000000000005,4267.6923076923085,4328.205128205129,4437.948717948719,4402.051282051282,1681.0,1685.0,1093.705,1054.609375,0.0,0.0,0.0,0.0
1092004,87.0,0.0,437.0,4373.333333333334,4167.179487179487,4308.717948717949,4818.974358974359,3791.7948717948725,4213.846153846154,4254.871794871796,4098.461538461539,4394.871794871796,4077.435897435898,4261.538461538462,4327.6923076923085,4434.358974358975,4396.410256410257,1680.0,1685.0,1093.713,1054.609375,0.0,0.0,0.0,0.0
1092005,88.0,0.0,447.0,4373.846153846154,4166.153846153847,4305.641025641026,4817.435897435898,3791.2820512820517,4211.794871794872,4260.000000000001,4101.025641025642,4404.102564102564,4077.9487179487187,4266.153846153847,4330.769230769231,4436.410256410257,4397.435897435898,1681.0,1685.0,1093.721,1054.609375,0.0,0.0,0.0,0.0
1092005,89.0,0.0,250.0,4372.820512820514,4166.666666666667,4302.051282051282,4821.538461538462,3794.8717948717954,4219.48717948718,4260.512820512821,4088.717948717949,4396.923076923077,4078.9743589743593,4268.717948717949,4330.256410256411,4437.435897435898,4400.000000000001,1680.0,1685.0,1093.729,1054.609375,0.0,0.0,0.0,0.0
1092005,90.0,0.0,487.0,4371.794871794872,4165.641025641026,4301.538461538462,4817.435897435898,3797.9487179487182,4224.102564102564,4257.948717948719,4084.1025641025644,4393.333333333334,4078.9743589743593,4266.153846153847,4330.769230769231,4439.48717948718,4397.435897435898,1681.0,1685.0,1093.737,1054.609375,0.0,0.0,0.0,0.0
1092005,91.0,0.0,437.0,4369.743589743591,4161.025641025642,4301.538461538462,4810.256410256411,3792.307692307693,4215.384615384616,4254.358974358975,4083.076923076924,4394.358974358975,4075.8974358974365,4263.589743589744,4328.717948717949,4438.974358974359,4394.358974358975,1680.0,1685.0,1093.745,1054.609375,0.0,0.0,0.0,0.0
1092005,92.0,0.0,447.0,4365.641025641026,4152.820512820514,4293.333333333334,4810.256410256411,3785.6410256410263,4210.769230769231,4248.717948717949,4081.538461538462,4387.179487179487,4070.2564102564106,4255.8974358974365,4321.538461538462,4426.666666666667,4385.128205128206,1681.0,1684.0,1093.752,1054.609375,0.0,0.0,0.0,0.0
1092130,93.0,0.0,250.0,4368.205128205129,4153.333333333334,4288.205128205129,4809.2307692307695,3786.666666666667,4211.282051282052,4245.128205128206,4088.205128205129,4386.153846153847,4071.7948717948725,4253.333333333334,4321.025641025642,4422.051282051282,4382.051282051282,1680.0,1684.0,1093.761,1054.7344970703125,0.0,0.0,0.0,0.0
1092131,94.0,0.0,487.0,4380.000000000001,4164.615384615385,4298.974358974359,4809.2307692307695,3789.2307692307695,4203.589743589744,4246.666666666667,4096.410256410257,4400.000000000001,4082.564102564103,4267.179487179487,4330.256410256411,4439.48717948718,4396.410256410257,1680.0,1684.0,1093.768,1054.7344970703125,0.0,0.0,0.0,0.0
1092132,95.0,0.0,437.0,4385.641025641026,4171.794871794872,4307.6923076923085,4820.000000000001,3788.205128205129,4202.564102564103,4251.794871794872,4093.333333333334,4403.589743589744,4082.0512820512827,4274.871794871796,4334.358974358975,4451.794871794872,4407.179487179487,1680.0,1684.0,1093.776,1054.7344970703125,0.0,0.0,0.0,0.0
1092132,96.0,0.0,447.0,4378.461538461539,4168.205128205129,4302.564102564103,4826.666666666667,3790.7692307692314,4214.871794871796,4254.871794871796,4089.23076923077,4395.8974358974365,4072.820512820513,4263.076923076924,4330.256410256411,4440.512820512821,4397.948717948719,1680.0,1684.0,1093.784,1054.7344970703125,0.0,0.0,0.0,0.0
1092132,97.0,0.0,250.0,4378.461538461539,4166.666666666667,4304.102564102564,4823.076923076924,3794.358974358975,4217.948717948719,4257.948717948719,4100.512820512821,4401.025641025642,4077.9487179487187,4261.025641025642,4328.717948717949,4435.384615384616,4393.333333333334,1680.0,1684.0,1093.792,1054.7344970703125,0.0,0.0,0.0,0.0
1092132,98.0,0.0,487.0,4384.615384615385,4171.282051282052,4310.256410256411,4823.589743589744,3790.2564102564106,4207.6923076923085,4255.8974358974365,4103.589743589744,4405.641025641026,4086.1538461538466,4272.307692307693,4331.282051282052,4445.641025641026,4402.564102564103,1681.0,1683.0,1093.799,1054.7344970703125,0.0,0.0,0.0,0.0
1092133,99.0,0.0,437.0,4374.358974358975,4164.102564102564,4297.435897435898,4820.512820512821,3785.1282051282055,4207.6923076923085,4246.666666666667,4085.1282051282055,4387.6923076923085,4075.8974358974365,4265.128205128206,4327.179487179487,4433.846153846154,4394.358974358975,1680.0,1684.0,1093.808,1054.7344970703125,0.0,0.0,0.0,0.0
1092133,100.0,0.0,447.0,4364.102564102564,4150.769230769231,4281.538461538462,4809.743589743591,3786.666666666667,4211.794871794872,4245.641025641026,4081.0256410256416,4381.538461538462,4067.1794871794878,4249.74358974359,4322.564102564103,4413.846153846154,4377.435897435898,1681.0,1684.0,1093.815,1054.7344970703125,0.0,0.0,0.0,0.0
1092133,101.0,0.0,250.0,4372.307692307693,4155.8974358974365,4290.256410256411,4812.307692307693,3786.1538461538466,4204.615384615385,4254.871794871796,4095.3846153846157,4398.974358974359,4075.3846153846157,4253.846153846154,4327.179487179487,4423.076923076924,4384.102564102564,1681.0,1682.0,1093.823,1054.7344970703125,0.0,0.0,0.0,0.0
1092133,102.0,0.0,487.0,4376.410256410257,4169.2307692307695,4301.538461538462,4822.051282051282,3784.615384615385,4201.025641025642,4255.384615384616,4096.923076923077,4402.564102564103,4081.538461538462,4264.615384615385,4332.820512820514,4437.948717948719,4396.410256410257,1680.0,1684.0,1093.831,1054.7344970703125,0.0,0.0,0.0,0.0
1092133,103.0,0.0,437.0,4372.820512820514,4164.615384615385,4298.461538461539,4816.410256410257,3785.6410256410263,4203.589743589744,4247.6923076923085,4087.692307692308,4389.743589743591,4078.461538461539,4263.589743589744,4329.743589743591,4431.794871794872,4394.358974358975,1681.0,1683.0,1093.839,1054.7344970703125,0.0,0.0,0.0,0.0
1092134,104.0,0.0,447.0,4377.435897435898,4154.871794871796,4298.461538461539,4809.743589743591,3785.1282051282055,4201.025641025642,4248.205128205129,4092.820512820513,4390.769230769231,4075.3846153846157,4259.48717948718,4327.6923076923085,4427.179487179487,4395.384615384616,1680.0,1683.0,1093.846,1054.7344970703125,0.0,0.0,0.0,0.0
1092134,105.0,0.0,250.0,4380.512820512821,4159.48717948718,4305.128205128206,4814.358974358975,3785.6410256410263,4197.948717948719,4250.769230769231,4098.461538461539,4399.48717948718,4076.410256410257,4261.025641025642,4332.307692307693,4435.384615384616,4403.589743589744,1681.0,1683.0,1093.854,1054.7344970703125,0.0,0.0,0.0,0.0
1092134,106.0,0.0,487.0,4375.8974358974365,4160.000000000001,4306.153846153847,4814.871794871796,3787.1794871794878,4204.615384615385,4247.179487179487,4088.717948717949,4393.846153846154,4079.48717948718,4263.076923076924,4333.333333333334,4435.384615384616,4404.615384615385,1680.0,1683.0,1093.862,1054.7344970703125,0.0,0.0,0.0,0.0
1092134,107.0,0.0,437.0,4374.871794871796,4156.410256410257,4299.48717948718,4811.282051282052,3785.6410256410263,4210.769230769231,4245.641025641026,4075.3846153846157,4381.025641025642,4077.9487179487187,4259.48717948718,4329.743589743591,4428.717948717949,4401.538461538462,1681.0,1684.0,1093.87,1054.7344970703125,0.0,0.0,0.0,0.0
1092134,108.0,0.0,447.0,4374.358974358975,4163.076923076924,4293.333333333334,4812.820512820514,3787.692307692308,4207.6923076923085,4248.717948717949,4078.461538461539,4380.512820512821,4073.333333333334,4252.307692307693,4326.666666666667,4425.641025641026,4400.000000000001,1680.0,1684.0,1093.878,1054.7344970703125,0.0,0.0,0.0,0.0
1092260,109.0,0.0,250.0,4374.358974358975,4168.717948717949,4296.923076923077,4815.8974358974365,3794.8717948717954,4206.153846153847,4249.2307692307695,4085.1282051282055,4385.641025641026,4071.7948717948725,4253.846153846154,4326.666666666667,4425.641025641026,4399.48717948718,1681.0,1684.0,1093.885,1054.859619140625,0.0,0.0,0.0,0.0
1092261,110.0,0.0,487.0,4383.076923076924,4165.641025641026,4304.102564102564,4815.384615384616,3794.8717948717954,4209.2307692307695,4248.717948717949,4093.333333333334,4390.256410256411,4076.410256410257,4262.051282051282,4330.256410256411,4429.2307692307695,4404.615384615385,1680.0,1684.0,1093.894,1054.859619140625,0.0,0.0,0.0,0.0
1092261,111.0,0.0,437.0,4390.256410256411,4166.666666666667,4307.179487179487,4816.923076923077,3793.8461538461543,4209.2307692307695,4257.948717948719,4123.589743589744,4409.2307692307695,4086.1538461538466,4267.179487179487,4334.358974358975,4436.410256410257,4409.2307692307695,1681.0,1685.0,1093.902,1054.859619140625,0.0,0.0,0.0,0.0
1092262,112.0,0.0,447.0,4389.2307692307695,4170.769230769231,4311.282051282052,4823.076923076924,3799.48717948718,4211.282051282052,4263.589743589744,4135.8974358974365,4424.615384615385,4092.307692307693,4275.384615384616,4334.871794871796,4446.153846153847,4411.794871794872,1680.0,1684.0,1093.91,1054.859619140625,0.0,0.0,0.0,0.0
1092262,113.0,0.0,250.0,4389.743589743591,4170.256410256411,4312.307692307693,4825.128205128206,3801.0256410256416,4216.410256410257,4253.333333333334,4101.025641025642,4407.6923076923085,4087.1794871794878,4276.410256410257,4331.282051282052,4446.153846153847,4411.282051282052,1680.0,1686.0,1093.918,1054.859619140625,0.0,0.0,0.0,0.0
1092263,114.0,0.0,487.0,4388.205128205129,4168.717948717949,4306.666666666667,4823.076923076924,3797.435897435898,4215.384615384616,4249.2307692307695,4082.564102564103,4389.2307692307695,4080.5128205128212,4265.641025641026,4328.205128205129,4435.8974358974365,4406.666666666667,1681.0,1684.0,1093.955,1054.859619140625,0.0,0.0,0.0,0.0
1092264,115.0,0.0,437.0,4384.615384615385,4168.717948717949,4305.641025641026,4825.641025641026,3797.9487179487182,4213.333333333334,4257.948717948719,4109.74358974359,4398.974358974359,4087.692307692308,4260.512820512821,4327.6923076923085,4434.871794871796,4406.666666666667,1680.0,1686.0,1093.96,1054.859619140625,0.0,0.0,0.0,0.0
1092264,116.0,0.0,447.0,4384.615384615385,4169.74358974359,4306.153846153847,4829.743589743591,3793.333333333334,4214.871794871796,4255.384615384616,4114.871794871796,4404.102564102564,4090.2564102564106,4265.641025641026,4328.205128205129,4436.923076923077,4408.717948717949,1681.0,1685.0,1093.96,1054.859619140625,0.0,0.0,0.0,0.0
1092265,117.0,0.0,250.0,4381.025641025642,4168.205128205129,4298.974358974359,4823.589743589744,3786.1538461538466,4210.256410256411,4243.589743589744,4080.5128205128212,4383.076923076924,4075.8974358974365,4261.025641025642,4325.128205128206,4425.128205128206,4401.538461538462,1681.0,1686.0,1093.96,1054.859619140625,0.0,0.0,0.0,0.0
1092266,118.0,0.0,487.0,4375.384615384616,4166.666666666667,4295.8974358974365,4816.410256410257,3788.205128205129,4208.205128205129,4244.102564102564,4068.205128205129,4368.717948717949,4068.205128205129,4249.2307692307695,4323.076923076924,4416.923076923077,4394.358974358975,1681.0,1686.0,1093.96,1054.859619140625,0.0,0.0,0.0,0.0
1092267,119.0,0.0,437.0,4382.051282051282,4169.74358974359,4305.641025641026,4823.076923076924,3794.358974358975,4214.358974358975,4252.820512820514,4099.48717948718,4389.2307692307695,4079.48717948718,4254.358974358975,4328.717948717949,4431.794871794872,4402.564102564103,1681.0,1686.0,1093.967,1054.859619140625,0.0,0.0,0.0,0.0
1092267,120.0,0.0,447.0,4392.307692307693,4169.2307692307695,4309.2307692307695,4827.6923076923085,3793.333333333334,4211.282051282052,4257.948717948719,4121.025641025642,4411.282051282052,4086.666666666667,4268.205128205129,4333.846153846154,4444.615384615385,4412.820512820514,1681.0,1685.0,1093.973,1054.859619140625,0.0,0.0,0.0,0.0
1092267,121.0,0.0,250.0,4388.205128205129,4168.205128205129,4300.512820512821,4824.615384615386,3787.1794871794878,4198.974358974359,4253.846153846154,4094.358974358975,4396.410256410257,4078.461538461539,4262.564102564103,4329.2307692307695,4433.846153846154,4408.205128205129,1681.0,1685.0,1093.981,1054.859619140625,0.0,0.0,0.0,0.0
1092268,122.0,0.0,487.0,4378.974358974359,4168.717948717949,4294.871794871796,4822.564102564103,3787.1794871794878,4200.000000000001,4246.666666666667,4070.7692307692314,4375.8974358974365,4071.7948717948725,4246.666666666667,4324.615384615385,4420.000000000001,4399.48717948718,1681.0,1685.0,1093.989,1054.859619140625,0.0,0.0,0.0,0.0
1092269,123.0,0.0,437.0,4377.435897435898,4166.666666666667,4297.948717948719,4822.564102564103,3789.7435897435903,4208.205128205129,4246.666666666667,4087.1794871794878,4382.564102564103,4070.7692307692314,4245.128205128206,4324.102564102564,4417.435897435898,4400.000000000001,1681.0,1684.0,1093.997,1054.859619140625,0.0,0.0,0.0,0.0
1092269,124.0,0.0,447.0,4382.564102564103,4166.666666666667,4301.025641025642,4822.051282051282,3791.2820512820517,4206.666666666667,4252.820512820514,4096.410256410257,4391.282051282052,4074.8717948717954,4250.256410256411,4326.666666666667,4421.538461538462,4403.589743589744,1681.0,1686.0,1094.005,1054.859619140625,0.0,0.0,0.0,0.0
1092377,125.0,0.0,250.0,4385.641025641026,4168.717948717949,4299.48717948718,4821.538461538462,3794.8717948717954,4205.641025641026,4257.435897435898,4089.7435897435903,4390.769230769231,4081.0256410256416,4250.256410256411,4328.205128205129,4425.128205128206,4402.564102564103,1682.0,1684.0,1094.013,1054.9847412109375,0.0,0.0,0.0,0.0
1092377,126.0,0.0,487.0,4383.589743589744,4166.666666666667,4295.384615384616,4818.974358974359,3794.358974358975,4204.615384615385,4258.974358974359,4102.564102564103,4399.48717948718,4080.5128205128212,4252.307692307693,4327.179487179487,4426.666666666667,4403.076923076924,1681.0,1685.0,1094.021,1054.9847412109375,0.0,0.0,0.0,0.0
1092377,127.0,0.0,437.0,4380.000000000001,4165.128205128206,4290.256410256411,4814.871794871796,3791.7948717948725,4203.589743589744,4256.410256410257,4109.2307692307695,4401.538461538462,4075.3846153846157,4253.333333333334,4324.615384615385,4424.615384615385,4405.128205128206,1682.0,1685.0,1094.029,1054.9847412109375,0.0,0.0,0.0,0.0
1092378,128.0,0.0,447.0,4381.025641025642,4167.6923076923085,4289.2307692307695,4815.384615384616,3796.410256410257,4209.2307692307695,4253.846153846154,4086.1538461538466,4389.743589743591,4074.358974358975,4248.205128205129,4323.589743589744,4422.564102564103,4402.564102564103,1681.0,1686.0,1094.036,1054.9847412109375,0.0,0.0,0.0,0.0
1092378,0.0,0.0,474.0,4389.2307692307695,4168.205128205129,4298.461538461539,4821.025641025642,3802.564102564103,4217.435897435898,4261.025641025642,4088.205128205129,4394.871794871796,4079.48717948718,4251.794871794872,4327.179487179487,4425.641025641026,4404.102564102564,1682.0,1686.0,1094.044,1054.9847412109375,0.0,0.0,0.0,0.0
1092378,1.0,0.0,263.0,4390.769230769231,4168.205128205129,4302.564102564103,4822.051282051282,3801.0256410256416,4216.410256410257,4267.179487179487,4114.871794871796,4408.205128205129,4084.615384615385,4258.974358974359,4331.282051282052,4429.743589743591,4408.717948717949,1681.0,1685.0,1094.05,1054.9847412109375,0.0,0.0,0.0,0.0
1092378,2.0,0.0,451.0,4383.589743589744,4168.717948717949,4295.384615384616,4818.461538461539,3798.9743589743593,4212.820512820514,4259.48717948718,4102.051282051282,4399.48717948718,4084.1025641025644,4256.410256410257,4329.2307692307695,4431.282051282052,4407.179487179487,1681.0,1686.0,1094.058,1054.9847412109375,0.0,0.0,0.0,0.0
1092378,3.0,0.0,357.0,4382.564102564103,4167.179487179487,4293.846153846154,4814.871794871796,3800.512820512821,4221.538461538462,4254.358974358975,4081.0256410256416,4385.128205128206,4078.461538461539,4253.846153846154,4325.641025641026,4426.666666666667,4404.102564102564,1681.0,1685.0,1094.066,1054.9847412109375,0.0,0.0,0.0,0.0
1092378,4.0,0.0,456.0,4388.717948717949,4166.153846153847,4296.923076923077,4816.410256410257,3798.9743589743593,4226.153846153847,4256.923076923077,4102.564102564103,4394.358974358975,4077.9487179487187,4257.435897435898,4326.153846153847,4421.025641025642,4404.102564102564,1681.0,1685.0,1094.074,1054.9847412109375,0.0,0.0,0.0,0.0
1092379,5.0,0.0,549.0,4394.358974358975,4170.256410256411,4298.974358974359,4821.025641025642,3797.9487179487182,4215.384615384616,4258.974358974359,4120.512820512821,4409.2307692307695,4087.1794871794878,4266.153846153847,4330.769230769231,4428.205128205129,4406.666666666667,1682.0,1684.0,1094.082,1054.9847412109375,0.0,0.0,0.0,0.0
1092379,6.0,0.0,533.0,4394.871794871796,4173.333333333334,4300.000000000001,4825.128205128206,3798.461538461539,4206.666666666667,4258.461538461539,4098.974358974359,4405.128205128206,4091.2820512820517,4269.74358974359,4333.846153846154,4438.974358974359,4412.307692307693,1681.0,1685.0,1094.09,1054.9847412109375,0.0,0.0,0.0,0.0
1092379,7.0,0.0,479.0,4391.282051282052,4165.641025641026,4297.435897435898,4820.512820512821,3796.410256410257,4207.179487179487,4256.410256410257,4086.1538461538466,4393.846153846154,4082.564102564103,4260.000000000001,4329.743589743591,4431.282051282052,4408.717948717949,1683.0,1683.0,1094.098,1054.9847412109375,0.0,0.0,0.0,0.0
1092379,8.0,0.0,421.0,4386.153846153847,4159.48717948718,4292.307692307693,4810.769230769231,3789.7435897435903,4202.564102564103,4251.794871794872,4096.923076923077,4392.307692307693,4074.358974358975,4253.846153846154,4326.153846153847,4417.435897435898,4399.48717948718,1681.0,1684.0,1094.105,1054.9847412109375,0.0,0.0,0.0,0.0
1092379,9.0,0.0,455.0,4378.461538461539,4162.051282051282,4287.6923076923085,4811.282051282052,3783.589743589744,4196.410256410257,4245.641025641026,4082.0512820512827,4381.538461538462,4069.7435897435903,4254.871794871796,4325.641025641026,4414.871794871796,4397.948717948719,1682.0,1684.0,1094.113,1054.9847412109375,0.0,0.0,0.0,0.0
1092380,10.0,0.0,487.0,4374.871794871796,4159.48717948718,4286.153846153847,4812.820512820514,3788.205128205129,4206.666666666667,4242.564102564103,4057.9487179487182,4368.717948717949,4067.1794871794878,4251.794871794872,4322.564102564103,4414.358974358975,4397.435897435898,1681.0,1684.0,1094.121,1054.9847412109375,0.0,0.0,0.0,0.0
1092380,11.0,0.0,437.0,4387.6923076923085,4160.000000000001,4293.333333333334,4811.794871794872,3795.8974358974365,4212.307692307693,4246.153846153847,4071.2820512820517,4378.461538461539,4074.8717948717954,4255.8974358974365,4328.205128205129,4418.974358974359,4397.948717948719,1681.0,1685.0,1094.129,1054.9847412109375,0.0,0.0,0.0,0.0
1092496,12.0,0.0,447.0,4398.461538461539,4166.153846153847,4300.512820512821,4815.8974358974365,3795.8974358974365,4203.076923076924,4251.282051282052,4091.7948717948725,4389.2307692307695,4079.48717948718,4265.641025641026,4335.384615384616,4424.615384615385,4403.076923076924,1682.0,1685.0,1094.136,1055.10986328125,0.0,0.0,0.0,0.0
1092496,13.0,0.0,250.0,4389.743589743591,4166.153846153847,4291.794871794872,4814.358974358975,3793.8461538461543,4200.512820512821,4251.282051282052,4093.8461538461543,4387.179487179487,4073.333333333334,4261.025641025642,4330.769230769231,4418.461538461539,4401.538461538462,1681.0,1685.0,1094.145,1055.10986328125,0.0,0.0,0.0,0.0
1092496,14.0,0.0,487.0,4385.641025641026,4164.102564102564,4285.641025641026,4810.256410256411,3793.8461538461543,4202.564102564103,4251.282051282052,4095.3846153846157,4390.769230769231,4075.8974358974365,4258.461538461539,4326.153846153847,4415.8974358974365,4398.974358974359,1681.0,1684.0,1094.152,1055.10986328125,0.0,0.0,0.0,0.0
1092496,15.0,0.0,437.0,4394.358974358975,4169.2307692307695,4294.358974358975,4818.461538461539,3797.435897435898,4202.564102564103,4255.8974358974365,4097.435897435898,4393.846153846154,4086.1538461538466,4272.307692307693,4331.282051282052,4426.666666666667,4404.615384615385,1681.0,1684.0,1094.161,1055.10986328125,0.0,0.0,0.0,0.0
1092497,16.0,0.0,0.0,4396.410256410257,4169.74358974359,4297.435897435898,4822.051282051282,3799.48717948718,4216.410256410257,4256.410256410257,4089.23076923077,4390.769230769231,4085.6410256410263,4277.948717948719,4333.333333333334,4432.307692307693,4407.6923076923085,1681.0,1683.0,1094.168,1055.10986328125,0.0,0.0,0.0,0.0
1092497,17.0,0.0,0.0,4389.743589743591,4164.615384615385,4291.794871794872,4815.384615384616,3797.9487179487182,4231.282051282052,4251.794871794872,4089.23076923077,4394.871794871796,4082.0512820512827,4271.794871794872,4329.743589743591,4429.743589743591,4406.153846153847,1680.0,1684.0,1094.177,1055.10986328125,0.0,0.0,0.0,0.0
1092497,18.0,0.0,0.0,4393.333333333334,4167.6923076923085,4297.435897435898,4820.000000000001,3795.8974358974365,4220.512820512821,4252.820512820514,4106.153846153847,4409.2307692307695,4088.205128205129,4274.871794871796,4332.820512820514,4435.384615384616,4412.820512820514,1681.0,1684.0,1094.183,1055.10986328125,0.0,0.0,0.0,0.0
1092497,19.0,0.0,0.0,4398.974358974359,4170.769230769231,4303.076923076924,4823.589743589744,3798.461538461539,4204.102564102564,4253.333333333334,4108.717948717949,4411.794871794872,4089.7435897435903,4282.564102564103,4336.410256410257,4437.948717948719,4416.410256410257,1681.0,1684.0,1094.191,1055.10986328125,0.0,0.0,0.0,0.0
1092497,20.0,0.0,0.0,4391.282051282052,4166.153846153847,4293.846153846154,4818.461538461539,3798.461538461539,4205.641025641026,4248.205128205129,4090.7692307692314,4396.410256410257,4080.0000000000005,4273.846153846154,4329.743589743591,4425.641025641026,4404.615384615385,1680.0,1684.0,1094.199,1055.10986328125,0.0,0.0,0.0,0.0
1092498,21.0,0.0,0.0,4389.743589743591,4162.051282051282,4292.820512820514,4820.000000000001,3797.435897435898,4208.205128205129,4254.358974358975,4102.051282051282,4398.461538461539,4080.0000000000005,4269.74358974359,4328.717948717949,4427.6923076923085,4403.076923076924,1681.0,1685.0,1094.207,1055.10986328125,0.0,0.0,0.0,0.0
1092498,22.0,0.0,0.0,4396.923076923077,4167.179487179487,4303.076923076924,4824.615384615386,3803.076923076924,4208.717948717949,4265.641025641026,4130.769230769231,4418.461538461539,4090.7692307692314,4275.8974358974365,4333.846153846154,4440.512820512821,4412.820512820514,1681.0,1685.0,1094.215,1055.10986328125,0.0,0.0,0.0,0.0
1092498,23.0,0.0,0.0,4389.743589743591,4170.256410256411,4298.461538461539,4821.025641025642,3803.076923076924,4220.512820512821,4261.538461538462,4107.6923076923085,4404.615384615385,4087.1794871794878,4265.128205128206,4327.6923076923085,4425.641025641026,4404.615384615385,1681.0,1685.0,1094.222,1055.10986328125,0.0,0.0,0.0,0.0
1092499,24.0,0.0,0.0,4379.48717948718,4165.128205128206,4289.74358974359,4816.923076923077,3801.0256410256416,4229.2307692307695,4255.384615384616,4063.589743589744,4372.820512820514,4072.820512820513,4249.74358974359,4322.051282051282,4403.589743589744,4391.794871794872,1682.0,1684.0,1094.229,1055.10986328125,0.0,0.0,0.0,0.0
1092499,25.0,0.0,0.0,4382.051282051282,4164.615384615385,4291.794871794872,4818.461538461539,3802.0512820512827,4223.076923076924,4257.435897435898,4067.692307692308,4374.871794871796,4072.307692307693,4254.871794871796,4326.666666666667,4408.717948717949,4396.410256410257,1682.0,1685.0,1094.239,1055.10986328125,0.0,0.0,0.0,0.0
1092499,26.0,0.0,0.0,4388.205128205129,4166.666666666667,4296.410256410257,4821.538461538462,3800.512820512821,4217.435897435898,4256.923076923077,4094.358974358975,4390.769230769231,4081.0256410256416,4269.2307692307695,4329.743589743591,4422.051282051282,4405.128205128206,1682.0,1684.0,1094.245,1055.10986328125,0.0,0.0,0.0,0.0
1092500,27.0,0.0,0.0,4397.948717948719,4167.179487179487,4301.538461538462,4823.076923076924,3799.48717948718,4223.589743589744,4259.48717948718,4101.025641025642,4395.8974358974365,4086.666666666667,4278.461538461539,4332.307692307693,4429.743589743591,4412.307692307693,1681.0,1685.0,1094.254,1055.10986328125,0.0,0.0,0.0,0.0
1092628,28.0,0.0,0.0,4403.076923076924,4169.2307692307695,4304.615384615385,4823.589743589744,3800.512820512821,4224.615384615385,4263.589743589744,4099.48717948718,4397.435897435898,4089.23076923077,4282.051282051282,4334.358974358975,4432.820512820514,4418.974358974359,1683.0,1685.0,1094.261,1055.2349853515625,0.0,0.0,0.0,0.0
1092628,29.0,0.0,0.0,4400.512820512821,4171.282051282052,4302.564102564103,4826.153846153847,3800.0000000000005,4213.846153846154,4257.435897435898,4104.102564102564,4398.974358974359,4088.717948717949,4282.051282051282,4331.794871794872,4433.333333333334,4416.923076923077,1681.0,1683.0,1094.268,1055.2349853515625,0.0,0.0,0.0,0.0
1092628,30.0,0.0,0.0,4405.128205128206,4171.794871794872,4306.153846153847,4831.282051282052,3798.461538461539,4206.153846153847,4250.769230769231,4100.000000000001,4401.538461538462,4087.1794871794878,4287.6923076923085,4332.820512820514,4442.564102564103,4417.435897435898,1681.0,1685.0,1094.277,1055.2349853515625,0.0,0.0,0.0,0.0
1092628,31.0,0.0,0.0,4412.820512820514,4172.820512820514,4314.358974358975,4832.820512820514,3800.512820512821,4207.179487179487,4257.435897435898,4088.717948717949,4405.128205128206,4091.2820512820517,4294.358974358975,4338.461538461539,4451.794871794872,4426.153846153847,1682.0,1684.0,1094.284,1055.2349853515625,0.0,0.0,0.0,0.0
1092629,32.0,0.0,0.0,4408.205128205129,4171.794871794872,4313.333333333334,4832.307692307693,3803.589743589744,4214.358974358975,4260.512820512821,4097.948717948719,4407.6923076923085,4093.8461538461543,4289.2307692307695,4335.8974358974365,4443.589743589744,4424.102564102564,1681.0,1685.0,1094.293,1055.2349853515625,0.0,0.0,0.0,0.0
1092629,33.0,0.0,0.0,4402.564102564103,4171.282051282052,4306.153846153847,4828.717948717949,3804.615384615385,4220.000000000001,4259.48717948718,4110.769230769231,4403.589743589744,4090.2564102564106,4286.153846153847,4330.256410256411,4433.846153846154,4415.8974358974365,1682.0,1684.0,1094.3,1055.2349853515625,0.0,0.0,0.0,0.0
1092629,34.0,0.0,0.0,4404.102564102564,4169.74358974359,4304.615384615385,4826.153846153847,3802.0512820512827,4219.48717948718,4264.102564102564,4100.000000000001,4396.923076923077,4087.692307692308,4287.6923076923085,4329.743589743591,4434.358974358975,4415.8974358974365,1682.0,1685.0,1094.309,1055.2349853515625,0.0,0.0,0.0,0.0
1092629,35.0,0.0,0.0,4399.48717948718,4168.205128205129,4303.589743589744,4825.128205128206,3800.0000000000005,4219.48717948718,4262.051282051282,4088.205128205129,4397.948717948719,4087.692307692308,4282.051282051282,4329.743589743591,4431.282051282052,4411.794871794872,1681.0,1684.0,1094.315,1055.2349853515625,0.0,0.0,0.0,0.0
1092629,36.0,0.0,0.0,4394.358974358975,4168.205128205129,4301.025641025642,4823.589743589744,3800.512820512821,4220.512820512821,4256.410256410257,4098.461538461539,4404.615384615385,4085.1282051282055,4275.384615384616,4329.743589743591,4424.615384615385,4404.615384615385,1681.0,1686.0,1094.323,1055.2349853515625,0.0,0.0,0.0,0.0
1092629,37.0,0.0,0.0,4396.410256410257,4169.2307692307695,4303.076923076924,4820.512820512821,3802.0512820512827,4216.410256410257,4260.512820512821,4106.666666666667,4404.102564102564,4084.1025641025644,4274.871794871796,4329.743589743591,4423.076923076924,4408.205128205129,1682.0,1685.0,1094.331,1055.2349853515625,0.0,0.0,0.0,0.0
1092629,38.0,0.0,0.0,4402.051282051282,4168.717948717949,4305.641025641026,4822.564102564103,3801.538461538462,4210.256410256411,4262.051282051282,4101.538461538462,4398.974358974359,4087.1794871794878,4278.974358974359,4331.282051282052,4427.6923076923085,4416.923076923077,1680.0,1686.0,1094.339,1055.2349853515625,0.0,0.0,0.0,0.0
1092630,39.0,0.0,0.0,4403.589743589744,4169.74358974359,4308.205128205129,4827.179487179488,3798.9743589743593,4211.282051282052,4255.8974358974365,4100.512820512821,4404.615384615385,4092.307692307693,4286.666666666667,4334.871794871796,4437.435897435898,4422.564102564103,1681.0,1686.0,1094.347,1055.2349853515625,0.0,0.0,0.0,0.0
1092630,40.0,0.0,0.0,4399.48717948718,4170.256410256411,4310.256410256411,4825.641025641026,3800.0000000000005,4215.8974358974365,4256.410256410257,4101.538461538462,4410.769230769231,4093.333333333334,4288.205128205129,4333.846153846154,4440.000000000001,4423.076923076924,1680.0,1686.0,1094.354,1055.2349853515625,0.0,0.0,0.0,0.0
1092630,41.0,0.0,0.0,4397.435897435898,4166.666666666667,4304.102564102564,4817.435897435898,3801.538461538462,4215.384615384616,4258.974358974359,4095.3846153846157,4402.564102564103,4085.6410256410263,4276.410256410257,4327.179487179487,4426.666666666667,4417.435897435898,1680.0,1687.0,1094.362,1055.2349853515625,0.0,0.0,0.0,0.0
1092630,42.0,0.0,0.0,4396.410256410257,4165.641025641026,4300.512820512821,4813.333333333334,3793.8461538461543,4212.820512820514,4256.410256410257,4092.820512820513,4394.871794871796,4081.0256410256416,4269.74358974359,4326.666666666667,4420.000000000001,4415.384615384616,1681.0,1686.0,1094.37,1055.2349853515625,0.0,0.0,0.0,0.0
1092630,43.0,0.0,0.0,4396.410256410257,4168.205128205129,4307.179487179487,4820.000000000001,3790.2564102564106,4214.871794871796,4255.384615384616,4096.923076923077,4401.025641025642,4087.692307692308,4276.923076923077,4334.358974358975,4427.6923076923085,4420.512820512821,1681.0,1688.0,1094.378,1055.2349853515625,0.0,0.0,0.0,0.0
1092748,44.0,0.0,0.0,4401.538461538462,4170.256410256411,4306.153846153847,4823.589743589744,3796.410256410257,4222.051282051282,4255.384615384616,4095.8974358974365,4403.589743589744,4088.205128205129,4278.461538461539,4335.384615384616,4431.794871794872,4421.538461538462,1682.0,1687.0,1094.386,1055.360107421875,0.0,0.0,0.0,0.0
1092749,45.0,0.0,0.0,4402.051282051282,4168.205128205129,4300.512820512821,4818.461538461539,3796.9230769230776,4223.076923076924,4256.923076923077,4093.333333333334,4400.512820512821,4082.0512820512827,4274.358974358975,4331.794871794872,4429.2307692307695,4417.948717948719,1681.0,1687.0,1094.394,1055.360107421875,0.0,0.0,0.0,0.0
1092749,46.0,0.0,0.0,4398.461538461539,4167.179487179487,4303.589743589744,4816.923076923077,3794.358974358975,4218.974358974359,4261.538461538462,4101.538461538462,4404.102564102564,4084.615384615385,4277.435897435898,4331.282051282052,4431.794871794872,4419.48717948718,1682.0,1687.0,1094.401,1055.360107421875,0.0,0.0,0.0,0.0
1092750,47.0,0.0,0.0,4396.410256410257,4167.6923076923085,4305.128205128206,4818.974358974359,3796.410256410257,4214.871794871796,4257.435897435898,4100.000000000001,4404.102564102564,4086.666666666667,4279.48717948718,4331.282051282052,4433.333333333334,4421.538461538462,1682.0,1687.0,1094.409,1055.360107421875,0.0,0.0,0.0,0.0
1092750,48.0,0.0,0.0,4395.384615384616,4168.717948717949,4301.025641025642,4818.974358974359,3795.8974358974365,4214.358974358975,4250.769230769231,4091.7948717948725,4398.974358974359,4084.615384615385,4274.358974358975,4328.717948717949,4429.743589743591,4415.384615384616,1683.0,1685.0,1094.417,1055.360107421875,0.0,0.0,0.0,0.0
1092750,49.0,0.0,0.0,4398.974358974359,4169.74358974359,4303.076923076924,4818.461538461539,3795.8974358974365,4220.512820512821,4262.564102564103,4104.102564102564,4406.153846153847,4088.717948717949,4275.8974358974365,4330.256410256411,4432.307692307693,4412.307692307693,1681.0,1685.0,1094.426,1055.360107421875,0.0,0.0,0.0,0.0
1092751,50.0,0.0,0.0,4400.512820512821,4168.205128205129,4307.179487179487,4819.48717948718,3800.0000000000005,4224.615384615385,4272.820512820514,4115.8974358974365,4413.333333333334,4093.8461538461543,4280.512820512821,4332.820512820514,4437.435897435898,4415.8974358974365,1682.0,1685.0,1094.433,1055.360107421875,0.0,0.0,0.0,0.0
1092751,51.0,0.0,0.0,4393.846153846154,4166.666666666667,4304.102564102564,4814.358974358975,3801.0256410256416,4222.564102564103,4263.076923076924,4102.051282051282,4405.128205128206,4087.1794871794878,4269.74358974359,4329.2307692307695,4432.307692307693,4411.794871794872,1681.0,1683.0,1094.44,1055.360107421875,0.0,0.0,0.0,0.0
1092752,52.0,0.0,0.0,4389.2307692307695,4166.153846153847,4297.948717948719,4809.743589743591,3797.9487179487182,4219.48717948718,4251.282051282052,4091.2820512820517,4399.48717948718,4079.48717948718,4257.948717948719,4326.153846153847,4426.666666666667,4401.025641025642,1681.0,1684.0,1094.448,1055.360107421875,0.0,0.0,0.0,0.0
1092752,53.0,0.0,0.0,4390.769230769231,4167.179487179487,4297.435897435898,4814.871794871796,3796.410256410257,4219.48717948718,4252.307692307693,4101.025641025642,4401.538461538462,4082.0512820512827,4263.589743589744,4327.6923076923085,4426.666666666667,4399.48717948718,1681.0,1683.0,1094.456,1055.360107421875,0.0,0.0,0.0,0.0
1092752,54.0,0.0,0.0,4395.384615384616,4168.205128205129,4304.102564102564,4818.974358974359,3798.9743589743593,4219.48717948718,4257.948717948719,4101.025641025642,4398.974358974359,4085.1282051282055,4268.205128205129,4329.743589743591,4426.666666666667,4402.051282051282,1680.0,1684.0,1094.464,1055.360107421875,0.0,0.0,0.0,0.0
1092752,55.0,0.0,0.0,4404.615384615385,4168.717948717949,4308.717948717949,4818.461538461539,3801.538461538462,4217.435897435898,4257.435897435898,4090.2564102564106,4396.410256410257,4085.1282051282055,4265.128205128206,4329.2307692307695,4427.179487179487,4401.538461538462,1681.0,1684.0,1094.472,1055.360107421875,0.0,0.0,0.0,0.0
1092753,56.0,0.0,0.0,4407.179487179487,4169.2307692307695,4313.846153846154,4821.025641025642,3799.48717948718,4216.410256410257,4257.435897435898,4094.8717948717954,4403.589743589744,4088.205128205129,4271.794871794872,4327.6923076923085,4436.410256410257,4405.641025641026,1680.0,1684.0,1094.48,1055.360107421875,0.0,0.0,0.0,0.0
1092753,57.0,0.0,0.0,4401.538461538462,4169.2307692307695,4317.948717948719,4824.102564102564,3798.9743589743593,4217.948717948719,4262.564102564103,4102.051282051282,4407.179487179487,4090.7692307692314,4277.435897435898,4330.256410256411,4441.025641025642,4410.769230769231,1681.0,1685.0,1094.487,1055.360107421875,0.0,0.0,0.0,0.0
1092753,58.0,0.0,0.0,4404.102564102564,4168.205128205129,4308.717948717949,4819.48717948718,3802.564102564103,4220.512820512821,4263.076923076924,4103.076923076924,4405.641025641026,4087.1794871794878,4271.282051282052,4332.307692307693,4433.333333333334,4406.153846153847,1680.0,1685.0,1094.495,1055.360107421875,0.0,0.0,0.0,0.0
1092753,59.0,0.0,0.0,4409.2307692307695,4168.205128205129,4307.179487179487,4817.435897435898,3802.564102564103,4223.076923076924,4261.025641025642,4114.871794871796,4416.923076923077,4090.7692307692314,4277.948717948719,4332.307692307693,4436.410256410257,4408.205128205129,1681.0,1685.0,1094.503,1055.360107421875,0.0,0.0,0.0,0.0
1092878,60.0,0.0,0.0,4405.128205128206,4171.794871794872,4317.435897435898,4824.102564102564,3800.512820512821,4226.153846153847,4264.102564102564,4118.461538461539,4421.538461538462,4098.461538461539,4288.717948717949,4334.358974358975,4448.205128205129,4415.8974358974365,1680.0,1685.0,1094.511,1055.4852294921875,0.0,0.0,0.0,0.0
1092878,61.0,0.0,0.0,4393.846153846154,4166.666666666667,4306.666666666667,4821.538461538462,3801.0256410256416,4225.641025641026,4258.461538461539,4091.7948717948725,4398.461538461539,4088.717948717949,4272.820512820514,4332.307692307693,4436.923076923077,4407.179487179487,1681.0,1684.0,1094.519,1055.4852294921875,0.0,0.0,0.0,0.0
1092878,62.0,0.0,0.0,4388.717948717949,4158.461538461539,4287.6923076923085,4810.769230769231,3800.0000000000005,4225.128205128206,4248.717948717949,4085.1282051282055,4387.6923076923085,4076.9230769230776,4257.948717948719,4326.666666666667,4418.461538461539,4395.384615384616,1681.0,1683.0,1094.526,1055.4852294921875,0.0,0.0,0.0,0.0
1092878,63.0,0.0,0.0,4397.435897435898,4163.076923076924,4296.410256410257,4812.820512820514,3795.3846153846157,4221.025641025642,4253.333333333334,4105.128205128206,4402.051282051282,4084.1025641025644,4268.717948717949,4328.205128205129,4424.615384615385,4400.512820512821,1681.0,1685.0,1094.534,1055.4852294921875,0.0,0.0,0.0,0.0
1092878,64.0,0.0,474.0,4408.717948717949,4171.282051282052,4313.333333333334,4823.076923076924,3796.9230769230776,4211.794871794872,4256.923076923077,4100.000000000001,4405.641025641026,4092.307692307693,4276.410256410257,4333.846153846154,4440.000000000001,4409.743589743591,1682.0,1684.0,1094.543,1055.4852294921875,0.0,0.0,0.0,0.0
1092879,65.0,0.0,264.0,4413.846153846154,4173.846153846154,4312.820512820514,4829.743589743591,3799.48717948718,4211.794871794872,4252.820512820514,4086.666666666667,4400.512820512821,4089.23076923077,4274.358974358975,4332.307692307693,4443.076923076924,4414.871794871796,1680.0,1685.0,1094.55,1055.4852294921875,0.0,0.0,0.0,0.0
1092879,66.0,0.0,451.0,4410.769230769231,4171.794871794872,4306.666666666667,4832.307692307693,3797.435897435898,4217.435897435898,4253.846153846154,4100.000000000001,4407.179487179487,4088.717948717949,4274.358974358975,4328.205128205129,4440.512820512821,4413.846153846154,1682.0,1686.0,1094.559,1055.4852294921875,0.0,0.0,0.0,0.0
1092879,67.0,0.0,357.0,4401.025641025642,4167.179487179487,4302.051282051282,4825.128205128206,3796.410256410257,4213.333333333334,4255.384615384616,4106.153846153847,4407.6923076923085,4087.1794871794878,4268.205128205129,4327.6923076923085,4435.384615384616,4407.179487179487,1682.0,1686.0,1094.566,1055.4852294921875,0.0,0.0,0.0,0.0
1092879,68.0,0.0,456.0,4397.948717948719,4166.153846153847,4300.000000000001,4817.435897435898,3796.410256410257,4211.282051282052,4248.717948717949,4087.1794871794878,4396.410256410257,4080.5128205128212,4256.923076923077,4326.666666666667,4429.743589743591,4404.102564102564,1682.0,1686.0,1094.573,1055.4852294921875,0.0,0.0,0.0,0.0
1092879,69.0,0.0,549.0,4406.666666666667,4168.717948717949,4303.589743589744,4821.025641025642,3794.8717948717954,4220.000000000001,4247.179487179487,4078.9743589743593,4393.846153846154,4084.615384615385,4260.000000000001,4325.641025641026,4431.794871794872,4405.641025641026,1681.0,1686.0,1094.581,1055.4852294921875,0.0,0.0,0.0,0.0
1092879,70.0,0.0,533.0,4412.307692307693,4170.769230769231,4311.282051282052,4826.666666666667,3792.820512820513,4217.948717948719,4250.769230769231,4090.2564102564106,4402.051282051282,4094.358974358975,4271.282051282052,4329.2307692307695,4439.48717948718,4407.6923076923085,1683.0,1686.0,1094.589,1055.4852294921875,0.0,0.0,0.0,0.0
1092880,71.0,0.0,479.0,4409.2307692307695,4167.6923076923085,4313.333333333334,4819.48717948718,3788.717948717949,4208.717948717949,4246.666666666667,4088.205128205129,4398.974358974359,4087.1794871794878,4267.6923076923085,4329.2307692307695,4438.974358974359,4405.641025641026,1682.0,1685.0,1094.597,1055.4852294921875,0.0,0.0,0.0,0.0
1092880,72.0,0.0,421.0,4406.153846153847,4158.974358974359,4303.589743589744,4809.743589743591,3782.564102564103,4210.769230769231,4238.974358974359,4075.3846153846157,4388.205128205129,4075.3846153846157,4255.8974358974365,4324.615384615385,4428.205128205129,4398.974358974359,1682.0,1686.0,1094.605,1055.4852294921875,0.0,0.0,0.0,0.0
1092880,73.0,0.0,455.0,4405.128205128206,4157.435897435898,4300.000000000001,4810.769230769231,3783.589743589744,4210.769230769231,4240.512820512821,4080.5128205128212,4386.153846153847,4077.435897435898,4251.794871794872,4323.589743589744,4422.564102564103,4395.384615384616,1682.0,1685.0,1094.612,1055.4852294921875,0.0,0.0,0.0,0.0
1092881,74.0,0.0,487.0,4404.102564102564,4166.666666666667,4303.589743589744,4816.923076923077,3787.1794871794878,4195.384615384616,4240.512820512821,4084.1025641025644,4385.641025641026,4080.5128205128212,4252.307692307693,4326.153846153847,4424.102564102564,4401.025641025642,1682.0,1684.0,1094.621,1055.4852294921875,0.0,0.0,0.0,0.0
1092882,75.0,0.0,437.0,4403.076923076924,4168.717948717949,4302.051282051282,4815.384615384616,3785.1282051282055,4190.256410256411,4237.948717948719,4078.9743589743593,4387.179487179487,4078.9743589743593,4255.384615384616,4328.205128205129,4428.205128205129,4406.666666666667,1681.0,1684.0,1094.628,1055.4852294921875,0.0,0.0,0.0,0.0
1092997,76.0,0.0,447.0,4404.102564102564,4164.102564102564,4300.512820512821,4814.358974358975,3785.1282051282055,4203.589743589744,4246.666666666667,4094.358974358975,4400.512820512821,4083.076923076924,4258.461538461539,4328.205128205129,4429.2307692307695,4408.205128205129,1682.0,1685.0,1094.637,1055.6103515625,0.0,0.0,0.0,0.0
1092997,77.0,0.0,250.0,4405.641025641026,4167.6923076923085,4300.512820512821,4818.461538461539,3793.8461538461543,4213.846153846154,4254.358974358975,4101.538461538462,4403.076923076924,4086.666666666667,4254.358974358975,4327.179487179487,4427.6923076923085,4407.6923076923085,1681.0,1685.0,1094.645,1055.6103515625,0.0,0.0,0.0,0.0
1092997,78.0,0.0,487.0,4404.615384615385,4170.769230769231,4302.051282051282,4820.000000000001,3800.0000000000005,4220.000000000001,4252.307692307693,4078.9743589743593,4391.794871794872,4083.589743589744,4249.2307692307695,4328.205128205129,4428.717948717949,4404.102564102564,1681.0,1685.0,1094.652,1055.6103515625,0.0,0.0,0.0,0.0
1092998,79.0,0.0,437.0,4406.666666666667,4168.717948717949,4306.153846153847,4821.025641025642,3796.410256410257,4225.641025641026,4253.333333333334,4074.8717948717954,4396.923076923077,4085.6410256410263,4255.8974358974365,4330.256410256411,4436.410256410257,4405.641025641026,1681.0,1685.0,1094.659,1055.6103515625,0.0,0.0,0.0,0.0
1092998,80.0,0.0,447.0,4410.769230769231,4167.6923076923085,4306.666666666667,4821.025641025642,3790.7692307692314,4217.435897435898,4254.871794871796,4092.307692307693,4408.205128205129,4086.666666666667,4261.538461538462,4330.769230769231,4440.512820512821,4410.256410256411,1682.0,1685.0,1094.667,1055.6103515625,0.0,0.0,0.0,0.0
1092998,81.0,0.0,250.0,4406.153846153847,4167.6923076923085,4297.948717948719,4814.871794871796,3787.692307692308,4203.076923076924,4250.256410256411,4090.2564102564106,4397.435897435898,4076.9230769230776,4251.282051282052,4326.153846153847,4425.641025641026,4403.076923076924,1681.0,1685.0,1094.676,1055.6103515625,0.0,0.0,0.0,0.0
1092998,82.0,0.0,487.0,4402.051282051282,4167.6923076923085,4297.435897435898,4815.8974358974365,3791.2820512820517,4206.666666666667,4249.2307692307695,4076.410256410257,4385.641025641026,4071.7948717948725,4242.564102564103,4323.589743589744,4415.8974358974365,4396.410256410257,1681.0,1686.0,1094.683,1055.6103515625,0.0,0.0,0.0,0.0
1092998,83.0,0.0,437.0,4408.717948717949,4169.2307692307695,4310.256410256411,4821.538461538462,3798.461538461539,4215.8974358974365,4254.871794871796,4077.9487179487187,4390.769230769231,4079.48717948718,4250.256410256411,4329.2307692307695,4427.179487179487,4403.589743589744,1682.0,1684.0,1094.691,1055.6103515625,0.0,0.0,0.0,0.0
1092998,84.0,0.0,447.0,4409.743589743591,4168.717948717949,4311.794871794872,4820.512820512821,3796.9230769230776,4212.820512820514,4256.410256410257,4090.7692307692314,4401.538461538462,4085.6410256410263,4257.435897435898,4331.794871794872,4430.256410256411,4405.128205128206,1680.0,1685.0,1094.698,1055.6103515625,0.0,0.0,0.0,0.0
1092999,85.0,0.0,250.0,4407.6923076923085,4167.6923076923085,4306.666666666667,4816.923076923077,3793.333333333334,4207.179487179487,4256.923076923077,4103.589743589744,4406.666666666667,4086.1538461538466,4253.846153846154,4327.179487179487,4422.564102564103,4400.000000000001,1682.0,1684.0,1094.706,1055.6103515625,0.0,0.0,0.0,0.0
1092999,86.0,0.0,487.0,4416.410256410257,4167.6923076923085,4311.794871794872,4818.461538461539,3798.461538461539,4214.358974358975,4259.48717948718,4106.153846153847,4407.6923076923085,4087.1794871794878,4256.923076923077,4327.6923076923085,4429.743589743591,4405.128205128206,1681.0,1684.0,1094.714,1055.6103515625,0.0,0.0,0.0,0.0
1092999,87.0,0.0,437.0,4422.564102564103,4168.717948717949,4321.025641025642,4822.564102564103,3802.564102564103,4226.666666666667,4260.512820512821,4095.3846153846157,4406.666666666667,4091.2820512820517,4265.641025641026,4331.794871794872,4443.076923076924,4412.820512820514,1681.0,1684.0,1094.722,1055.6103515625,0.0,0.0,0.0,0.0
1092999,88.0,0.0,447.0,4418.974358974359,4174.871794871796,4323.589743589744,4826.666666666667,3800.512820512821,4232.307692307693,4261.538461538462,4084.1025641025644,4401.538461538462,4094.358974358975,4268.205128205129,4333.846153846154,4442.564102564103,4415.384615384616,1681.0,1683.0,1094.73,1055.6103515625,0.0,0.0,0.0,0.0
1093000,89.0,0.0,250.0,4416.923076923077,4176.410256410257,4321.538461538462,4825.641025641026,3802.0512820512827,4231.282051282052,4261.538461538462,4087.692307692308,4400.000000000001,4091.7948717948725,4260.512820512821,4331.282051282052,4436.923076923077,4413.333333333334,1681.0,1683.0,1094.738,1055.6103515625,0.0,0.0,0.0,0.0
1093000,90.0,0.0,487.0,4418.974358974359,4170.256410256411,4320.512820512821,4823.589743589744,3802.564102564103,4229.2307692307695,4258.974358974359,4101.538461538462,4403.589743589744,4089.23076923077,4254.871794871796,4329.2307692307695,4433.333333333334,4407.6923076923085,1681.0,1683.0,1094.745,1055.6103515625,0.0,0.0,0.0,0.0
1093000,91.0,0.0,437.0,4421.538461538462,4170.769230769231,4322.564102564103,4827.179487179488,3801.0256410256416,4225.128205128206,4258.974358974359,4103.076923076924,4405.641025641026,4090.2564102564106,4262.564102564103,4331.282051282052,4437.948717948719,4409.743589743591,1681.0,1684.0,1094.753,1055.6103515625,0.0,0.0,0.0,0.0
1093127,92.0,0.0,447.0,4422.564102564103,4175.8974358974365,4325.128205128206,4831.282051282052,3801.538461538462,4221.538461538462,4260.512820512821,4092.820512820513,4402.564102564103,4092.307692307693,4267.179487179487,4331.794871794872,4445.128205128206,4417.948717948719,1682.0,1683.0,1094.761,1055.7353515625,0.0,0.0,0.0,0.0
1093127,93.0,0.0,250.0,4413.846153846154,4171.794871794872,4318.461538461539,4824.615384615386,3802.0512820512827,4222.051282051282,4258.461538461539,4092.307692307693,4400.000000000001,4088.717948717949,4257.948717948719,4328.205128205129,4435.384615384616,4412.820512820514,1682.0,1684.0,1094.769,1055.7353515625,0.0,0.0,0.0,0.0
1093127,94.0,0.0,487.0,4401.538461538462,4164.615384615385,4309.743589743591,4814.871794871796,3801.0256410256416,4222.051282051282,4254.871794871796,4098.974358974359,4400.512820512821,4084.1025641025644,4250.769230769231,4326.666666666667,4420.512820512821,4400.000000000001,1683.0,1683.0,1094.777,1055.7353515625,0.0,0.0,0.0,0.0
1093127,95.0,0.0,437.0,4404.615384615385,4166.153846153847,4309.2307692307695,4815.384615384616,3800.0000000000005,4220.512820512821,4254.358974358975,4095.8974358974365,4399.48717948718,4083.589743589744,4254.358974358975,4329.743589743591,4423.589743589744,4400.512820512821,1681.0,1684.0,1094.784,1055.7353515625,0.0,0.0,0.0,0.0
1093127,96.0,0.0,447.0,4416.923076923077,4172.820512820514,4315.8974358974365,4821.025641025642,3800.0000000000005,4219.48717948718,4257.435897435898,4094.358974358975,4402.564102564103,4091.2820512820517,4262.051282051282,4332.820512820514,4434.358974358975,4411.794871794872,1682.0,1684.0,1094.793,1055.7353515625,0.0,0.0,0.0,0.0
1093127,97.0,0.0,250.0,4423.589743589744,4181.025641025642,4326.153846153847,4825.128205128206,3800.512820512821,4214.871794871796,4259.48717948718,4104.615384615385,4414.358974358975,4099.48717948718,4274.358974358975,4335.384615384616,4442.051282051282,4419.48717948718,1681.0,1683.0,1094.8,1055.7353515625,0.0,0.0,0.0,0.0
1093128,98.0,0.0,487.0,4420.000000000001,4179.48717948718,4327.6923076923085,4828.717948717949,3798.461538461539,4210.256410256411,4257.948717948719,4111.282051282052,4421.538461538462,4099.48717948718,4280.512820512821,4336.923076923077,4443.076923076924,4419.48717948718,1682.0,1684.0,1094.809,1055.7353515625,0.0,0.0,0.0,0.0
1093128,99.0,0.0,437.0,4412.820512820514,4170.256410256411,4317.435897435898,4824.102564102564,3794.8717948717954,4212.307692307693,4254.358974358975,4097.948717948719,4407.6923076923085,4090.7692307692314,4265.128205128206,4330.769230769231,4434.358974358975,4412.820512820514,1681.0,1683.0,1094.816,1055.7353515625,0.0,0.0,0.0,0.0
1093128,100.0,0.0,447.0,4409.2307692307695,4167.179487179487,4311.282051282052,4816.923076923077,3792.307692307693,4214.358974358975,4247.6923076923085,4076.9230769230776,4385.128205128206,4081.0256410256416,4250.256410256411,4326.666666666667,4424.615384615385,4402.051282051282,1681.0,1684.0,1094.825,1055.7353515625,0.0,0.0,0.0,0.0
1093128,101.0,0.0,250.0,4407.6923076923085,4168.717948717949,4309.743589743591,4819.48717948718,3786.1538461538466,4214.871794871796,4242.051282051282,4071.7948717948725,4379.48717948718,4080.5128205128212,4247.6923076923085,4328.205128205129,4423.589743589744,4396.410256410257,1680.0,1683.0,1094.832,1055.7353515625,0.0,0.0,0.0,0.0
1093128,102.0,0.0,487.0,4406.666666666667,4167.179487179487,4306.666666666667,4819.48717948718,3787.1794871794878,4214.358974358975,4245.128205128206,4085.6410256410263,4387.6923076923085,4084.1025641025644,4242.564102564103,4329.743589743591,4418.974358974359,4397.948717948719,1680.0,1683.0,1094.839,1055.7353515625,0.0,0.0,0.0,0.0
1093128,103.0,0.0,437.0,4410.769230769231,4166.666666666667,4310.256410256411,4810.256410256411,3796.9230769230776,4218.974358974359,4253.333333333334,4086.1538461538466,4389.2307692307695,4080.5128205128212,4240.000000000001,4330.256410256411,4412.307692307693,4396.410256410257,1680.0,1683.0,1094.847,1055.7353515625,0.0,0.0,0.0,0.0
1093128,104.0,0.0,447.0,4416.923076923077,4169.2307692307695,4321.538461538462,4813.846153846154,3796.9230769230776,4222.564102564103,4251.282051282052,4068.205128205129,4381.538461538462,4081.538461538462,4250.769230769231,4331.794871794872,4421.025641025642,4395.8974358974365,1680.0,1684.0,1094.855,1055.7353515625,0.0,0.0,0.0,0.0
1093129,105.0,0.0,250.0,4419.48717948718,4171.794871794872,4326.153846153847,4824.615384615386,3793.333333333334,4214.358974358975,4248.717948717949,4080.0000000000005,4388.717948717949,4087.692307692308,4262.564102564103,4335.384615384616,4435.8974358974365,4406.666666666667,1681.0,1683.0,1094.864,1055.7353515625,0.0,0.0,0.0,0.0
1093129,106.0,0.0,487.0,4422.051282051282,4171.282051282052,4323.076923076924,4822.564102564103,3795.3846153846157,4206.666666666667,4254.871794871796,4107.179487179487,4402.564102564103,4088.205128205129,4267.179487179487,4333.846153846154,4434.358974358975,4412.820512820514,1680.0,1684.0,1094.871,1055.7353515625,0.0,0.0,0.0,0.0
1093129,107.0,0.0,437.0,4426.153846153847,4170.256410256411,4318.461538461539,4818.974358974359,3792.820512820513,4205.641025641026,4251.794871794872,4094.8717948717954,4395.8974358974365,4084.1025641025644,4268.205128205129,4328.717948717949,4425.641025641026,4404.615384615385,1681.0,1685.0,1094.879,1055.7353515625,0.0,0.0,0.0,0.0
1093254,108.0,0.0,447.0,4424.615384615385,4169.74358974359,4316.923076923077,4822.051282051282,3785.6410256410263,4206.666666666667,4241.025641025642,4073.8461538461543,4386.666666666667,4085.6410256410263,4270.256410256411,4327.6923076923085,4425.641025641026,4399.48717948718,1681.0,1684.0,1094.886,1055.8604736328125,0.0,0.0,0.0,0.0
1093254,109.0,0.0,250.0,4413.846153846154,4169.2307692307695,4318.461538461539,4823.589743589744,3785.1282051282055,4206.666666666667,4241.025641025642,4083.076923076924,4393.846153846154,4086.666666666667,4271.794871794872,4328.717948717949,4425.128205128206,4400.512820512821,1680.0,1685.0,1094.895,1055.8604736328125,0.0,0.0,0.0,0.0
1093254,110.0,0.0,487.0,4409.2307692307695,4168.205128205129,4315.384615384616,4818.461538461539,3788.205128205129,4205.641025641026,4248.205128205129,4093.333333333334,4397.435897435898,4085.1282051282055,4267.6923076923085,4328.205128205129,4421.538461538462,4400.512820512821,1681.0,1684.0,1094.902,1055.8604736328125,0.0,0.0,0.0,0.0
1093254,111.0,0.0,437.0,4412.307692307693,4167.179487179487,4309.2307692307695,4812.820512820514,3792.307692307693,4207.6923076923085,4247.6923076923085,4092.307692307693,4392.820512820514,4085.1282051282055,4263.076923076924,4328.205128205129,4422.051282051282,4397.948717948719,1681.0,1685.0,1094.911,1055.8604736328125,0.0,0.0,0.0,0.0
1093254,112.0,0.0,447.0,4409.2307692307695,4167.6923076923085,4310.256410256411,4815.384615384616,3796.9230769230776,4216.410256410257,4246.153846153847,4097.435897435898,4394.358974358975,4085.6410256410263,4265.641025641026,4330.769230769231,4423.076923076924,4394.871794871796,1681.0,1684.0,1094.918,1055.8604736328125,0.0,0.0,0.0,0.0
1093254,113.0,0.0,250.0,4411.794871794872,4171.282051282052,4316.923076923077,4823.589743589744,3797.9487179487182,4218.461538461539,4251.794871794872,4098.461538461539,4398.461538461539,4088.717948717949,4273.846153846154,4335.384615384616,4431.282051282052,4398.974358974359,1681.0,1685.0,1094.926,1055.8604736328125,0.0,0.0,0.0,0.0
1093254,114.0,0.0,487.0,4424.615384615385,4174.871794871796,4320.512820512821,4830.256410256411,3799.48717948718,4210.256410256411,4257.435897435898,4089.7435897435903,4400.000000000001,4090.2564102564106,4280.000000000001,4336.923076923077,4441.538461538462,4410.769230769231,1682.0,1685.0,1094.933,1055.8604736328125,0.0,0.0,0.0,0.0
1093255,115.0,0.0,437.0,4426.666666666667,4174.358974358975,4318.461538461539,4829.2307692307695,3800.512820512821,4217.948717948719,4257.435897435898,4088.717948717949,4399.48717948718,4089.7435897435903,4277.948717948719,4331.794871794872,4437.435897435898,4412.820512820514,1682.0,1686.0,1094.941,1055.8604736328125,0.0,0.0,0.0,0.0
1093255,116.0,0.0,447.0,4416.923076923077,4172.820512820514,4317.435897435898,4827.179487179488,3801.0256410256416,4234.358974358975,4258.974358974359,4099.48717948718,4402.564102564103,4092.820512820513,4272.820512820514,4329.743589743591,4431.282051282052,4406.153846153847,1682.0,1686.0,1094.949,1055.8604736328125,0.0,0.0,0.0,0.0
1093255,117.0,0.0,250.0,4414.871794871796,4170.256410256411,4318.461538461539,4828.205128205129,3800.512820512821,4228.717948717949,4257.948717948719,4102.564102564103,4403.076923076924,4092.820512820513,4268.717948717949,4330.256410256411,4429.2307692307695,4403.076923076924,1682.0,1687.0,1094.957,1055.8604736328125,0.0,0.0,0.0,0.0
1093255,118.0,0.0,487.0,4417.948717948719,4169.74358974359,4320.512820512821,4826.153846153847,3794.8717948717954,4213.333333333334,4253.333333333334,4090.7692307692314,4394.871794871796,4086.666666666667,4265.128205128206,4327.6923076923085,4420.000000000001,4401.538461538462,1683.0,1687.0,1094.964,1055.8604736328125,0.0,0.0,0.0,0.0
1093255,119.0,0.0,437.0,4416.923076923077,4170.769230769231,4322.051282051282,4822.051282051282,3792.307692307693,4210.769230769231,4253.846153846154,4097.435897435898,4397.435897435898,4086.1538461538466,4265.641025641026,4327.6923076923085,4414.871794871796,4401.538461538462,1682.0,1686.0,1094.972,1055.8604736328125,0.0,0.0,0.0,0.0
1093255,120.0,0.0,447.0,4420.512820512821,4170.256410256411,4325.128205128206,4821.025641025642,3796.9230769230776,4217.435897435898,4256.923076923077,4116.923076923077,4409.743589743591,4092.820512820513,4268.205128205129,4332.820512820514,4421.025641025642,4407.6923076923085,1682.0,1687.0,1094.98,1055.8604736328125,0.0,0.0,0.0,0.0
1093256,121.0,0.0,250.0,4428.717948717949,4174.871794871796,4330.256410256411,4827.6923076923085,3801.538461538462,4225.641025641026,4257.948717948719,4111.282051282052,4410.769230769231,4095.8974358974365,4270.256410256411,4337.948717948719,4426.153846153847,4413.846153846154,1682.0,1685.0,1094.988,1055.8604736328125,0.0,0.0,0.0,0.0
1093256,122.0,0.0,487.0,4431.282051282052,4184.615384615385,4334.871794871796,4833.846153846154,3801.538461538462,4222.564102564103,4260.512820512821,4102.564102564103,4409.743589743591,4097.435897435898,4276.410256410257,4338.974358974359,4430.769230769231,4416.923076923077,1681.0,1686.0,1094.996,1055.8604736328125,0.0,0.0,0.0,0.0
1093256,123.0,0.0,437.0,4426.153846153847,4182.051282051282,4334.871794871796,4831.282051282052,3801.0256410256416,4213.333333333334,4260.512820512821,4110.769230769231,4414.871794871796,4100.000000000001,4281.025641025642,4336.410256410257,4436.410256410257,4418.461538461539,1681.0,1685.0,1095.003,1055.8604736328125,0.0,0.0,0.0,0.0
1093372,124.0,0.0,447.0,4422.051282051282,4170.256410256411,4325.641025641026,4823.589743589744,3798.9743589743593,4218.974358974359,4253.333333333334,4100.512820512821,4406.153846153847,4095.8974358974365,4277.435897435898,4332.307692307693,4432.820512820514,4413.846153846154,1681.0,1685.0,1095.011,1055.985595703125,0.0,0.0,0.0,0.0
1093372,125.0,0.0,250.0,4418.461538461539,4167.6923076923085,4315.8974358974365,4816.410256410257,3796.410256410257,4224.102564102564,4250.769230769231,4079.48717948718,4393.333333333334,4088.205128205129,4267.6923076923085,4328.205128205129,4425.128205128206,4404.615384615385,1681.0,1684.0,1095.019,1055.985595703125,0.0,0.0,0.0,0.0
1093372,126.0,0.0,487.0,4414.871794871796,4171.282051282052,4315.8974358974365,4811.794871794872,3798.461538461539,4216.410256410257,4253.333333333334,4085.1282051282055,4399.48717948718,4085.6410256410263,4263.076923076924,4328.717948717949,4424.615384615385,4402.564102564103,1680.0,1684.0,1095.028,1055.985595703125,0.0,0.0,0.0,0.0
1093372,127.0,0.0,437.0,4417.435897435898,4171.794871794872,4321.538461538462,4815.384615384616,3800.512820512821,4216.410256410257,4251.282051282052,4095.8974358974365,4404.102564102564,4089.23076923077,4266.153846153847,4330.256410256411,4429.743589743591,4410.256410256411,1681.0,1684.0,1095.035,1055.985595703125,0.0,0.0,0.0,0.0
1093372,128.0,0.0,447.0,4421.538461538462,4171.282051282052,4323.076923076924,4825.128205128206,3798.461538461539,4223.076923076924,4249.74358974359,4097.435897435898,4402.564102564103,4094.8717948717954,4269.74358974359,4329.743589743591,4435.8974358974365,4415.8974358974365,1680.0,1685.0,1095.044,1055.985595703125,0.0,0.0,0.0,0.0
1093373,0.0,0.0,474.0,4422.564102564103,4172.307692307693,4316.410256410257,4825.641025641026,3797.435897435898,4217.435897435898,4252.820512820514,4103.589743589744,4409.743589743591,4096.923076923077,4272.307692307693,4329.2307692307695,4437.948717948719,4411.794871794872,1680.0,1684.0,1095.05,1055.985595703125,0.0,0.0,0.0,0.0
1093373,1.0,0.0,264.0,4419.48717948718,4170.256410256411,4309.743589743591,4816.923076923077,3799.48717948718,4212.820512820514,4254.358974358975,4104.102564102564,4411.282051282052,4093.333333333334,4274.358974358975,4328.205128205129,4432.820512820514,4403.589743589744,1680.0,1684.0,1095.059,1055.985595703125,0.0,0.0,0.0,0.0
1093373,2.0,0.0,451.0,4414.358974358975,4168.717948717949,4312.307692307693,4811.794871794872,3799.48717948718,4219.48717948718,4254.871794871796,4095.8974358974365,4405.128205128206,4089.7435897435903,4273.333333333334,4325.641025641026,4426.153846153847,4401.025641025642,1681.0,1684.0,1095.066,1055.985595703125,0.0,0.0,0.0,0.0
1093373,3.0,0.0,357.0,4414.871794871796,4168.717948717949,4313.333333333334,4813.333333333334,3794.358974358975,4220.000000000001,4254.358974358975,4093.333333333334,4403.589743589744,4087.1794871794878,4269.74358974359,4325.128205128206,4426.666666666667,4401.538461538462,1681.0,1685.0,1095.075,1055.985595703125,0.0,0.0,0.0,0.0
1093373,4.0,0.0,456.0,4418.974358974359,4169.74358974359,4308.717948717949,4819.48717948718,3793.333333333334,4216.410256410257,4248.717948717949,4087.1794871794878,4401.025641025642,4087.1794871794878,4268.205128205129,4328.205128205129,4431.282051282052,4402.564102564103,1681.0,1684.0,1095.082,1055.985595703125,0.0,0.0,0.0,0.0
1093373,5.0,0.0,549.0,4422.564102564103,4171.282051282052,4310.769230769231,4821.538461538462,3798.461538461539,4217.948717948719,4247.179487179487,4087.1794871794878,4402.564102564103,4094.358974358975,4272.307692307693,4332.820512820514,4437.948717948719,4406.153846153847,1681.0,1685.0,1095.089,1055.985595703125,0.0,0.0,0.0,0.0
1093373,6.0,0.0,533.0,4420.512820512821,4171.282051282052,4313.846153846154,4821.538461538462,3800.0000000000005,4216.410256410257,4247.179487179487,4097.435897435898,4407.179487179487,4095.8974358974365,4277.948717948719,4332.820512820514,4438.974358974359,4405.641025641026,1682.0,1684.0,1095.097,1055.985595703125,0.0,0.0,0.0,0.0
1093373,7.0,0.0,479.0,4414.358974358975,4171.794871794872,4311.282051282052,4822.051282051282,3797.435897435898,4218.974358974359,4243.076923076924,4097.948717948719,4404.615384615385,4090.2564102564106,4278.461538461539,4329.2307692307695,4435.384615384616,4404.102564102564,1681.0,1685.0,1095.105,1055.985595703125,0.0,0.0,0.0,0.0
1093374,8.0,0.0,421.0,4416.923076923077,4172.307692307693,4315.8974358974365,4820.512820512821,3800.0000000000005,4225.641025641026,4248.205128205129,4095.3846153846157,4409.2307692307695,4095.8974358974365,4282.564102564103,4333.333333333334,4441.025641025642,4413.846153846154,1682.0,1684.0,1095.113,1055.985595703125,0.0,0.0,0.0,0.0
1093375,9.0,0.0,456.0,4428.717948717949,4172.307692307693,4323.589743589744,4822.564102564103,3802.564102564103,4221.538461538462,4258.974358974359,4100.000000000001,4420.000000000001,4104.102564102564,4291.282051282052,4340.000000000001,4448.717948717949,4422.051282051282,1681.0,1684.0,1095.121,1055.985595703125,0.0,0.0,0.0,0.0
1093375,10.0,0.0,487.0,4425.641025641026,4172.820512820514,4318.974358974359,4825.128205128206,3799.48717948718,4217.435897435898,4257.435897435898,4098.974358974359,4411.794871794872,4096.923076923077,4286.666666666667,4335.8974358974365,4439.48717948718,4412.307692307693,1682.0,1685.0,1095.129,1055.985595703125,0.0,0.0,0.0,0.0
1093502,11.0,0.0,437.0,4410.256410256411,4171.282051282052,4308.717948717949,4821.538461538462,3798.461538461539,4227.179487179487,4247.179487179487,4085.1282051282055,4391.282051282052,4085.6410256410263,4268.205128205129,4327.179487179487,4415.384615384616,4397.435897435898,1682.0,1683.0,1095.136,1056.1107177734375,0.0,0.0,0.0,0.0
1093502,12.0,0.0,447.0,4411.282051282052,4169.74358974359,4309.2307692307695,4817.435897435898,3798.9743589743593,4234.358974358975,4248.205128205129,4077.435897435898,4385.641025641026,4083.076923076924,4258.461538461539,4325.641025641026,4406.666666666667,4396.410256410257,1681.0,1684.0,1095.144,1056.1107177734375,0.0,0.0,0.0,0.0
1093502,13.0,0.0,250.0,4422.051282051282,4170.769230769231,4315.8974358974365,4818.974358974359,3797.9487179487182,4226.666666666667,4255.8974358974365,4087.1794871794878,4395.384615384616,4085.6410256410263,4264.615384615385,4330.769230769231,4415.8974358974365,4402.051282051282,1682.0,1684.0,1095.152,1056.1107177734375,0.0,0.0,0.0,0.0
1093502,14.0,0.0,487.0,4422.564102564103,4170.769230769231,4318.461538461539,4819.48717948718,3796.9230769230776,4221.538461538462,4255.384615384616,4095.3846153846157,4401.025641025642,4087.692307692308,4268.717948717949,4333.333333333334,4419.48717948718,4403.076923076924,1681.0,1683.0,1095.161,1056.1107177734375,0.0,0.0,0.0,0.0
1093502,15.0,0.0,437.0,4422.564102564103,4171.794871794872,4321.538461538462,4822.564102564103,3798.461538461539,4222.564102564103,4252.820512820514,4101.025641025642,4404.615384615385,4090.7692307692314,4271.282051282052,4332.307692307693,4422.051282051282,4407.6923076923085,1681.0,1684.0,1095.168,1056.1107177734375,0.0,0.0,0.0,0.0
1093502,16.0,0.0,0.0,4429.2307692307695,4180.512820512821,4329.2307692307695,4829.743589743591,3801.0256410256416,4224.615384615385,4257.948717948719,4111.282051282052,4415.384615384616,4098.974358974359,4278.461538461539,4333.333333333334,4435.384615384616,4417.435897435898,1680.0,1684.0,1095.176,1056.1107177734375,0.0,0.0,0.0,0.0
1093503,17.0,0.0,0.0,4434.358974358975,4184.615384615385,4331.794871794872,4828.205128205129,3802.0512820512827,4226.153846153847,4263.076923076924,4113.846153846154,4423.076923076924,4103.076923076924,4286.153846153847,4338.461538461539,4445.641025641026,4420.512820512821,1681.0,1683.0,1095.183,1056.1107177734375,0.0,0.0,0.0,0.0
1093503,18.0,0.0,0.0,4433.846153846154,4180.512820512821,4331.282051282052,4827.179487179488,3802.0512820512827,4226.666666666667,4260.000000000001,4108.717948717949,4420.000000000001,4101.025641025642,4287.179487179487,4338.974358974359,4444.615384615385,4417.435897435898,1680.0,1683.0,1095.192,1056.1107177734375,0.0,0.0,0.0,0.0
