timestamp,cnt,inerpolated,raw_cq,af3,f7,f3,fc5,t7,p7,o1,o2,p8,t8,fc6,f4,f8,af4,gyrox,gyroy,epoc_timestamp,epoc_es_timestamp,func_id,func_value,marker,sync_signal
914373,18.0,0.0,0.0,4403.076923076924,4186.666666666667,4340.000000000001,4830.256410256411,3784.1025641025644,4249.2307692307695,4282.564102564103,4130.256410256411,4401.025641025642,4107.6923076923085,4273.333333333334,4323.076923076924,4422.051282051282,4353.333333333334,1682.0,1683.0,915.63,876.70654296875,0.0,0.0,0.0,0.0
914373,19.0,0.0,0.0,4401.025641025642,4185.128205128206,4340.000000000001,4833.333333333334,3783.589743589744,4244.615384615385,4284.102564102564,4147.6923076923085,4414.358974358975,4115.384615384616,4274.871794871796,4325.641025641026,4426.666666666667,4362.564102564103,1681.0,1683.0,915.639,876.70654296875,0.0,0.0,0.0,0.0
914373,20.0,0.0,0.0,4404.615384615385,4186.153846153847,4345.641025641026,4837.948717948719,3784.615384615385,4247.6923076923085,4289.74358974359,4162.051282051282,4422.051282051282,4123.589743589744,4280.000000000001,4327.179487179487,4431.282051282052,4370.256410256411,1682.0,1684.0,915.645,876.70654296875,0.0,0.0,0.0,0.0
914373,21.0,0.0,0.0,4410.256410256411,4189.2307692307695,4351.794871794872,4841.538461538462,3787.692307692308,4255.8974358974365,4290.256410256411,4146.153846153847,4410.256410256411,4122.051282051282,4282.564102564103,4325.641025641026,4429.743589743591,4369.743589743591,1682.0,1683.0,915.653,876.70654296875,0.0,0.0,0.0,0.0
914373,22.0,0.0,0.0,4410.769230769231,4189.2307692307695,4352.820512820514,4842.051282051283,3786.666666666667,4260.000000000001,4285.641025641026,4129.2307692307695,4405.128205128206,4117.435897435898,4283.076923076924,4324.102564102564,4429.2307692307695,4373.333333333334,1682.0,1684.0,915.661,876.70654296875,0.0,0.0,0.0,0.0
914373,23.0,0.0,0.0,4409.743589743591,4186.666666666667,4352.307692307693,4842.564102564103,3785.6410256410263,4257.948717948719,4283.076923076924,4130.769230769231,4408.205128205129,4117.435897435898,4283.076923076924,4324.102564102564,4433.846153846154,4380.000000000001,1682.0,1683.0,915.669,876.70654296875,0.0,0.0,0.0,0.0
914373,24.0,0.0,0.0,4408.205128205129,4189.2307692307695,4352.820512820514,4844.102564102564,3786.666666666667,4253.333333333334,4286.153846153847,4132.820512820514,4404.615384615385,4119.48717948718,4280.000000000001,4324.102564102564,4432.307692307693,4376.410256410257,1681.0,1683.0,915.678,876.70654296875,0.0,0.0,0.0,0.0
914374,25.0,0.0,0.0,4404.102564102564,4194.358974358975,4350.769230769231,4843.589743589744,3787.1794871794878,4250.769230769231,4288.205128205129,4133.846153846154,4405.128205128206,4118.461538461539,4280.512820512821,4324.615384615385,4426.153846153847,4374.358974358975,1681.0,1683.0,915.685,876.70654296875,0.0,0.0,0.0,0.0
914374,26.0,0.0,0.0,4405.641025641026,4191.282051282052,4348.717948717949,4845.641025641026,3785.1282051282055,4249.74358974359,4287.179487179487,4139.48717948718,4412.820512820514,4117.435897435898,4283.076923076924,4323.076923076924,4429.743589743591,4381.538461538462,1681.0,1684.0,915.692,876.70654296875,0.0,0.0,0.0,0.0
914374,27.0,0.0,0.0,4410.769230769231,4186.153846153847,4353.333333333334,4844.615384615386,3787.1794871794878,4248.205128205129,4288.205128205129,4140.000000000001,4410.769230769231,4117.435897435898,4281.538461538462,4324.615384615385,4434.871794871796,4386.153846153847,1681.0,1683.0,915.7,876.70654296875,0.0,0.0,0.0,0.0
914374,28.0,0.0,0.0,4410.769230769231,4186.666666666667,4354.871794871796,4837.435897435898,3790.7692307692314,4247.179487179487,4289.74358974359,4134.358974358975,4405.641025641026,4116.410256410257,4281.538461538462,4326.666666666667,4433.846153846154,4382.564102564103,1681.0,1684.0,915.708,876.70654296875,0.0,0.0,0.0,0.0
914374,29.0,0.0,0.0,4402.051282051282,4186.666666666667,4342.564102564103,4834.358974358975,3787.1794871794878,4251.282051282052,4282.564102564103,4123.076923076924,4401.025641025642,4111.282051282052,4276.410256410257,4320.512820512821,4427.179487179487,4373.333333333334,1681.0,1683.0,915.716,876.70654296875,0.0,0.0,0.0,0.0
914374,30.0,0.0,0.0,4393.333333333334,4182.564102564103,4330.256410256411,4831.794871794872,3783.076923076924,4256.923076923077,4277.435897435898,4110.256410256411,4387.6923076923085,4105.128205128206,4263.589743589744,4313.846153846154,4415.8974358974365,4362.564102564103,1682.0,1683.0,915.725,876.70654296875,0.0,0.0,0.0,0.0
914374,31.0,0.0,0.0,4392.820512820514,4182.564102564103,4332.307692307693,4828.717948717949,3784.615384615385,4253.846153846154,4280.512820512821,4110.769230769231,4382.051282051282,4103.589743589744,4260.000000000001,4314.871794871796,4409.743589743591,4361.538461538462,1682.0,1682.0,915.731,876.70654296875,0.0,0.0,0.0,0.0
914374,32.0,0.0,0.0,4402.051282051282,4186.153846153847,4341.538461538462,4832.307692307693,3786.1538461538466,4246.153846153847,4280.000000000001,4117.435897435898,4391.794871794872,4105.641025641026,4271.794871794872,4321.538461538462,4421.025641025642,4370.256410256411,1682.0,1682.0,915.741,876.70654296875,0.0,0.0,0.0,0.0
914375,33.0,0.0,0.0,4411.282051282052,4187.179487179487,4347.179487179487,4837.948717948719,3784.1025641025644,4240.000000000001,4279.48717948718,4123.589743589744,4400.512820512821,4115.384615384616,4282.564102564103,4326.153846153847,4433.846153846154,4381.025641025642,1682.0,1682.0,915.798,876.70654296875,0.0,0.0,0.0,0.0
914375,34.0,0.0,0.0,4406.666666666667,4186.153846153847,4345.128205128206,4838.461538461539,3784.615384615385,4237.435897435898,4282.564102564103,4126.666666666667,4402.564102564103,4119.48717948718,4283.589743589744,4326.666666666667,4432.820512820514,4382.051282051282,1682.0,1682.0,915.799,876.70654296875,0.0,0.0,0.0,0.0
914375,35.0,0.0,0.0,4395.384615384616,4184.102564102564,4336.410256410257,4835.384615384616,3784.615384615385,4242.051282051282,4281.025641025642,4122.564102564103,4402.564102564103,4111.282051282052,4283.076923076924,4325.641025641026,4430.256410256411,4372.820512820514,1683.0,1682.0,915.799,876.70654296875,0.0,0.0,0.0,0.0
914375,36.0,0.0,0.0,4395.8974358974365,4181.538461538462,4332.307692307693,4832.307692307693,3784.615384615385,4242.564102564103,4277.435897435898,4119.48717948718,4399.48717948718,4107.179487179487,4282.564102564103,4324.102564102564,4431.794871794872,4370.256410256411,1682.0,1683.0,915.799,876.70654296875,0.0,0.0,0.0,0.0
914375,37.0,0.0,0.0,4398.974358974359,4180.512820512821,4337.948717948719,4828.717948717949,3785.1282051282055,4235.8974358974365,4275.384615384616,4125.128205128206,4398.461538461539,4113.846153846154,4281.538461538462,4323.589743589744,4428.205128205129,4374.871794871796,1684.0,1682.0,915.799,876.70654296875,0.0,0.0,0.0,0.0
914375,38.0,0.0,0.0,4388.717948717949,4178.974358974359,4339.48717948718,4826.153846153847,3781.538461538462,4234.358974358975,4273.333333333334,4127.179487179487,4398.461538461539,4111.794871794872,4277.435897435898,4323.589743589744,4419.48717948718,4372.307692307693,1682.0,1682.0,915.799,876.70654296875,0.0,0.0,0.0,0.0
914376,39.0,0.0,0.0,4381.538461538462,4177.435897435898,4331.794871794872,4824.102564102564,3777.435897435898,4237.948717948719,4270.256410256411,4114.871794871796,4389.743589743591,4102.051282051282,4270.256410256411,4320.000000000001,4416.410256410257,4367.6923076923085,1683.0,1683.0,915.799,876.70654296875,0.0,0.0,0.0,0.0
914376,40.0,0.0,0.0,4390.256410256411,4177.948717948719,4325.641025641026,4822.564102564103,3777.9487179487182,4236.923076923077,4267.179487179487,4108.717948717949,4386.666666666667,4104.615384615385,4271.794871794872,4314.871794871796,4421.025641025642,4371.282051282052,1683.0,1681.0,915.819,876.70654296875,0.0,0.0,0.0,0.0
914377,41.0,0.0,0.0,4400.000000000001,4182.051282051282,4324.615384615385,4825.128205128206,3782.0512820512827,4237.948717948719,4269.2307692307695,4118.974358974359,4394.871794871796,4109.2307692307695,4281.538461538462,4315.8974358974365,4421.025641025642,4372.307692307693,1682.0,1682.0,915.821,876.70654296875,0.0,0.0,0.0,0.0
914378,42.0,0.0,0.0,4405.128205128206,4184.102564102564,4330.769230769231,4825.641025641026,3785.1282051282055,4239.48717948718,4274.871794871796,4126.153846153847,4400.512820512821,4108.717948717949,4288.717948717949,4321.538461538462,4420.000000000001,4373.846153846154,1683.0,1682.0,915.823,876.70654296875,0.0,0.0,0.0,0.0
914378,43.0,0.0,0.0,4407.179487179487,4183.076923076924,4342.564102564103,4828.717948717949,3780.512820512821,4232.820512820514,4274.871794871796,4121.538461538462,4401.538461538462,4110.769230769231,4286.666666666667,4326.153846153847,4426.153846153847,4381.538461538462,1682.0,1682.0,915.832,876.70654296875,0.0,0.0,0.0,0.0
914378,44.0,0.0,0.0,4402.051282051282,4184.615384615385,4344.102564102564,4832.307692307693,3776.410256410257,4232.307692307693,4269.74358974359,4117.948717948719,4397.948717948719,4107.6923076923085,4280.000000000001,4324.102564102564,4424.615384615385,4376.923076923077,1682.0,1682.0,915.835,876.70654296875,0.0,0.0,0.0,0.0
914378,45.0,0.0,0.0,4395.384615384616,4181.538461538462,4333.846153846154,4828.205128205129,3779.48717948718,4240.000000000001,4269.2307692307695,4122.051282051282,4392.820512820514,4100.512820512821,4274.871794871796,4316.410256410257,4413.333333333334,4365.128205128206,1682.0,1682.0,915.852,876.70654296875,0.0,0.0,0.0,0.0
914379,46.0,0.0,0.0,4391.282051282052,4173.333333333334,4324.615384615385,4822.051282051282,3780.512820512821,4238.974358974359,4269.74358974359,4112.820512820514,4385.641025641026,4098.974358974359,4269.74358974359,4314.358974358975,4407.179487179487,4359.48717948718,1682.0,1682.0,915.854,876.70654296875,0.0,0.0,0.0,0.0
914379,47.0,0.0,0.0,4390.256410256411,4175.8974358974365,4326.666666666667,4821.025641025642,3776.410256410257,4233.333333333334,4267.179487179487,4102.564102564103,4381.538461538462,4100.512820512821,4271.794871794872,4320.000000000001,4409.743589743591,4358.974358974359,1681.0,1682.0,915.868,876.70654296875,0.0,0.0,0.0,0.0
914379,48.0,0.0,0.0,4402.564102564103,4185.128205128206,4342.564102564103,4830.256410256411,3780.0000000000005,4241.025641025642,4270.769230769231,4129.2307692307695,4395.8974358974365,4108.717948717949,4286.153846153847,4324.102564102564,4418.461538461539,4373.333333333334,1681.0,1681.0,915.872,876.70654296875,0.0,0.0,0.0,0.0
914379,49.0,0.0,0.0,4415.8974358974365,4186.666666666667,4357.435897435898,4837.435897435898,3786.666666666667,4245.128205128206,4276.923076923077,4151.282051282052,4408.717948717949,4118.974358974359,4296.410256410257,4325.128205128206,4426.666666666667,4388.205128205129,1680.0,1682.0,915.874,876.70654296875,0.0,0.0,0.0,0.0
914380,50.0,0.0,0.0,4410.769230769231,4183.076923076924,4352.820512820514,4832.307692307693,3784.615384615385,4240.000000000001,4271.794871794872,4117.435897435898,4391.282051282052,4111.282051282052,4286.666666666667,4324.615384615385,4422.564102564103,4381.025641025642,1681.0,1681.0,915.881,876.70654296875,0.0,0.0,0.0,0.0
914380,51.0,0.0,0.0,4398.974358974359,4182.564102564103,4337.948717948719,4826.153846153847,3782.0512820512827,4241.025641025642,4265.641025641026,4080.0000000000005,4370.769230769231,4097.435897435898,4275.8974358974365,4321.025641025642,4410.769230769231,4369.743589743591,1681.0,1680.0,915.889,876.70654296875,0.0,0.0,0.0,0.0
914380,52.0,0.0,0.0,4400.512820512821,4184.102564102564,4333.333333333334,4829.2307692307695,3783.076923076924,4246.153846153847,4273.846153846154,4102.564102564103,4387.6923076923085,4106.666666666667,4288.717948717949,4320.512820512821,4418.461538461539,4376.923076923077,1680.0,1681.0,915.896,876.70654296875,0.0,0.0,0.0,0.0
914380,53.0,0.0,0.0,4409.743589743591,4185.128205128206,4337.435897435898,4831.282051282052,3783.589743589744,4244.102564102564,4281.025641025642,4144.102564102564,4416.410256410257,4122.564102564103,4307.6923076923085,4327.179487179487,4437.948717948719,4388.205128205129,1681.0,1681.0,915.905,876.70654296875,0.0,0.0,0.0,0.0
914380,54.0,0.0,0.0,4413.333333333334,4184.615384615385,4340.512820512821,4830.256410256411,3782.564102564103,4238.461538461539,4270.769230769231,4134.871794871796,4409.743589743591,4115.384615384616,4304.615384615385,4326.666666666667,4436.923076923077,4385.641025641026,1680.0,1681.0,915.911,876.70654296875,0.0,0.0,0.0,0.0
914381,55.0,0.0,0.0,4410.769230769231,4184.102564102564,4342.051282051282,4832.820512820514,3783.589743589744,4239.48717948718,4265.641025641026,4108.717948717949,4386.153846153847,4104.615384615385,4283.076923076924,4321.538461538462,4424.102564102564,4382.051282051282,1681.0,1682.0,915.919,876.70654296875,0.0,0.0,0.0,0.0
914381,56.0,0.0,0.0,4409.743589743591,4183.076923076924,4340.512820512821,4831.282051282052,3784.1025641025644,4242.051282051282,4272.820512820514,4117.948717948719,4386.666666666667,4106.153846153847,4275.8974358974365,4321.538461538462,4417.948717948719,4383.589743589744,1681.0,1683.0,915.927,876.70654296875,0.0,0.0,0.0,0.0
914381,57.0,0.0,0.0,4406.153846153847,4182.564102564103,4335.384615384616,4826.666666666667,3781.0256410256416,4239.48717948718,4273.333333333334,4134.358974358975,4399.48717948718,4110.256410256411,4287.6923076923085,4324.615384615385,4421.538461538462,4384.615384615385,1682.0,1683.0,915.935,876.70654296875,0.0,0.0,0.0,0.0
914381,58.0,0.0,0.0,4400.000000000001,4181.538461538462,4331.282051282052,4825.641025641026,3780.512820512821,4235.8974358974365,4266.666666666667,4124.102564102564,4394.871794871796,4109.2307692307695,4293.333333333334,4325.641025641026,4428.717948717949,4383.076923076924,1681.0,1683.0,915.943,876.70654296875,0.0,0.0,0.0,0.0
914382,59.0,0.0,0.0,4393.333333333334,4176.923076923077,4327.179487179487,4823.076923076924,3781.538461538462,4241.538461538462,4265.641025641026,4109.74358974359,4382.564102564103,4106.153846153847,4283.076923076924,4319.48717948718,4425.641025641026,4373.333333333334,1683.0,1684.0,915.951,876.70654296875,0.0,0.0,0.0,0.0
914382,60.0,0.0,0.0,4396.410256410257,4177.435897435898,4332.820512820514,4822.051282051282,3783.076923076924,4247.179487179487,4271.794871794872,4122.564102564103,4387.6923076923085,4109.74358974359,4287.6923076923085,4319.48717948718,4420.512820512821,4375.384615384616,1682.0,1683.0,915.959,876.70654296875,0.0,0.0,0.0,0.0
914382,61.0,0.0,0.0,4412.307692307693,4186.666666666667,4351.282051282052,4828.717948717949,3783.589743589744,4238.974358974359,4277.948717948719,4145.128205128206,4403.076923076924,4120.512820512821,4309.743589743591,4330.769230769231,4431.794871794872,4395.8974358974365,1683.0,1685.0,915.967,876.70654296875,0.0,0.0,0.0,0.0
914382,62.0,0.0,0.0,4426.153846153847,4190.256410256411,4362.564102564103,4840.512820512821,3784.615384615385,4234.871794871796,4279.48717948718,4145.128205128206,4407.6923076923085,4125.641025641026,4316.923076923077,4332.820512820514,4447.6923076923085,4407.6923076923085,1683.0,1683.0,915.974,876.70654296875,0.0,0.0,0.0,0.0
914383,63.0,0.0,0.0,4423.589743589744,4186.153846153847,4355.8974358974365,4843.589743589744,3783.589743589744,4242.051282051282,4274.871794871796,4126.153846153847,4398.461538461539,4117.435897435898,4309.743589743591,4326.666666666667,4446.153846153847,4401.025641025642,1683.0,1684.0,915.982,876.70654296875,0.0,0.0,0.0,0.0
914383,64.0,0.0,474.0,4410.256410256411,4183.589743589744,4345.128205128206,4835.384615384616,3783.076923076924,4243.589743589744,4271.282051282052,4120.000000000001,4389.743589743591,4111.282051282052,4305.128205128206,4325.128205128206,4434.871794871796,4390.769230769231,1684.0,1683.0,915.991,876.70654296875,0.0,0.0,0.0,0.0
914383,65.0,0.0,279.0,4409.2307692307695,4184.102564102564,4343.076923076924,4832.307692307693,3786.1538461538466,4244.102564102564,4276.923076923077,4131.282051282052,4391.282051282052,4115.8974358974365,4306.666666666667,4325.128205128206,4432.820512820514,4389.2307692307695,1682.0,1684.0,915.998,876.70654296875,0.0,0.0,0.0,0.0
914383,66.0,0.0,447.0,4422.051282051282,4189.74358974359,4352.307692307693,4842.564102564103,3788.717948717949,4247.6923076923085,4281.025641025642,4135.8974358974365,4401.538461538462,4123.589743589744,4315.8974358974365,4328.205128205129,4446.153846153847,4401.025641025642,1683.0,1684.0,916.006,876.70654296875,0.0,0.0,0.0,0.0
914383,67.0,0.0,349.0,4429.743589743591,4201.025641025642,4366.153846153847,4851.282051282052,3786.666666666667,4242.564102564103,4273.846153846154,4130.769230769231,4406.666666666667,4128.205128205129,4326.666666666667,4334.358974358975,4458.461538461539,4416.923076923077,1682.0,1684.0,916.013,876.70654296875,0.0,0.0,0.0,0.0
914384,68.0,0.0,456.0,4422.564102564103,4201.025641025642,4363.589743589744,4846.153846153847,3785.1282051282055,4243.076923076924,4269.2307692307695,4120.512820512821,4394.358974358975,4122.051282051282,4320.000000000001,4331.794871794872,4451.282051282052,4414.871794871796,1682.0,1685.0,916.022,876.70654296875,0.0,0.0,0.0,0.0
914384,69.0,0.0,547.0,4409.743589743591,4188.717948717949,4344.102564102564,4836.923076923077,3785.6410256410263,4253.846153846154,4271.282051282052,4109.74358974359,4381.025641025642,4110.256410256411,4301.538461538462,4322.051282051282,4435.8974358974365,4398.461538461539,1681.0,1684.0,916.029,876.70654296875,0.0,0.0,0.0,0.0
914384,70.0,0.0,531.0,4402.564102564103,4183.589743589744,4332.307692307693,4834.871794871796,3784.1025641025644,4250.256410256411,4269.2307692307695,4113.846153846154,4384.615384615385,4106.666666666667,4297.435897435898,4318.461538461539,4426.666666666667,4388.205128205129,1682.0,1685.0,916.038,876.70654296875,0.0,0.0,0.0,0.0
914385,71.0,0.0,476.0,4404.102564102564,4186.666666666667,4331.282051282052,4835.8974358974365,3782.564102564103,4240.512820512821,4271.282051282052,4123.076923076924,4390.256410256411,4112.820512820514,4302.051282051282,4318.974358974359,4426.153846153847,4386.153846153847,1681.0,1684.0,916.044,876.70654296875,0.0,0.0,0.0,0.0
914385,72.0,0.0,419.0,4407.179487179487,4184.615384615385,4331.282051282052,4834.871794871796,3783.076923076924,4244.615384615385,4274.358974358975,4122.564102564103,4386.153846153847,4115.8974358974365,4296.923076923077,4317.948717948719,4425.641025641026,4386.666666666667,1681.0,1685.0,916.052,876.70654296875,0.0,0.0,0.0,0.0
914385,73.0,0.0,467.0,4412.307692307693,4189.2307692307695,4338.974358974359,4838.461538461539,3783.589743589744,4248.205128205129,4272.820512820514,4129.2307692307695,4391.282051282052,4116.923076923077,4300.000000000001,4323.589743589744,4432.307692307693,4394.871794871796,1682.0,1683.0,916.06,876.70654296875,0.0,0.0,0.0,0.0
914385,74.0,0.0,485.0,4423.589743589744,4196.923076923077,4352.307692307693,4848.205128205129,3785.1282051282055,4241.538461538462,4275.8974358974365,4141.538461538462,4405.128205128206,4124.615384615385,4316.923076923077,4330.769230769231,4448.205128205129,4408.717948717949,1680.0,1685.0,916.068,876.70654296875,0.0,0.0,0.0,0.0
914386,75.0,0.0,438.0,4422.564102564103,4192.307692307693,4351.794871794872,4848.205128205129,3785.1282051282055,4242.051282051282,4280.000000000001,4132.820512820514,4400.512820512821,4122.564102564103,4313.846153846154,4329.2307692307695,4445.128205128206,4406.153846153847,1681.0,1684.0,916.076,876.70654296875,0.0,0.0,0.0,0.0
914386,76.0,0.0,446.0,4403.589743589744,4183.076923076924,4338.974358974359,4838.461538461539,3783.589743589744,4248.205128205129,4270.256410256411,4110.769230769231,4382.051282051282,4108.205128205129,4293.333333333334,4321.025641025642,4422.564102564103,4388.717948717949,1681.0,1683.0,916.083,876.70654296875,0.0,0.0,0.0,0.0
914386,77.0,0.0,235.0,4404.102564102564,4184.615384615385,4337.948717948719,4838.461538461539,3783.076923076924,4246.153846153847,4264.102564102564,4106.666666666667,4381.025641025642,4108.205128205129,4294.358974358975,4320.000000000001,4421.025641025642,4385.641025641026,1681.0,1683.0,916.091,876.70654296875,0.0,0.0,0.0,0.0
914386,78.0,0.0,485.0,4425.641025641026,4193.846153846154,4350.256410256411,4848.205128205129,3785.1282051282055,4243.589743589744,4272.307692307693,4124.102564102564,4397.435897435898,4120.512820512821,4310.256410256411,4328.205128205129,4442.051282051282,4399.48717948718,1681.0,1683.0,916.099,876.70654296875,0.0,0.0,0.0,0.0
914386,79.0,0.0,438.0,4430.769230769231,4199.48717948718,4354.358974358975,4853.333333333334,3787.692307692308,4248.205128205129,4278.974358974359,4140.512820512821,4406.153846153847,4123.076923076924,4311.282051282052,4330.256410256411,4445.128205128206,4404.102564102564,1681.0,1683.0,916.107,876.70654296875,0.0,0.0,0.0,0.0
914386,80.0,0.0,446.0,4419.48717948718,4197.435897435898,4347.179487179487,4847.179487179488,3787.692307692308,4247.179487179487,4274.871794871796,4133.846153846154,4400.000000000001,4116.923076923077,4305.641025641026,4323.076923076924,4434.358974358975,4399.48717948718,1681.0,1683.0,916.115,876.70654296875,0.0,0.0,0.0,0.0
914386,81.0,0.0,235.0,4415.8974358974365,4192.820512820514,4348.205128205129,4843.589743589744,3786.1538461538466,4243.589743589744,4273.333333333334,4116.410256410257,4392.307692307693,4117.435897435898,4310.256410256411,4324.615384615385,4437.435897435898,4401.538461538462,1682.0,1684.0,916.124,876.70654296875,0.0,0.0,0.0,0.0
914494,82.0,0.0,485.0,4415.384615384616,4190.256410256411,4349.743589743591,4847.6923076923085,3786.666666666667,4247.6923076923085,4274.871794871796,4120.000000000001,4396.410256410257,4122.051282051282,4312.307692307693,4328.205128205129,4440.512820512821,4404.102564102564,1682.0,1683.0,916.131,877.2069702148438,0.0,0.0,0.0,0.0
914494,83.0,0.0,438.0,4406.153846153847,4186.153846153847,4340.512820512821,4845.128205128206,3787.1794871794878,4251.794871794872,4272.820512820514,4131.794871794872,4402.564102564103,4116.923076923077,4302.051282051282,4319.48717948718,4428.717948717949,4393.846153846154,1683.0,1684.0,916.139,877.2069702148438,0.0,0.0,0.0,0.0
914495,84.0,0.0,446.0,4404.102564102564,4184.615384615385,4336.923076923077,4841.025641025642,3785.6410256410263,4246.666666666667,4271.794871794872,4127.6923076923085,4397.435897435898,4112.307692307693,4298.974358974359,4314.871794871796,4422.051282051282,4388.205128205129,1682.0,1685.0,916.146,877.2069702148438,0.0,0.0,0.0,0.0
914495,85.0,0.0,235.0,4413.333333333334,4188.205128205129,4345.641025641026,4845.128205128206,3784.615384615385,4240.000000000001,4275.8974358974365,4119.48717948718,4389.2307692307695,4117.435897435898,4304.615384615385,4320.512820512821,4427.6923076923085,4396.923076923077,1683.0,1685.0,916.154,877.2069702148438,0.0,0.0,0.0,0.0
914495,86.0,0.0,485.0,4413.846153846154,4186.153846153847,4344.615384615385,4841.025641025642,3783.589743589744,4243.076923076924,4277.948717948719,4125.641025641026,4389.743589743591,4115.8974358974365,4304.615384615385,4321.025641025642,4423.589743589744,4397.948717948719,1682.0,1685.0,916.162,877.2069702148438,0.0,0.0,0.0,0.0
914496,87.0,0.0,438.0,4404.615384615385,4182.564102564103,4336.410256410257,4831.282051282052,3783.076923076924,4249.74358974359,4277.948717948719,4137.948717948719,4389.2307692307695,4108.205128205129,4298.974358974359,4318.974358974359,4410.769230769231,4389.743589743591,1683.0,1685.0,916.169,877.2069702148438,0.0,0.0,0.0,0.0
914496,88.0,0.0,446.0,4404.102564102564,4184.615384615385,4339.48717948718,4836.923076923077,3784.615384615385,4247.179487179487,4283.589743589744,4140.000000000001,4388.205128205129,4113.846153846154,4302.051282051282,4323.076923076924,4414.871794871796,4394.358974358975,1682.0,1684.0,916.179,877.2069702148438,0.0,0.0,0.0,0.0
914496,89.0,0.0,235.0,4411.794871794872,4188.717948717949,4344.102564102564,4843.589743589744,3785.1282051282055,4239.48717948718,4287.6923076923085,4129.74358974359,4391.794871794872,4121.538461538462,4312.307692307693,4324.102564102564,4428.717948717949,4405.128205128206,1683.0,1683.0,916.185,877.2069702148438,0.0,0.0,0.0,0.0
914496,90.0,0.0,485.0,4415.8974358974365,4187.6923076923085,4342.564102564103,4839.48717948718,3784.615384615385,4240.512820512821,4280.000000000001,4120.000000000001,4391.282051282052,4117.435897435898,4315.384615384616,4320.512820512821,4432.820512820514,4404.615384615385,1683.0,1682.0,916.193,877.2069702148438,0.0,0.0,0.0,0.0
914497,91.0,0.0,438.0,4415.384615384616,4188.205128205129,4342.564102564103,4840.512820512821,3786.1538461538466,4247.179487179487,4273.333333333334,4120.000000000001,4387.179487179487,4114.358974358975,4311.282051282052,4322.051282051282,4431.282051282052,4403.589743589744,1683.0,1683.0,916.201,877.2069702148438,0.0,0.0,0.0,0.0
914497,92.0,0.0,446.0,4416.923076923077,4194.871794871796,4348.205128205129,4847.6923076923085,3786.666666666667,4246.153846153847,4277.435897435898,4117.435897435898,4385.128205128206,4117.948717948719,4313.333333333334,4324.102564102564,4434.871794871796,4406.666666666667,1683.0,1682.0,916.209,877.2069702148438,0.0,0.0,0.0,0.0
914497,93.0,0.0,235.0,4420.000000000001,4193.846153846154,4350.256410256411,4848.717948717949,3785.6410256410263,4240.000000000001,4282.051282051282,4108.717948717949,4384.102564102564,4115.384615384616,4314.871794871796,4324.102564102564,4437.435897435898,4405.128205128206,1682.0,1683.0,916.218,877.2069702148438,0.0,0.0,0.0,0.0
914497,94.0,0.0,485.0,4417.435897435898,4185.641025641026,4348.717948717949,4842.051282051283,3786.666666666667,4242.564102564103,4282.564102564103,4115.8974358974365,4389.743589743591,4112.307692307693,4309.2307692307695,4326.153846153847,4433.333333333334,4400.512820512821,1684.0,1682.0,916.225,877.2069702148438,0.0,0.0,0.0,0.0
914498,95.0,0.0,438.0,4408.717948717949,4183.076923076924,4345.128205128206,4836.923076923077,3787.692307692308,4248.717948717949,4285.128205128206,4135.8974358974365,4401.538461538462,4114.871794871796,4306.153846153847,4326.666666666667,4428.717948717949,4398.461538461539,1682.0,1683.0,916.232,877.2069702148438,0.0,0.0,0.0,0.0
914498,96.0,0.0,446.0,4405.128205128206,4185.128205128206,4338.461538461539,4837.435897435898,3786.1538461538466,4247.6923076923085,4283.076923076924,4133.846153846154,4395.8974358974365,4113.846153846154,4301.538461538462,4321.025641025642,4423.076923076924,4396.410256410257,1683.0,1684.0,916.241,877.2069702148438,0.0,0.0,0.0,0.0
914498,97.0,0.0,235.0,4412.820512820514,4186.153846153847,4336.923076923077,4840.512820512821,3785.6410256410263,4241.538461538462,4278.461538461539,4117.948717948719,4380.000000000001,4110.256410256411,4294.871794871796,4320.512820512821,4417.948717948719,4392.307692307693,1682.0,1683.0,916.249,877.2069702148438,0.0,0.0,0.0,0.0
914622,98.0,0.0,485.0,4423.076923076924,4187.179487179487,4345.128205128206,4841.538461538462,3786.666666666667,4240.512820512821,4281.538461538462,4120.512820512821,4385.128205128206,4113.846153846154,4297.435897435898,4325.641025641026,4423.076923076924,4399.48717948718,1682.0,1683.0,916.257,877.3320922851562,0.0,0.0,0.0,0.0
914622,99.0,0.0,438.0,4427.179487179487,4188.205128205129,4354.358974358975,4843.589743589744,3786.1538461538466,4240.000000000001,4285.641025641026,4133.333333333334,4399.48717948718,4124.102564102564,4309.2307692307695,4327.179487179487,4434.871794871796,4411.794871794872,1682.0,1684.0,916.264,877.3320922851562,0.0,0.0,0.0,0.0
914622,100.0,0.0,446.0,4424.615384615385,4186.666666666667,4355.384615384616,4847.179487179488,3786.666666666667,4235.384615384616,4281.538461538462,4131.282051282052,4396.410256410257,4123.589743589744,4309.2307692307695,4325.641025641026,4435.384615384616,4410.256410256411,1683.0,1684.0,916.272,877.3320922851562,0.0,0.0,0.0,0.0
914623,101.0,0.0,235.0,4414.871794871796,4185.641025641026,4346.666666666667,4843.076923076924,3787.692307692308,4237.948717948719,4277.435897435898,4121.025641025642,4385.128205128206,4113.333333333334,4294.871794871796,4321.538461538462,4421.538461538462,4397.948717948719,1682.0,1683.0,916.28,877.3320922851562,0.0,0.0,0.0,0.0
914623,102.0,0.0,485.0,4406.666666666667,4185.128205128206,4337.435897435898,4837.948717948719,3784.1025641025644,4243.076923076924,4276.410256410257,4108.205128205129,4378.974358974359,4104.615384615385,4287.179487179487,4317.435897435898,4410.769230769231,4393.846153846154,1682.0,1685.0,916.288,877.3320922851562,0.0,0.0,0.0,0.0
914623,103.0,0.0,438.0,4405.641025641026,4185.641025641026,4333.333333333334,4838.974358974359,3781.0256410256416,4234.358974358975,4271.282051282052,4104.615384615385,4378.461538461539,4103.589743589744,4288.205128205129,4314.871794871796,4410.769230769231,4391.794871794872,1683.0,1684.0,916.295,877.3320922851562,0.0,0.0,0.0,0.0
914623,104.0,0.0,446.0,4404.102564102564,4184.102564102564,4331.282051282052,4834.871794871796,3781.538461538462,4227.6923076923085,4267.6923076923085,4124.102564102564,4384.615384615385,4106.666666666667,4291.282051282052,4318.461538461539,4414.358974358975,4387.179487179487,1682.0,1685.0,916.302,877.3320922851562,0.0,0.0,0.0,0.0
914623,105.0,0.0,235.0,4403.076923076924,4181.538461538462,4331.794871794872,4829.2307692307695,3778.461538461539,4234.358974358975,4268.717948717949,4137.948717948719,4391.794871794872,4107.179487179487,4292.820512820514,4322.051282051282,4416.923076923077,4392.307692307693,1683.0,1685.0,916.31,877.3320922851562,0.0,0.0,0.0,0.0
914624,106.0,0.0,485.0,4407.6923076923085,4183.589743589744,4335.384615384616,4834.358974358975,3778.461538461539,4237.435897435898,4269.74358974359,4125.128205128206,4389.2307692307695,4107.179487179487,4295.384615384616,4322.564102564103,4419.48717948718,4398.974358974359,1682.0,1686.0,916.318,877.3320922851562,0.0,0.0,0.0,0.0
914625,107.0,0.0,438.0,4406.666666666667,4184.102564102564,4330.769230769231,4835.8974358974365,3779.48717948718,4231.282051282052,4270.256410256411,4109.2307692307695,4379.48717948718,4106.666666666667,4292.307692307693,4322.051282051282,4416.410256410257,4392.820512820514,1682.0,1687.0,916.326,877.3320922851562,0.0,0.0,0.0,0.0
914625,108.0,0.0,446.0,4405.128205128206,4184.102564102564,4326.666666666667,4833.846153846154,3780.0000000000005,4228.205128205129,4270.256410256411,4107.179487179487,4375.384615384616,4104.615384615385,4286.666666666667,4321.025641025642,4410.256410256411,4386.666666666667,1682.0,1686.0,916.334,877.3320922851562,0.0,0.0,0.0,0.0
914625,109.0,0.0,235.0,4415.8974358974365,4185.641025641026,4340.000000000001,4838.974358974359,3780.0000000000005,4228.205128205129,4270.256410256411,4113.846153846154,4383.076923076924,4105.641025641026,4293.333333333334,4324.615384615385,4416.410256410257,4393.333333333334,1682.0,1687.0,916.342,877.3320922851562,0.0,0.0,0.0,0.0
914626,110.0,0.0,485.0,4418.974358974359,4186.153846153847,4352.820512820514,4841.538461538462,3780.512820512821,4229.74358974359,4270.256410256411,4126.153846153847,4389.2307692307695,4111.282051282052,4301.538461538462,4329.743589743591,4422.564102564103,4398.461538461539,1682.0,1685.0,916.349,877.3320922851562,0.0,0.0,0.0,0.0
914626,111.0,0.0,438.0,4409.2307692307695,4186.153846153847,4347.179487179487,4836.410256410257,3782.564102564103,4238.461538461539,4272.820512820514,4122.564102564103,4384.102564102564,4112.307692307693,4300.000000000001,4326.666666666667,4418.974358974359,4391.794871794872,1681.0,1684.0,916.358,877.3320922851562,0.0,0.0,0.0,0.0
914629,112.0,0.0,446.0,4410.769230769231,4188.717948717949,4342.564102564103,4842.051282051283,3783.076923076924,4244.102564102564,4274.871794871796,4109.2307692307695,4382.051282051282,4110.769230769231,4297.435897435898,4322.564102564103,4423.589743589744,4388.717948717949,1681.0,1682.0,916.365,877.3320922851562,0.0,0.0,0.0,0.0
914629,113.0,0.0,235.0,4415.8974358974365,4188.205128205129,4347.6923076923085,4847.6923076923085,3781.0256410256416,4241.538461538462,4279.48717948718,4118.461538461539,4390.769230769231,4114.871794871796,4298.974358974359,4326.153846153847,4433.846153846154,4392.307692307693,1680.0,1683.0,916.374,877.3320922851562,0.0,0.0,0.0,0.0
914747,114.0,0.0,485.0,4406.666666666667,4183.589743589744,4344.102564102564,4840.512820512821,3780.0000000000005,4248.205128205129,4285.641025641026,4131.794871794872,4391.794871794872,4111.794871794872,4293.846153846154,4327.6923076923085,4425.641025641026,4387.6923076923085,1681.0,1682.0,916.382,877.4572143554688,0.0,0.0,0.0,0.0
914747,115.0,0.0,438.0,4403.076923076924,4183.076923076924,4342.564102564103,4838.974358974359,3785.6410256410263,4260.000000000001,4287.6923076923085,4125.641025641026,4386.153846153847,4105.641025641026,4284.102564102564,4323.076923076924,4416.410256410257,4379.48717948718,1680.0,1682.0,916.388,877.4572143554688,0.0,0.0,0.0,0.0
914747,116.0,0.0,446.0,4419.48717948718,4188.717948717949,4354.871794871796,4845.128205128206,3787.692307692308,4255.8974358974365,4288.717948717949,4125.641025641026,4393.333333333334,4115.8974358974365,4291.794871794872,4326.666666666667,4428.205128205129,4388.205128205129,1682.0,1682.0,916.397,877.4572143554688,0.0,0.0,0.0,0.0
914748,117.0,0.0,235.0,4431.282051282052,4192.820512820514,4363.589743589744,4846.666666666667,3785.6410256410263,4246.666666666667,4288.205128205129,4132.820512820514,4402.564102564103,4126.153846153847,4304.102564102564,4333.846153846154,4442.051282051282,4399.48717948718,1680.0,1683.0,916.404,877.4572143554688,0.0,0.0,0.0,0.0
914748,118.0,0.0,485.0,4423.589743589744,4189.74358974359,4358.461538461539,4845.128205128206,3784.615384615385,4246.666666666667,4283.589743589744,4129.2307692307695,4396.410256410257,4118.974358974359,4294.358974358975,4329.2307692307695,4436.410256410257,4391.282051282052,1681.0,1685.0,916.412,877.4572143554688,0.0,0.0,0.0,0.0
914748,119.0,0.0,438.0,4416.410256410257,4186.666666666667,4352.820512820514,4844.615384615386,3783.076923076924,4245.128205128206,4278.974358974359,4126.666666666667,4390.769230769231,4113.846153846154,4285.641025641026,4322.564102564103,4427.6923076923085,4382.564102564103,1682.0,1684.0,916.42,877.4572143554688,0.0,0.0,0.0,0.0
914748,120.0,0.0,446.0,4417.948717948719,4185.641025641026,4353.846153846154,4841.025641025642,3785.1282051282055,4243.076923076924,4280.512820512821,4130.256410256411,4396.410256410257,4119.48717948718,4295.8974358974365,4324.102564102564,4431.794871794872,4387.179487179487,1683.0,1686.0,916.428,877.4572143554688,0.0,0.0,0.0,0.0
914749,121.0,0.0,235.0,4415.8974358974365,4185.128205128206,4350.769230769231,4837.948717948719,3785.1282051282055,4245.641025641026,4284.615384615385,4135.8974358974365,4400.512820512821,4120.512820512821,4301.025641025642,4325.641025641026,4435.384615384616,4388.205128205129,1683.0,1684.0,916.435,877.4572143554688,0.0,0.0,0.0,0.0
914749,122.0,0.0,485.0,4415.384615384616,4184.615384615385,4346.666666666667,4840.512820512821,3784.1025641025644,4246.666666666667,4285.128205128206,4141.538461538462,4400.512820512821,4116.410256410257,4295.384615384616,4325.128205128206,4429.743589743591,4381.538461538462,1683.0,1685.0,916.443,877.4572143554688,0.0,0.0,0.0,0.0
914749,123.0,0.0,438.0,4413.333333333334,4183.589743589744,4346.153846153847,4842.051282051283,3785.1282051282055,4251.794871794872,4284.102564102564,4133.846153846154,4399.48717948718,4115.8974358974365,4292.307692307693,4323.589743589744,4421.025641025642,4375.8974358974365,1683.0,1684.0,916.451,877.4572143554688,0.0,0.0,0.0,0.0
914749,124.0,0.0,446.0,4407.179487179487,4184.615384615385,4346.666666666667,4840.512820512821,3786.1538461538466,4256.923076923077,4285.641025641026,4125.641025641026,4398.461538461539,4115.8974358974365,4289.2307692307695,4322.051282051282,4418.974358974359,4374.871794871796,1683.0,1684.0,916.459,877.4572143554688,0.0,0.0,0.0,0.0
914749,125.0,0.0,235.0,4410.256410256411,4187.6923076923085,4345.128205128206,4843.076923076924,3784.1025641025644,4251.282051282052,4283.589743589744,4127.179487179487,4400.000000000001,4113.846153846154,4290.769230769231,4325.128205128206,4425.128205128206,4379.48717948718,1683.0,1683.0,916.467,877.4572143554688,0.0,0.0,0.0,0.0
914749,126.0,0.0,485.0,4420.512820512821,4188.205128205129,4345.641025641026,4846.153846153847,3784.1025641025644,4243.076923076924,4280.512820512821,4125.641025641026,4400.000000000001,4117.948717948719,4300.512820512821,4330.769230769231,4435.8974358974365,4388.205128205129,1682.0,1683.0,916.474,877.4572143554688,0.0,0.0,0.0,0.0
914749,127.0,0.0,438.0,4421.025641025642,4186.153846153847,4348.205128205129,4843.589743589744,3786.1538461538466,4248.205128205129,4283.589743589744,4130.256410256411,4403.076923076924,4119.48717948718,4297.948717948719,4328.717948717949,4435.8974358974365,4388.717948717949,1683.0,1683.0,916.482,877.4572143554688,0.0,0.0,0.0,0.0
914749,128.0,0.0,446.0,4416.923076923077,4185.641025641026,4345.641025641026,4842.564102564103,3785.6410256410263,4251.794871794872,4281.538461538462,4132.307692307693,4401.025641025642,4113.846153846154,4284.615384615385,4321.538461538462,4424.615384615385,4378.461538461539,1682.0,1682.0,916.49,877.4572143554688,0.0,0.0,0.0,0.0
914750,0.0,0.0,474.0,4420.000000000001,4188.205128205129,4345.641025641026,4845.128205128206,3784.1025641025644,4244.615384615385,4277.948717948719,4124.102564102564,4393.846153846154,4112.820512820514,4280.000000000001,4321.025641025642,4423.076923076924,4373.333333333334,1682.0,1684.0,916.498,877.4572143554688,0.0,0.0,0.0,0.0
914876,1.0,0.0,279.0,4421.538461538462,4188.717948717949,4348.205128205129,4845.128205128206,3785.1282051282055,4244.102564102564,4280.512820512821,4122.051282051282,4393.846153846154,4115.384615384616,4281.538461538462,4323.589743589744,4427.6923076923085,4379.48717948718,1682.0,1683.0,916.506,877.582275390625,0.0,0.0,0.0,0.0
914877,2.0,0.0,447.0,4422.051282051282,4186.153846153847,4345.128205128206,4843.589743589744,3786.1538461538466,4251.282051282052,4281.538461538462,4121.025641025642,4397.948717948719,4114.358974358975,4283.076923076924,4324.102564102564,4425.128205128206,4381.025641025642,1681.0,1684.0,916.514,877.582275390625,0.0,0.0,0.0,0.0
914877,3.0,0.0,349.0,4431.794871794872,4188.205128205129,4346.153846153847,4846.153846153847,3786.1538461538466,4248.717948717949,4282.051282051282,4125.128205128206,4404.102564102564,4118.461538461539,4285.641025641026,4326.153846153847,4425.641025641026,4381.538461538462,1682.0,1684.0,916.522,877.582275390625,0.0,0.0,0.0,0.0
914877,4.0,0.0,456.0,4438.974358974359,4193.333333333334,4355.8974358974365,4849.2307692307695,3786.1538461538466,4240.512820512821,4285.641025641026,4141.538461538462,4410.256410256411,4124.615384615385,4286.666666666667,4328.205128205129,4432.820512820514,4391.794871794872,1681.0,1684.0,916.529,877.582275390625,0.0,0.0,0.0,0.0
914878,5.0,0.0,547.0,4436.410256410257,4191.282051282052,4355.8974358974365,4848.205128205129,3785.6410256410263,4243.589743589744,4281.538461538462,4134.871794871796,4403.589743589744,4117.435897435898,4284.102564102564,4324.615384615385,4432.307692307693,4393.333333333334,1681.0,1685.0,916.538,877.582275390625,0.0,0.0,0.0,0.0
914878,6.0,0.0,531.0,4435.384615384616,4186.153846153847,4351.794871794872,4846.666666666667,3783.589743589744,4247.6923076923085,4272.820512820514,4113.846153846154,4391.282051282052,4111.282051282052,4285.641025641026,4323.589743589744,4430.256410256411,4387.179487179487,1681.0,1685.0,916.545,877.582275390625,0.0,0.0,0.0,0.0
914878,7.0,0.0,476.0,4439.48717948718,4185.641025641026,4356.923076923077,4845.128205128206,3782.564102564103,4244.102564102564,4273.333333333334,4133.333333333334,4404.615384615385,4117.435897435898,4291.794871794872,4328.717948717949,4435.8974358974365,4390.769230769231,1682.0,1685.0,916.553,877.582275390625,0.0,0.0,0.0,0.0
914878,8.0,0.0,419.0,4437.435897435898,4187.6923076923085,4354.871794871796,4844.102564102564,3783.589743589744,4241.025641025642,4274.871794871796,4150.256410256411,4416.923076923077,4120.000000000001,4296.410256410257,4330.256410256411,4441.538461538462,4397.435897435898,1681.0,1684.0,916.56,877.582275390625,0.0,0.0,0.0,0.0
914879,9.0,0.0,468.0,4430.256410256411,4187.179487179487,4345.641025641026,4845.641025641026,3782.564102564103,4240.512820512821,4276.923076923077,4126.666666666667,4403.076923076924,4115.8974358974365,4296.410256410257,4325.128205128206,4440.512820512821,4395.384615384616,1681.0,1683.0,916.568,877.582275390625,0.0,0.0,0.0,0.0
914879,10.0,0.0,485.0,4427.6923076923085,4185.128205128206,4343.076923076924,4846.153846153847,3783.076923076924,4242.051282051282,4275.384615384616,4112.820512820514,4392.307692307693,4112.307692307693,4290.769230769231,4319.48717948718,4431.282051282052,4389.743589743591,1681.0,1683.0,916.576,877.582275390625,0.0,0.0,0.0,0.0
914879,11.0,0.0,438.0,4429.2307692307695,4185.128205128206,4348.205128205129,4843.076923076924,3785.1282051282055,4245.128205128206,4273.846153846154,4126.153846153847,4401.538461538462,4114.871794871796,4289.2307692307695,4320.000000000001,4427.6923076923085,4387.179487179487,1681.0,1682.0,916.584,877.582275390625,0.0,0.0,0.0,0.0
914879,12.0,0.0,446.0,4427.6923076923085,4187.179487179487,4348.717948717949,4845.128205128206,3782.564102564103,4242.564102564103,4279.48717948718,4137.948717948719,4410.769230769231,4117.435897435898,4293.846153846154,4322.051282051282,4433.333333333334,4388.717948717949,1681.0,1683.0,916.592,877.582275390625,0.0,0.0,0.0,0.0
914880,13.0,0.0,235.0,4421.025641025642,4186.153846153847,4340.000000000001,4846.153846153847,3779.48717948718,4240.000000000001,4278.974358974359,4128.717948717949,4402.051282051282,4110.256410256411,4289.2307692307695,4320.512820512821,4429.2307692307695,4384.102564102564,1682.0,1682.0,916.6,877.582275390625,0.0,0.0,0.0,0.0
914880,14.0,0.0,485.0,4418.974358974359,4182.564102564103,4331.794871794872,4835.384615384616,3782.0512820512827,4245.641025641026,4271.794871794872,4115.8974358974365,4390.769230769231,4100.512820512821,4277.948717948719,4315.384615384616,4416.410256410257,4374.358974358975,1681.0,1683.0,916.607,877.582275390625,0.0,0.0,0.0,0.0
914880,15.0,0.0,438.0,4429.2307692307695,4185.128205128206,4340.000000000001,4836.410256410257,3785.6410256410263,4244.615384615385,4271.794871794872,4120.512820512821,4394.871794871796,4108.717948717949,4284.615384615385,4318.461538461539,4422.051282051282,4383.076923076924,1682.0,1683.0,916.615,877.582275390625,0.0,0.0,0.0,0.0
914881,16.0,0.0,0.0,4433.846153846154,4188.205128205129,4353.333333333334,4851.794871794872,3783.589743589744,4240.512820512821,4275.384615384616,4129.2307692307695,4405.641025641026,4121.025641025642,4305.128205128206,4327.179487179487,4440.000000000001,4396.410256410257,1682.0,1684.0,916.624,877.582275390625,0.0,0.0,0.0,0.0
914996,17.0,0.0,0.0,4421.025641025642,4184.615384615385,4342.051282051282,4845.128205128206,3780.0000000000005,4243.589743589744,4269.2307692307695,4118.974358974359,4396.923076923077,4110.769230769231,4297.435897435898,4320.512820512821,4432.307692307693,4384.615384615385,1683.0,1683.0,916.631,877.7073974609375,0.0,0.0,0.0,0.0
914996,18.0,0.0,0.0,4411.282051282052,4182.564102564103,4323.076923076924,4829.743589743591,3775.8974358974365,4238.974358974359,4261.538461538462,4107.6923076923085,4381.025641025642,4099.48717948718,4270.769230769231,4310.769230769231,4408.717948717949,4369.743589743591,1682.0,1683.0,916.639,877.7073974609375,0.0,0.0,0.0,0.0
914996,19.0,0.0,0.0,4422.564102564103,4184.102564102564,4328.717948717949,4838.461538461539,3773.8461538461543,4228.205128205129,4264.615384615385,4113.846153846154,4385.641025641026,4109.2307692307695,4276.923076923077,4320.000000000001,4417.948717948719,4383.589743589744,1683.0,1685.0,916.647,877.7073974609375,0.0,0.0,0.0,0.0
914996,20.0,0.0,0.0,4438.974358974359,4190.256410256411,4347.179487179487,4851.282051282052,3779.48717948718,4232.307692307693,4271.282051282052,4126.666666666667,4398.974358974359,4121.538461538462,4303.589743589744,4332.307692307693,4445.128205128206,4403.589743589744,1684.0,1684.0,916.655,877.7073974609375,0.0,0.0,0.0,0.0
914997,21.0,0.0,0.0,4444.615384615385,4195.8974358974365,4353.846153846154,4848.205128205129,3785.6410256410263,4241.538461538462,4272.820512820514,4129.74358974359,4403.076923076924,4121.538461538462,4309.743589743591,4330.769230769231,4447.6923076923085,4406.153846153847,1682.0,1685.0,916.662,877.7073974609375,0.0,0.0,0.0,0.0
914997,22.0,0.0,0.0,4441.538461538462,4192.820512820514,4352.307692307693,4847.179487179488,3782.0512820512827,4241.025641025642,4268.717948717949,4115.8974358974365,4393.333333333334,4117.948717948719,4301.538461538462,4328.717948717949,4438.974358974359,4403.076923076924,1683.0,1684.0,916.67,877.7073974609375,0.0,0.0,0.0,0.0
914997,23.0,0.0,0.0,4435.8974358974365,4187.179487179487,4351.282051282052,4847.179487179488,3779.48717948718,4238.461538461539,4266.666666666667,4107.179487179487,4387.179487179487,4115.8974358974365,4298.461538461539,4330.256410256411,4440.000000000001,4401.538461538462,1683.0,1684.0,916.678,877.7073974609375,0.0,0.0,0.0,0.0
914997,24.0,0.0,0.0,4432.820512820514,4187.6923076923085,4349.743589743591,4844.102564102564,3782.564102564103,4235.8974358974365,4265.128205128206,4114.871794871796,4393.333333333334,4113.846153846154,4297.948717948719,4325.641025641026,4440.512820512821,4397.435897435898,1683.0,1683.0,916.686,877.7073974609375,0.0,0.0,0.0,0.0
914997,25.0,0.0,0.0,4431.794871794872,4188.717948717949,4347.179487179487,4844.102564102564,3782.0512820512827,4234.358974358975,4261.025641025642,4120.000000000001,4396.923076923077,4115.384615384616,4296.923076923077,4322.051282051282,4436.923076923077,4393.333333333334,1682.0,1683.0,916.693,877.7073974609375,0.0,0.0,0.0,0.0
914997,26.0,0.0,0.0,4427.179487179487,4184.615384615385,4341.025641025642,4843.589743589744,3777.435897435898,4238.461538461539,4260.512820512821,4121.025641025642,4393.333333333334,4115.8974358974365,4291.282051282052,4325.128205128206,4432.307692307693,4390.256410256411,1683.0,1681.0,916.701,877.7073974609375,0.0,0.0,0.0,0.0
914998,27.0,0.0,0.0,4421.025641025642,4182.564102564103,4331.794871794872,4842.564102564103,3774.8717948717954,4239.48717948718,4261.025641025642,4118.461538461539,4388.205128205129,4108.205128205129,4284.102564102564,4321.025641025642,4427.179487179487,4383.589743589744,1682.0,1681.0,916.709,877.7073974609375,0.0,0.0,0.0,0.0
914998,28.0,0.0,0.0,4426.153846153847,4185.641025641026,4333.846153846154,4844.615384615386,3777.435897435898,4231.794871794872,4264.615384615385,4116.410256410257,4393.333333333334,4105.128205128206,4289.74358974359,4320.000000000001,4432.820512820514,4387.179487179487,1682.0,1681.0,916.717,877.7073974609375,0.0,0.0,0.0,0.0
914998,29.0,0.0,0.0,4432.820512820514,4186.666666666667,4345.641025641026,4846.153846153847,3780.512820512821,4228.717948717949,4269.74358974359,4121.538461538462,4402.564102564103,4113.333333333334,4297.948717948719,4324.615384615385,4441.538461538462,4398.461538461539,1682.0,1681.0,916.726,877.7073974609375,0.0,0.0,0.0,0.0
914998,30.0,0.0,0.0,4426.153846153847,4184.102564102564,4342.051282051282,4844.102564102564,3781.538461538462,4234.871794871796,4271.794871794872,4114.871794871796,4396.410256410257,4112.820512820514,4287.179487179487,4320.512820512821,4432.820512820514,4392.307692307693,1683.0,1682.0,916.733,877.7073974609375,0.0,0.0,0.0,0.0
914998,31.0,0.0,0.0,4424.615384615385,4183.076923076924,4331.282051282052,4842.051282051283,3782.564102564103,4236.410256410257,4270.256410256411,4109.74358974359,4387.179487179487,4106.666666666667,4281.025641025642,4317.948717948719,4423.076923076924,4382.564102564103,1682.0,1681.0,916.741,877.7073974609375,0.0,0.0,0.0,0.0
914998,32.0,0.0,0.0,4433.333333333334,4186.153846153847,4335.384615384616,4843.076923076924,3782.564102564103,4228.717948717949,4266.666666666667,4122.051282051282,4398.461538461539,4111.282051282052,4291.282051282052,4323.589743589744,4429.743589743591,4389.2307692307695,1681.0,1683.0,916.749,877.7073974609375,0.0,0.0,0.0,0.0
915125,33.0,0.0,0.0,4430.256410256411,4185.128205128206,4336.923076923077,4842.564102564103,3777.9487179487182,4225.641025641026,4260.512820512821,4116.923076923077,4402.051282051282,4113.846153846154,4289.2307692307695,4320.512820512821,4431.794871794872,4389.743589743591,1683.0,1682.0,916.757,877.83251953125,0.0,0.0,0.0,0.0
915125,34.0,0.0,0.0,4422.564102564103,4183.076923076924,4330.256410256411,4840.512820512821,3776.410256410257,4231.794871794872,4261.538461538462,4112.820512820514,4394.871794871796,4113.333333333334,4282.051282051282,4316.923076923077,4430.256410256411,4383.589743589744,1681.0,1683.0,916.764,877.83251953125,0.0,0.0,0.0,0.0
915125,35.0,0.0,0.0,4431.282051282052,4186.153846153847,4336.410256410257,4843.076923076924,3782.564102564103,4233.333333333334,4269.74358974359,4139.48717948718,4411.282051282052,4123.076923076924,4297.948717948719,4326.666666666667,4443.589743589744,4394.871794871796,1682.0,1684.0,916.773,877.83251953125,0.0,0.0,0.0,0.0
915126,36.0,0.0,0.0,4439.48717948718,4189.2307692307695,4345.641025641026,4847.6923076923085,3785.1282051282055,4235.8974358974365,4274.871794871796,4147.179487179487,4424.102564102564,4128.717948717949,4314.358974358975,4329.2307692307695,4452.820512820514,4404.102564102564,1681.0,1683.0,916.78,877.83251953125,0.0,0.0,0.0,0.0
915126,37.0,0.0,0.0,4431.282051282052,4187.179487179487,4336.410256410257,4844.102564102564,3784.615384615385,4246.153846153847,4281.538461538462,4127.6923076923085,4409.743589743591,4116.923076923077,4305.641025641026,4318.461538461539,4441.025641025642,4390.769230769231,1682.0,1683.0,916.788,877.83251953125,0.0,0.0,0.0,0.0
915126,38.0,0.0,0.0,4423.589743589744,4185.128205128206,4330.769230769231,4841.025641025642,3786.1538461538466,4248.205128205129,4283.589743589744,4125.128205128206,4399.48717948718,4112.820512820514,4290.769230769231,4315.384615384616,4429.2307692307695,4384.615384615385,1681.0,1683.0,916.796,877.83251953125,0.0,0.0,0.0,0.0
915126,39.0,0.0,0.0,4433.333333333334,4188.205128205129,4345.641025641026,4844.615384615386,3784.1025641025644,4238.974358974359,4280.000000000001,4135.8974358974365,4409.2307692307695,4124.102564102564,4294.871794871796,4321.538461538462,4437.435897435898,4401.025641025642,1681.0,1683.0,916.804,877.83251953125,0.0,0.0,0.0,0.0
915127,40.0,0.0,0.0,4444.615384615385,4189.2307692307695,4352.307692307693,4847.6923076923085,3782.564102564103,4237.435897435898,4281.538461538462,4142.051282051282,4414.871794871796,4126.666666666667,4305.641025641026,4325.128205128206,4444.102564102564,4406.666666666667,1680.0,1682.0,916.812,877.83251953125,0.0,0.0,0.0,0.0
915127,41.0,0.0,0.0,4435.8974358974365,4186.153846153847,4341.025641025642,4845.641025641026,3785.1282051282055,4243.589743589744,4278.461538461539,4132.820512820514,4407.6923076923085,4118.974358974359,4300.000000000001,4323.076923076924,4434.871794871796,4394.871794871796,1680.0,1684.0,916.819,877.83251953125,0.0,0.0,0.0,0.0
915127,42.0,0.0,0.0,4427.179487179487,4185.128205128206,4334.358974358975,4844.615384615386,3782.564102564103,4244.615384615385,4268.717948717949,4111.282051282052,4394.871794871796,4110.769230769231,4283.589743589744,4318.974358974359,4425.641025641026,4387.6923076923085,1681.0,1683.0,916.826,877.83251953125,0.0,0.0,0.0,0.0
915128,43.0,0.0,0.0,4431.282051282052,4186.153846153847,4338.461538461539,4844.102564102564,3780.0000000000005,4240.512820512821,4269.2307692307695,4111.282051282052,4390.256410256411,4109.2307692307695,4280.512820512821,4317.435897435898,4426.153846153847,4389.2307692307695,1680.0,1685.0,916.834,877.83251953125,0.0,0.0,0.0,0.0
915128,44.0,0.0,0.0,4436.410256410257,4187.6923076923085,4338.461538461539,4844.102564102564,3782.564102564103,4236.923076923077,4274.358974358975,4124.102564102564,4397.948717948719,4114.358974358975,4287.6923076923085,4322.051282051282,4428.205128205129,4391.282051282052,1681.0,1685.0,916.843,877.83251953125,0.0,0.0,0.0,0.0
915129,45.0,0.0,0.0,4433.846153846154,4187.6923076923085,4334.358974358975,4845.641025641026,3779.48717948718,4234.871794871796,4267.179487179487,4123.076923076924,4400.512820512821,4113.846153846154,4285.128205128206,4323.589743589744,4425.128205128206,4388.717948717949,1679.0,1685.0,916.85,877.83251953125,0.0,0.0,0.0,0.0
915129,46.0,0.0,0.0,4424.102564102564,4185.128205128206,4335.8974358974365,4843.589743589744,3777.435897435898,4235.8974358974365,4266.666666666667,4122.051282051282,4395.384615384616,4106.666666666667,4275.8974358974365,4317.948717948719,4421.025641025642,4384.102564102564,1681.0,1685.0,916.859,877.83251953125,0.0,0.0,0.0,0.0
915129,47.0,0.0,0.0,4417.948717948719,4182.564102564103,4335.8974358974365,4836.923076923077,3781.538461538462,4236.410256410257,4272.307692307693,4123.589743589744,4392.820512820514,4103.589743589744,4275.384615384616,4314.358974358975,4420.000000000001,4385.128205128206,1680.0,1684.0,916.866,877.83251953125,0.0,0.0,0.0,0.0
915130,48.0,0.0,0.0,4419.48717948718,4183.076923076924,4325.128205128206,4834.358974358975,3779.48717948718,4230.769230769231,4267.6923076923085,4109.2307692307695,4388.205128205129,4103.589743589744,4276.923076923077,4314.871794871796,4417.948717948719,4383.589743589744,1680.0,1685.0,916.874,877.83251953125,0.0,0.0,0.0,0.0
915245,49.0,0.0,0.0,4427.179487179487,4184.102564102564,4320.512820512821,4838.461538461539,3776.410256410257,4226.666666666667,4264.102564102564,4098.461538461539,4384.102564102564,4104.102564102564,4275.8974358974365,4315.8974358974365,4414.871794871796,4378.461538461539,1681.0,1684.0,916.882,877.9576416015625,0.0,0.0,0.0,0.0
915245,50.0,0.0,0.0,4432.820512820514,4184.102564102564,4332.820512820514,4843.589743589744,3783.076923076924,4235.384615384616,4272.820512820514,4118.461538461539,4393.333333333334,4109.2307692307695,4283.076923076924,4320.000000000001,4415.384615384616,4382.051282051282,1681.0,1685.0,916.89,877.9576416015625,0.0,0.0,0.0,0.0
915245,51.0,0.0,0.0,4430.256410256411,4184.102564102564,4343.076923076924,4847.179487179488,3787.692307692308,4244.615384615385,4279.48717948718,4138.974358974359,4404.615384615385,4114.871794871796,4291.282051282052,4324.102564102564,4418.974358974359,4391.282051282052,1680.0,1685.0,916.897,877.9576416015625,0.0,0.0,0.0,0.0
915245,52.0,0.0,0.0,4431.282051282052,4184.615384615385,4344.615384615385,4849.743589743591,3785.6410256410263,4241.538461538462,4279.48717948718,4132.820512820514,4405.641025641026,4118.461538461539,4294.871794871796,4325.128205128206,4426.153846153847,4400.512820512821,1681.0,1686.0,916.906,877.9576416015625,0.0,0.0,0.0,0.0
915246,53.0,0.0,0.0,4436.410256410257,4185.128205128206,4344.615384615385,4849.743589743591,3785.1282051282055,4237.435897435898,4278.974358974359,4123.076923076924,4403.589743589744,4120.512820512821,4296.923076923077,4322.051282051282,4430.256410256411,4402.051282051282,1682.0,1684.0,916.912,877.9576416015625,0.0,0.0,0.0,0.0
915246,54.0,0.0,0.0,4434.871794871796,4185.641025641026,4342.051282051282,4846.666666666667,3785.1282051282055,4241.025641025642,4277.435897435898,4126.666666666667,4404.615384615385,4117.948717948719,4294.358974358975,4321.538461538462,4426.153846153847,4396.923076923077,1680.0,1685.0,916.921,877.9576416015625,0.0,0.0,0.0,0.0
915246,55.0,0.0,0.0,4433.333333333334,4186.153846153847,4346.153846153847,4845.128205128206,3786.1538461538466,4241.538461538462,4281.538461538462,4137.435897435898,4410.256410256411,4116.923076923077,4294.871794871796,4326.153846153847,4429.2307692307695,4403.076923076924,1681.0,1685.0,916.928,877.9576416015625,0.0,0.0,0.0,0.0
915246,56.0,0.0,0.0,4438.461538461539,4185.641025641026,4353.333333333334,4845.128205128206,3786.1538461538466,4238.461538461539,4285.641025641026,4141.538461538462,4412.820512820514,4120.512820512821,4297.435897435898,4327.179487179487,4435.384615384616,4410.769230769231,1681.0,1684.0,916.936,877.9576416015625,0.0,0.0,0.0,0.0
915247,57.0,0.0,0.0,4443.076923076924,4187.179487179487,4351.794871794872,4847.179487179488,3783.076923076924,4239.48717948718,4277.435897435898,4123.589743589744,4400.512820512821,4121.538461538462,4294.358974358975,4323.589743589744,4431.282051282052,4407.179487179487,1681.0,1684.0,916.944,877.9576416015625,0.0,0.0,0.0,0.0
915247,58.0,0.0,0.0,4443.076923076924,4189.2307692307695,4349.2307692307695,4851.794871794872,3785.1282051282055,4242.051282051282,4268.717948717949,4099.48717948718,4386.666666666667,4116.923076923077,4292.307692307693,4323.589743589744,4429.743589743591,4408.717948717949,1681.0,1683.0,916.951,877.9576416015625,0.0,0.0,0.0,0.0
915247,59.0,0.0,0.0,4437.435897435898,4186.666666666667,4345.128205128206,4846.666666666667,3787.1794871794878,4244.102564102564,4271.794871794872,4102.051282051282,4387.179487179487,4110.256410256411,4292.820512820514,4322.564102564103,4431.282051282052,4408.717948717949,1680.0,1684.0,916.959,877.9576416015625,0.0,0.0,0.0,0.0
915247,60.0,0.0,0.0,4429.2307692307695,4182.051282051282,4335.8974358974365,4840.512820512821,3784.615384615385,4246.666666666667,4276.410256410257,4115.8974358974365,4392.820512820514,4107.6923076923085,4287.6923076923085,4317.435897435898,4426.666666666667,4396.923076923077,1681.0,1683.0,916.967,877.9576416015625,0.0,0.0,0.0,0.0
915247,61.0,0.0,0.0,4431.282051282052,4185.128205128206,4337.435897435898,4848.717948717949,3784.1025641025644,4240.512820512821,4276.410256410257,4126.153846153847,4402.564102564103,4115.384615384616,4292.307692307693,4321.025641025642,4430.769230769231,4397.435897435898,1681.0,1684.0,916.975,877.9576416015625,0.0,0.0,0.0,0.0
915248,62.0,0.0,0.0,4439.48717948718,4188.205128205129,4349.2307692307695,4856.410256410257,3784.1025641025644,4228.717948717949,4277.948717948719,4137.948717948719,4412.820512820514,4123.589743589744,4306.153846153847,4326.666666666667,4443.076923076924,4410.769230769231,1681.0,1684.0,916.983,877.9576416015625,0.0,0.0,0.0,0.0
915248,63.0,0.0,0.0,4435.8974358974365,4184.615384615385,4349.2307692307695,4848.205128205129,3782.0512820512827,4233.333333333334,4274.358974358975,4125.128205128206,4404.102564102564,4118.461538461539,4302.051282051282,4319.48717948718,4438.974358974359,4405.641025641026,1680.0,1685.0,916.991,877.9576416015625,0.0,0.0,0.0,0.0
915248,64.0,0.0,474.0,4425.641025641026,4181.538461538462,4336.923076923077,4841.025641025642,3783.589743589744,4243.076923076924,4271.794871794872,4105.128205128206,4390.769230769231,4111.794871794872,4289.74358974359,4312.307692307693,4424.102564102564,4392.820512820514,1680.0,1685.0,916.998,877.9576416015625,0.0,0.0,0.0,0.0
915375,65.0,0.0,279.0,4426.666666666667,4183.589743589744,4332.820512820514,4843.076923076924,3785.1282051282055,4244.615384615385,4274.358974358975,4118.461538461539,4395.384615384616,4114.358974358975,4288.717948717949,4318.461538461539,4424.102564102564,4394.871794871796,1681.0,1685.0,917.007,878.0827026367188,0.0,0.0,0.0,0.0
915375,66.0,0.0,447.0,4437.435897435898,4186.666666666667,4338.974358974359,4846.666666666667,3785.6410256410263,4245.641025641026,4274.871794871796,4128.717948717949,4401.538461538462,4117.948717948719,4289.2307692307695,4323.076923076924,4432.307692307693,4401.025641025642,1680.0,1684.0,917.014,878.0827026367188,0.0,0.0,0.0,0.0
915375,67.0,0.0,349.0,4442.051282051282,4188.717948717949,4346.153846153847,4848.717948717949,3788.717948717949,4246.153846153847,4278.974358974359,4127.6923076923085,4405.128205128206,4121.025641025642,4292.820512820514,4324.615384615385,4437.435897435898,4404.102564102564,1681.0,1685.0,917.023,878.0827026367188,0.0,0.0,0.0,0.0
915375,68.0,0.0,456.0,4439.48717948718,4189.2307692307695,4348.717948717949,4849.743589743591,3789.2307692307695,4239.48717948718,4287.6923076923085,4138.461538461539,4415.8974358974365,4124.615384615385,4304.102564102564,4327.179487179487,4439.48717948718,4407.179487179487,1681.0,1684.0,917.03,878.0827026367188,0.0,0.0,0.0,0.0
915376,69.0,0.0,547.0,4438.461538461539,4186.666666666667,4345.641025641026,4845.641025641026,3785.1282051282055,4236.410256410257,4285.128205128206,4137.435897435898,4412.307692307693,4123.076923076924,4303.589743589744,4326.153846153847,4440.000000000001,4409.743589743591,1681.0,1685.0,917.039,878.0827026367188,0.0,0.0,0.0,0.0
915376,70.0,0.0,531.0,4435.384615384616,4185.641025641026,4338.461538461539,4845.128205128206,3784.1025641025644,4243.589743589744,4274.871794871796,4122.564102564103,4400.000000000001,4118.974358974359,4292.820512820514,4321.538461538462,4436.923076923077,4404.615384615385,1681.0,1683.0,917.045,878.0827026367188,0.0,0.0,0.0,0.0
915376,71.0,0.0,476.0,4427.179487179487,4185.128205128206,4330.769230769231,4845.641025641026,3785.6410256410263,4246.153846153847,4271.282051282052,4122.564102564103,4396.923076923077,4111.282051282052,4282.051282051282,4315.8974358974365,4420.000000000001,4388.717948717949,1681.0,1685.0,917.053,878.0827026367188,0.0,0.0,0.0,0.0
915376,72.0,0.0,419.0,4416.923076923077,4178.461538461539,4324.615384615385,4837.948717948719,3784.615384615385,4244.102564102564,4270.769230769231,4116.923076923077,4385.128205128206,4100.000000000001,4263.589743589744,4309.2307692307695,4394.871794871796,4370.769230769231,1682.0,1684.0,917.062,878.0827026367188,0.0,0.0,0.0,0.0
915376,73.0,0.0,468.0,4416.410256410257,4171.282051282052,4321.025641025642,4828.717948717949,3781.538461538462,4246.153846153847,4267.6923076923085,4095.8974358974365,4367.179487179487,4094.8717948717954,4251.794871794872,4307.179487179487,4385.128205128206,4366.153846153847,1680.0,1685.0,917.069,878.0827026367188,0.0,0.0,0.0,0.0
915376,74.0,0.0,485.0,4432.307692307693,4175.8974358974365,4329.2307692307695,4833.333333333334,3780.512820512821,4236.923076923077,4266.153846153847,4100.512820512821,4377.948717948719,4102.564102564103,4270.769230769231,4315.8974358974365,4404.102564102564,4384.102564102564,1682.0,1684.0,917.077,878.0827026367188,0.0,0.0,0.0,0.0
915377,75.0,0.0,438.0,4445.128205128206,4185.641025641026,4344.102564102564,4843.076923076924,3780.0000000000005,4226.153846153847,4268.205128205129,4120.512820512821,4397.435897435898,4115.384615384616,4293.333333333334,4327.6923076923085,4429.2307692307695,4407.6923076923085,1681.0,1683.0,917.084,878.0827026367188,0.0,0.0,0.0,0.0
915377,76.0,0.0,446.0,4444.102564102564,4189.2307692307695,4348.717948717949,4845.128205128206,3778.9743589743593,4229.2307692307695,4269.2307692307695,4114.358974358975,4391.794871794872,4120.512820512821,4294.358974358975,4327.179487179487,4434.358974358975,4409.743589743591,1681.0,1684.0,917.092,878.0827026367188,0.0,0.0,0.0,0.0
915377,77.0,0.0,235.0,4441.538461538462,4186.666666666667,4342.051282051282,4843.076923076924,3781.538461538462,4233.333333333334,4271.794871794872,4111.282051282052,4388.717948717949,4115.8974358974365,4289.74358974359,4321.025641025642,4426.666666666667,4403.076923076924,1682.0,1683.0,917.1,878.0827026367188,0.0,0.0,0.0,0.0
915378,78.0,0.0,485.0,4438.974358974359,4183.589743589744,4337.948717948719,4843.076923076924,3786.1538461538466,4233.333333333334,4277.435897435898,4121.538461538462,4394.871794871796,4110.256410256411,4286.666666666667,4322.564102564103,4422.564102564103,4401.025641025642,1681.0,1683.0,917.108,878.0827026367188,0.0,0.0,0.0,0.0
915379,79.0,0.0,438.0,4440.000000000001,4185.128205128206,4343.076923076924,4850.769230769231,3786.666666666667,4235.8974358974365,4276.410256410257,4116.923076923077,4397.948717948719,4115.384615384616,4287.179487179487,4328.205128205129,4430.256410256411,4404.102564102564,1682.0,1683.0,917.116,878.0827026367188,0.0,0.0,0.0,0.0
915379,80.0,0.0,446.0,4446.666666666667,4190.769230769231,4348.205128205129,4854.871794871796,3784.615384615385,4240.512820512821,4275.8974358974365,4116.410256410257,4406.666666666667,4124.102564102564,4296.410256410257,4327.179487179487,4441.025641025642,4408.717948717949,1682.0,1684.0,917.124,878.0827026367188,0.0,0.0,0.0,0.0
915496,81.0,0.0,235.0,4438.461538461539,4187.6923076923085,4344.102564102564,4848.717948717949,3786.666666666667,4242.051282051282,4279.48717948718,4126.666666666667,4407.6923076923085,4121.025641025642,4294.871794871796,4319.48717948718,4434.358974358975,4404.615384615385,1682.0,1683.0,917.131,878.2078247070312,0.0,0.0,0.0,0.0
915496,82.0,0.0,485.0,4430.769230769231,4183.076923076924,4338.974358974359,4846.666666666667,3790.7692307692314,4246.666666666667,4276.410256410257,4114.871794871796,4394.358974358975,4116.410256410257,4283.589743589744,4319.48717948718,4422.564102564103,4400.000000000001,1681.0,1684.0,917.14,878.2078247070312,0.0,0.0,0.0,0.0
915497,83.0,0.0,438.0,4446.153846153847,4189.74358974359,4341.538461538462,4850.256410256411,3790.7692307692314,4250.256410256411,4276.923076923077,4114.871794871796,4401.025641025642,4122.564102564103,4289.74358974359,4326.666666666667,4431.794871794872,4409.743589743591,1682.0,1683.0,917.147,878.2078247070312,0.0,0.0,0.0,0.0
915497,84.0,0.0,446.0,4455.384615384616,4194.358974358975,4347.6923076923085,4855.8974358974365,3791.2820512820517,4242.564102564103,4285.128205128206,4144.102564102564,4425.128205128206,4128.205128205129,4303.076923076924,4328.205128205129,4445.128205128206,4420.512820512821,1681.0,1683.0,917.156,878.2078247070312,0.0,0.0,0.0,0.0
915498,85.0,0.0,235.0,4444.615384615385,4189.74358974359,4350.256410256411,4855.8974358974365,3793.8461538461543,4238.974358974359,4285.641025641026,4145.641025641026,4421.025641025642,4125.641025641026,4298.461538461539,4326.666666666667,4440.512820512821,4418.461538461539,1683.0,1684.0,917.163,878.2078247070312,0.0,0.0,0.0,0.0
915498,86.0,0.0,485.0,4438.461538461539,4186.666666666667,4346.666666666667,4850.256410256411,3792.307692307693,4245.641025641026,4280.000000000001,4125.641025641026,4405.128205128206,4124.102564102564,4286.666666666667,4325.128205128206,4431.282051282052,4411.282051282052,1681.0,1683.0,917.17,878.2078247070312,0.0,0.0,0.0,0.0
915498,87.0,0.0,438.0,4440.000000000001,4186.666666666667,4339.48717948718,4848.717948717949,3788.205128205129,4247.179487179487,4277.435897435898,4119.48717948718,4404.102564102564,4119.48717948718,4281.025641025642,4320.000000000001,4429.2307692307695,4403.076923076924,1681.0,1684.0,917.178,878.2078247070312,0.0,0.0,0.0,0.0
915498,88.0,0.0,446.0,4442.564102564103,4186.666666666667,4343.076923076924,4852.307692307693,3787.1794871794878,4240.000000000001,4276.923076923077,4111.282051282052,4399.48717948718,4113.333333333334,4280.000000000001,4318.974358974359,4435.384615384616,4405.641025641026,1682.0,1684.0,917.186,878.2078247070312,0.0,0.0,0.0,0.0
915499,89.0,0.0,235.0,4449.743589743591,4187.6923076923085,4352.820512820514,4855.384615384616,3787.1794871794878,4238.461538461539,4278.461538461539,4105.128205128206,4387.6923076923085,4116.410256410257,4277.435897435898,4324.102564102564,4437.435897435898,4416.923076923077,1681.0,1685.0,917.194,878.2078247070312,0.0,0.0,0.0,0.0
915499,90.0,0.0,485.0,4449.2307692307695,4186.666666666667,4352.307692307693,4852.820512820514,3785.1282051282055,4242.051282051282,4277.948717948719,4113.846153846154,4387.6923076923085,4117.948717948719,4271.794871794872,4322.051282051282,4425.641025641026,4412.820512820514,1682.0,1686.0,917.203,878.2078247070312,0.0,0.0,0.0,0.0
915499,91.0,0.0,438.0,4438.974358974359,4182.051282051282,4343.076923076924,4849.743589743591,3781.0256410256416,4240.000000000001,4269.74358974359,4109.2307692307695,4389.743589743591,4108.717948717949,4267.6923076923085,4315.384615384616,4414.871794871796,4400.512820512821,1681.0,1686.0,917.21,878.2078247070312,0.0,0.0,0.0,0.0
915499,92.0,0.0,446.0,4436.923076923077,4182.564102564103,4338.461538461539,4844.102564102564,3779.48717948718,4231.794871794872,4265.641025641026,4093.8461538461543,4382.051282051282,4102.051282051282,4268.205128205129,4316.923076923077,4415.384615384616,4395.384615384616,1682.0,1687.0,917.217,878.2078247070312,0.0,0.0,0.0,0.0
915499,93.0,0.0,235.0,4441.538461538462,4184.615384615385,4341.538461538462,4843.589743589744,3778.9743589743593,4225.641025641026,4272.307692307693,4116.923076923077,4391.794871794872,4109.2307692307695,4273.846153846154,4322.564102564103,4421.538461538462,4400.000000000001,1681.0,1687.0,917.225,878.2078247070312,0.0,0.0,0.0,0.0
915499,94.0,0.0,485.0,4440.000000000001,4186.153846153847,4343.589743589744,4850.769230769231,3780.512820512821,4223.076923076924,4278.461538461539,4151.794871794872,4412.307692307693,4120.000000000001,4280.512820512821,4323.076923076924,4429.743589743591,4409.2307692307695,1682.0,1686.0,917.233,878.2078247070312,0.0,0.0,0.0,0.0
915500,95.0,0.0,438.0,4435.384615384616,4185.128205128206,4337.948717948719,4852.820512820514,3782.0512820512827,4228.717948717949,4275.8974358974365,4132.307692307693,4407.6923076923085,4117.435897435898,4280.512820512821,4323.589743589744,4431.794871794872,4410.256410256411,1681.0,1685.0,917.241,878.2078247070312,0.0,0.0,0.0,0.0
915500,96.0,0.0,446.0,4428.205128205129,4183.589743589744,4332.820512820514,4847.179487179488,3784.615384615385,4239.48717948718,4272.820512820514,4102.564102564103,4394.358974358975,4107.179487179487,4273.333333333334,4321.538461538462,4422.051282051282,4398.461538461539,1682.0,1685.0,917.249,878.2078247070312,0.0,0.0,0.0,0.0
915625,97.0,0.0,235.0,4423.589743589744,4184.102564102564,4332.820512820514,4841.538461538462,3786.666666666667,4241.025641025642,4276.410256410257,4111.282051282052,4396.923076923077,4105.641025641026,4266.666666666667,4315.8974358974365,4415.384615384616,4388.205128205129,1681.0,1684.0,917.257,878.3329467773438,0.0,0.0,0.0,0.0
915625,98.0,0.0,485.0,4426.666666666667,4185.641025641026,4331.794871794872,4845.641025641026,3785.1282051282055,4237.948717948719,4274.871794871796,4115.8974358974365,4396.923076923077,4110.769230769231,4268.205128205129,4316.410256410257,4418.461538461539,4388.717948717949,1681.0,1684.0,917.264,878.3329467773438,0.0,0.0,0.0,0.0
915626,99.0,0.0,438.0,4425.641025641026,4183.589743589744,4329.743589743591,4847.179487179488,3780.0000000000005,4237.948717948719,4266.153846153847,4095.8974358974365,4383.589743589744,4106.666666666667,4267.179487179487,4316.923076923077,4413.846153846154,4384.102564102564,1682.0,1682.0,917.273,878.3329467773438,0.0,0.0,0.0,0.0
915626,100.0,0.0,446.0,4424.102564102564,4181.538461538462,4331.794871794872,4842.564102564103,3777.9487179487182,4236.410256410257,4265.641025641026,4088.717948717949,4376.923076923077,4102.564102564103,4260.000000000001,4315.384615384616,4408.205128205129,4379.48717948718,1680.0,1683.0,917.28,878.3329467773438,0.0,0.0,0.0,0.0
915626,101.0,0.0,235.0,4435.8974358974365,4184.615384615385,4338.974358974359,4846.153846153847,3783.589743589744,4231.282051282052,4274.871794871796,4110.769230769231,4392.307692307693,4108.717948717949,4266.153846153847,4320.512820512821,4420.000000000001,4388.205128205129,1681.0,1683.0,917.289,878.3329467773438,0.0,0.0,0.0,0.0
915627,102.0,0.0,485.0,4439.48717948718,4185.128205128206,4337.948717948719,4848.205128205129,3786.1538461538466,4227.179487179487,4272.820512820514,4127.6923076923085,4403.076923076924,4111.794871794872,4277.948717948719,4322.564102564103,4429.743589743591,4389.743589743591,1680.0,1684.0,917.296,878.3329467773438,0.0,0.0,0.0,0.0
915628,103.0,0.0,438.0,4421.538461538462,4181.025641025642,4323.076923076924,4843.076923076924,3781.0256410256416,4227.6923076923085,4263.589743589744,4117.948717948719,4396.410256410257,4104.615384615385,4268.717948717949,4313.333333333334,4417.435897435898,4375.8974358974365,1681.0,1683.0,917.304,878.3329467773438,0.0,0.0,0.0,0.0
915628,104.0,0.0,446.0,4414.358974358975,4180.000000000001,4316.923076923077,4840.512820512821,3779.48717948718,4227.6923076923085,4264.615384615385,4104.102564102564,4393.846153846154,4101.538461538462,4258.461538461539,4311.282051282052,4409.2307692307695,4371.282051282052,1681.0,1683.0,917.311,878.3329467773438,0.0,0.0,0.0,0.0
915629,105.0,0.0,235.0,4429.743589743591,4182.051282051282,4328.205128205129,4845.128205128206,3785.1282051282055,4228.717948717949,4270.256410256411,4110.769230769231,4399.48717948718,4108.205128205129,4269.74358974359,4321.025641025642,4417.435897435898,4382.051282051282,1681.0,1683.0,917.319,878.3329467773438,0.0,0.0,0.0,0.0
915629,106.0,0.0,485.0,4438.461538461539,4183.076923076924,4336.410256410257,4845.641025641026,3785.6410256410263,4232.820512820514,4266.153846153847,4116.410256410257,4393.846153846154,4108.717948717949,4277.948717948719,4323.076923076924,4419.48717948718,4384.615384615385,1680.0,1683.0,917.328,878.3329467773438,0.0,0.0,0.0,0.0
915629,107.0,0.0,438.0,4434.358974358975,4183.589743589744,4339.48717948718,4846.666666666667,3780.0000000000005,4232.307692307693,4261.538461538462,4104.615384615385,4384.615384615385,4106.666666666667,4274.358974358975,4321.025641025642,4420.000000000001,4384.102564102564,1682.0,1684.0,917.335,878.3329467773438,0.0,0.0,0.0,0.0
915629,108.0,0.0,446.0,4438.974358974359,4185.128205128206,4346.153846153847,4851.794871794872,3780.512820512821,4224.615384615385,4265.641025641026,4103.589743589744,4394.871794871796,4116.923076923077,4283.589743589744,4325.641025641026,4432.820512820514,4395.384615384616,1680.0,1683.0,917.342,878.3329467773438,0.0,0.0,0.0,0.0
915629,109.0,0.0,235.0,4451.794871794872,4186.153846153847,4351.282051282052,4853.333333333334,3786.666666666667,4224.102564102564,4271.282051282052,4121.538461538462,4413.333333333334,4127.6923076923085,4298.974358974359,4327.6923076923085,4445.128205128206,4403.076923076924,1681.0,1685.0,917.35,878.3329467773438,0.0,0.0,0.0,0.0
915630,110.0,0.0,485.0,4450.256410256411,4186.666666666667,4351.794871794872,4855.384615384616,3787.692307692308,4235.384615384616,4272.820512820514,4127.6923076923085,4418.974358974359,4124.102564102564,4300.512820512821,4324.102564102564,4443.589743589744,4401.025641025642,1681.0,1683.0,917.358,878.3329467773438,0.0,0.0,0.0,0.0
915630,111.0,0.0,438.0,4440.512820512821,4186.153846153847,4348.205128205129,4854.358974358975,3784.615384615385,4242.051282051282,4272.307692307693,4118.461538461539,4411.794871794872,4117.435897435898,4292.820512820514,4320.000000000001,4435.384615384616,4398.461538461539,1680.0,1685.0,917.366,878.3329467773438,0.0,0.0,0.0,0.0
915630,112.0,0.0,446.0,4438.974358974359,4184.615384615385,4342.564102564103,4850.769230769231,3785.1282051282055,4238.461538461539,4271.282051282052,4120.512820512821,4407.179487179487,4119.48717948718,4286.153846153847,4318.974358974359,4429.2307692307695,4395.8974358974365,1682.0,1684.0,917.374,878.3329467773438,0.0,0.0,0.0,0.0
915747,113.0,0.0,235.0,4440.000000000001,4185.128205128206,4341.025641025642,4850.769230769231,3785.6410256410263,4232.307692307693,4269.74358974359,4124.102564102564,4406.153846153847,4118.974358974359,4286.666666666667,4324.102564102564,4427.179487179487,4392.820512820514,1681.0,1684.0,917.382,878.4580688476562,0.0,0.0,0.0,0.0
915747,114.0,0.0,485.0,4437.948717948719,4185.641025641026,4340.512820512821,4849.743589743591,3783.589743589744,4228.205128205129,4269.2307692307695,4109.2307692307695,4397.948717948719,4112.307692307693,4289.2307692307695,4324.102564102564,4427.6923076923085,4390.769230769231,1682.0,1684.0,917.389,878.4580688476562,0.0,0.0,0.0,0.0
915747,115.0,0.0,438.0,4441.538461538462,4183.589743589744,4338.974358974359,4848.205128205129,3784.615384615385,4224.102564102564,4269.2307692307695,4106.666666666667,4397.435897435898,4114.871794871796,4289.2307692307695,4319.48717948718,4429.743589743591,4391.282051282052,1681.0,1684.0,917.397,878.4580688476562,0.0,0.0,0.0,0.0
915747,116.0,0.0,446.0,4449.743589743591,4183.076923076924,4342.051282051282,4849.2307692307695,3784.1025641025644,4219.48717948718,4269.74358974359,4121.025641025642,4407.179487179487,4122.051282051282,4290.256410256411,4320.000000000001,4434.871794871796,4391.794871794872,1681.0,1685.0,917.406,878.4580688476562,0.0,0.0,0.0,0.0
915747,117.0,0.0,235.0,4449.2307692307695,4185.641025641026,4344.102564102564,4847.6923076923085,3778.9743589743593,4220.000000000001,4265.641025641026,4115.8974358974365,4406.666666666667,4116.410256410257,4290.769230769231,4320.512820512821,4435.8974358974365,4388.205128205129,1681.0,1684.0,917.413,878.4580688476562,0.0,0.0,0.0,0.0
915749,118.0,0.0,485.0,4440.000000000001,4184.102564102564,4340.000000000001,4843.076923076924,3778.9743589743593,4227.179487179487,4258.974358974359,4104.102564102564,4397.948717948719,4105.128205128206,4287.6923076923085,4315.8974358974365,4429.2307692307695,4378.974358974359,1682.0,1684.0,917.421,878.4580688476562,0.0,0.0,0.0,0.0
915749,119.0,0.0,438.0,4432.820512820514,4182.051282051282,4337.435897435898,4843.589743589744,3781.538461538462,4233.846153846154,4260.512820512821,4105.641025641026,4397.435897435898,4107.6923076923085,4285.128205128206,4316.410256410257,4423.589743589744,4374.358974358975,1681.0,1686.0,917.429,878.4580688476562,0.0,0.0,0.0,0.0
915749,120.0,0.0,446.0,4440.000000000001,4184.102564102564,4341.538461538462,4849.2307692307695,3782.0512820512827,4231.794871794872,4265.641025641026,4110.256410256411,4402.564102564103,4117.435897435898,4289.74358974359,4322.564102564103,4429.2307692307695,4375.384615384616,1682.0,1685.0,917.436,878.4580688476562,0.0,0.0,0.0,0.0
915749,121.0,0.0,235.0,4449.2307692307695,4186.666666666667,4345.128205128206,4850.769230769231,3781.538461538462,4222.564102564103,4266.666666666667,4117.435897435898,4408.205128205129,4120.512820512821,4294.358974358975,4323.589743589744,4440.512820512821,4376.410256410257,1682.0,1685.0,917.444,878.4580688476562,0.0,0.0,0.0,0.0
915749,122.0,0.0,485.0,4447.179487179487,4186.666666666667,4345.128205128206,4847.6923076923085,3780.512820512821,4214.871794871796,4265.641025641026,4126.153846153847,4411.282051282052,4117.948717948719,4291.794871794872,4320.512820512821,4437.435897435898,4375.8974358974365,1682.0,1685.0,917.452,878.4580688476562,0.0,0.0,0.0,0.0
915749,123.0,0.0,438.0,4444.102564102564,4185.128205128206,4345.128205128206,4846.153846153847,3781.0256410256416,4216.923076923077,4265.641025641026,4122.564102564103,4406.153846153847,4113.846153846154,4287.6923076923085,4322.564102564103,4428.717948717949,4377.948717948719,1681.0,1685.0,917.46,878.4580688476562,0.0,0.0,0.0,0.0
915749,124.0,0.0,446.0,4445.641025641026,4183.076923076924,4345.128205128206,4848.717948717949,3780.512820512821,4224.102564102564,4267.179487179487,4109.2307692307695,4398.461538461539,4110.769230769231,4287.179487179487,4324.615384615385,4432.820512820514,4380.000000000001,1682.0,1685.0,917.468,878.4580688476562,0.0,0.0,0.0,0.0
915749,125.0,0.0,235.0,4438.974358974359,4182.564102564103,4340.512820512821,4846.666666666667,3780.0000000000005,4227.6923076923085,4266.153846153847,4103.076923076924,4396.923076923077,4108.205128205129,4283.076923076924,4319.48717948718,4430.769230769231,4372.307692307693,1681.0,1685.0,917.476,878.4580688476562,0.0,0.0,0.0,0.0
915749,126.0,0.0,485.0,4433.333333333334,4182.051282051282,4335.8974358974365,4839.48717948718,3780.512820512821,4229.2307692307695,4264.102564102564,4109.74358974359,4399.48717948718,4106.153846153847,4276.410256410257,4316.923076923077,4421.538461538462,4364.102564102564,1681.0,1685.0,917.483,878.4580688476562,0.0,0.0,0.0,0.0
915749,127.0,0.0,438.0,4442.564102564103,4182.051282051282,4339.48717948718,4843.076923076924,3784.1025641025644,4232.307692307693,4261.538461538462,4112.820512820514,4400.000000000001,4109.2307692307695,4278.461538461539,4322.051282051282,4425.641025641026,4367.179487179487,1680.0,1685.0,917.491,878.4580688476562,0.0,0.0,0.0,0.0
915749,128.0,0.0,446.0,4450.769230769231,4183.076923076924,4343.589743589744,4851.794871794872,3784.1025641025644,4236.410256410257,4262.564102564103,4110.256410256411,4397.948717948719,4113.846153846154,4282.564102564103,4325.128205128206,4431.794871794872,4372.307692307693,1681.0,1686.0,917.499,878.4580688476562,0.0,0.0,0.0,0.0
915875,0.0,0.0,474.0,4450.256410256411,4185.128205128206,4345.128205128206,4850.769230769231,3784.615384615385,4234.871794871796,4265.641025641026,4114.358974358975,4400.000000000001,4112.820512820514,4284.102564102564,4324.102564102564,4429.2307692307695,4370.256410256411,1681.0,1683.0,917.508,878.5831909179688,0.0,0.0,0.0,0.0
915875,1.0,0.0,279.0,4446.666666666667,4187.179487179487,4344.615384615385,4851.282051282052,3785.1282051282055,4228.205128205129,4264.102564102564,4110.769230769231,4400.512820512821,4108.717948717949,4283.589743589744,4321.538461538462,4429.743589743591,4370.769230769231,1680.0,1685.0,917.515,878.5831909179688,0.0,0.0,0.0,0.0
915875,2.0,0.0,447.0,4445.641025641026,4186.153846153847,4339.48717948718,4853.846153846154,3783.076923076924,4228.717948717949,4263.076923076924,4107.6923076923085,4398.974358974359,4107.6923076923085,4281.025641025642,4321.025641025642,4432.820512820514,4377.435897435898,1681.0,1684.0,917.523,878.5831909179688,0.0,0.0,0.0,0.0
915876,3.0,0.0,349.0,4450.256410256411,4185.128205128206,4337.435897435898,4849.743589743591,3783.589743589744,4232.307692307693,4265.641025641026,4117.948717948719,4401.538461538462,4113.333333333334,4282.564102564103,4322.564102564103,4433.846153846154,4381.538461538462,1680.0,1683.0,917.53,878.5831909179688,0.0,0.0,0.0,0.0
915876,4.0,0.0,456.0,4455.8974358974365,4186.153846153847,4342.051282051282,4850.256410256411,3784.615384615385,4227.179487179487,4264.615384615385,4114.358974358975,4398.461538461539,4115.384615384616,4282.564102564103,4322.051282051282,4433.333333333334,4384.615384615385,1680.0,1684.0,917.539,878.5831909179688,0.0,0.0,0.0,0.0
915876,5.0,0.0,547.0,4448.205128205129,4184.615384615385,4341.538461538462,4851.282051282052,3784.1025641025644,4228.717948717949,4257.948717948719,4092.820512820513,4385.641025641026,4108.717948717949,4269.74358974359,4317.948717948719,4421.025641025642,4381.025641025642,1680.0,1684.0,917.546,878.5831909179688,0.0,0.0,0.0,0.0
915876,6.0,0.0,531.0,4437.948717948719,4182.564102564103,4337.435897435898,4846.153846153847,3784.615384615385,4237.948717948719,4260.512820512821,4090.2564102564106,4381.538461538462,4105.128205128206,4264.102564102564,4316.923076923077,4413.333333333334,4375.8974358974365,1681.0,1684.0,917.555,878.5831909179688,0.0,0.0,0.0,0.0
915876,7.0,0.0,476.0,4447.6923076923085,4186.666666666667,4343.589743589744,4850.769230769231,3785.1282051282055,4232.820512820514,4271.282051282052,4110.769230769231,4398.461538461539,4115.384615384616,4282.051282051282,4323.076923076924,4431.282051282052,4388.205128205129,1680.0,1684.0,917.562,878.5831909179688,0.0,0.0,0.0,0.0
915876,8.0,0.0,419.0,4463.589743589744,4190.256410256411,4352.820512820514,4862.564102564103,3784.1025641025644,4224.102564102564,4270.769230769231,4122.051282051282,4413.846153846154,4127.179487179487,4298.461538461539,4328.717948717949,4449.2307692307695,4406.153846153847,1681.0,1684.0,917.569,878.5831909179688,0.0,0.0,0.0,0.0
915877,9.0,0.0,468.0,4469.2307692307695,4194.358974358975,4360.512820512821,4867.179487179488,3789.2307692307695,4231.794871794872,4271.282051282052,4129.2307692307695,4417.948717948719,4132.307692307693,4302.564102564103,4329.2307692307695,4452.820512820514,4410.256410256411,1681.0,1684.0,917.577,878.5831909179688,0.0,0.0,0.0,0.0
915877,10.0,0.0,485.0,4471.794871794872,4200.512820512821,4367.6923076923085,4869.743589743591,3795.3846153846157,4244.615384615385,4280.512820512821,4137.948717948719,4423.076923076924,4132.820512820514,4306.666666666667,4329.2307692307695,4456.923076923077,4411.794871794872,1681.0,1685.0,917.585,878.5831909179688,0.0,0.0,0.0,0.0
915878,11.0,0.0,438.0,4470.769230769231,4195.8974358974365,4365.128205128206,4870.256410256411,3795.3846153846157,4246.666666666667,4282.564102564103,4128.205128205129,4420.512820512821,4127.6923076923085,4303.076923076924,4327.179487179487,4452.307692307693,4413.846153846154,1682.0,1684.0,917.593,878.5831909179688,0.0,0.0,0.0,0.0
915878,12.0,0.0,446.0,4457.948717948719,4186.153846153847,4353.846153846154,4862.051282051283,3792.820512820513,4242.564102564103,4275.384615384616,4111.282051282052,4404.615384615385,4121.538461538462,4292.307692307693,4320.000000000001,4438.974358974359,4404.615384615385,1681.0,1685.0,917.601,878.5831909179688,0.0,0.0,0.0,0.0
915879,13.0,0.0,235.0,4449.743589743591,4185.128205128206,4346.153846153847,4856.923076923077,3789.2307692307695,4244.102564102564,4272.820512820514,4114.358974358975,4401.025641025642,4120.512820512821,4288.717948717949,4314.871794871796,4433.333333333334,4394.358974358975,1683.0,1684.0,917.608,878.5831909179688,0.0,0.0,0.0,0.0
915879,14.0,0.0,485.0,4451.282051282052,4188.205128205129,4346.666666666667,4858.461538461539,3786.1538461538466,4248.717948717949,4275.8974358974365,4125.641025641026,4413.333333333334,4122.051282051282,4290.256410256411,4316.410256410257,4433.333333333334,4395.8974358974365,1681.0,1684.0,917.616,878.5831909179688,0.0,0.0,0.0,0.0
915879,15.0,0.0,438.0,4449.2307692307695,4186.153846153847,4347.6923076923085,4855.8974358974365,3787.1794871794878,4244.615384615385,4271.282051282052,4117.435897435898,4407.6923076923085,4120.000000000001,4285.128205128206,4316.923076923077,4432.307692307693,4395.8974358974365,1682.0,1685.0,917.624,878.5831909179688,0.0,0.0,0.0,0.0
915992,16.0,0.0,0.0,4445.128205128206,4183.076923076924,4343.589743589744,4855.384615384616,3788.717948717949,4238.461538461539,4265.641025641026,4107.179487179487,4395.384615384616,4115.8974358974365,4277.948717948719,4315.384615384616,4428.717948717949,4390.256410256411,1681.0,1683.0,917.632,878.708251953125,0.0,0.0,0.0,0.0
915992,17.0,0.0,0.0,4448.205128205129,4185.128205128206,4345.641025641026,4862.051282051283,3787.1794871794878,4242.564102564103,4267.6923076923085,4110.256410256411,4404.615384615385,4117.948717948719,4283.589743589744,4320.000000000001,4429.743589743591,4394.871794871796,1681.0,1684.0,917.641,878.708251953125,0.0,0.0,0.0,0.0
915992,18.0,0.0,0.0,4456.410256410257,4188.205128205129,4354.871794871796,4867.179487179488,3786.666666666667,4244.102564102564,4274.358974358975,4125.641025641026,4420.000000000001,4125.128205128206,4297.435897435898,4326.666666666667,4443.589743589744,4410.769230769231,1681.0,1684.0,917.647,878.708251953125,0.0,0.0,0.0,0.0
915992,19.0,0.0,0.0,4456.410256410257,4188.205128205129,4353.846153846154,4863.589743589744,3790.2564102564106,4235.384615384616,4274.871794871796,4130.769230769231,4415.8974358974365,4125.641025641026,4300.000000000001,4324.102564102564,4450.256410256411,4413.846153846154,1681.0,1684.0,917.656,878.708251953125,0.0,0.0,0.0,0.0
915992,20.0,0.0,0.0,4447.6923076923085,4185.641025641026,4345.641025641026,4860.512820512821,3790.2564102564106,4237.948717948719,4269.2307692307695,4107.179487179487,4400.512820512821,4118.974358974359,4289.2307692307695,4317.435897435898,4435.8974358974365,4400.512820512821,1681.0,1684.0,917.663,878.708251953125,0.0,0.0,0.0,0.0
915993,21.0,0.0,0.0,4447.6923076923085,4186.153846153847,4344.615384615385,4862.051282051283,3786.1538461538466,4245.128205128206,4267.179487179487,4090.7692307692314,4395.384615384616,4116.923076923077,4282.564102564103,4318.974358974359,4426.666666666667,4394.871794871796,1680.0,1685.0,917.672,878.708251953125,0.0,0.0,0.0,0.0
915993,22.0,0.0,0.0,4456.923076923077,4187.6923076923085,4348.717948717949,4859.48717948718,3786.1538461538466,4236.410256410257,4269.2307692307695,4109.74358974359,4403.076923076924,4122.051282051282,4287.6923076923085,4324.615384615385,4432.820512820514,4403.589743589744,1681.0,1684.0,917.68,878.708251953125,0.0,0.0,0.0,0.0
915993,23.0,0.0,0.0,4456.410256410257,4185.128205128206,4348.717948717949,4858.461538461539,3790.7692307692314,4231.794871794872,4270.256410256411,4122.051282051282,4405.128205128206,4121.025641025642,4289.2307692307695,4322.564102564103,4430.256410256411,4404.102564102564,1680.0,1686.0,917.688,878.708251953125,0.0,0.0,0.0,0.0
915993,24.0,0.0,0.0,4450.769230769231,4183.589743589744,4343.589743589744,4861.025641025642,3790.2564102564106,4236.923076923077,4269.2307692307695,4109.74358974359,4399.48717948718,4116.410256410257,4285.128205128206,4319.48717948718,4422.051282051282,4398.974358974359,1681.0,1685.0,917.694,878.708251953125,0.0,0.0,0.0,0.0
915994,25.0,0.0,0.0,4454.871794871796,4185.641025641026,4344.615384615385,4862.051282051283,3788.717948717949,4236.923076923077,4270.256410256411,4112.820512820514,4404.615384615385,4120.000000000001,4288.717948717949,4321.538461538462,4429.743589743591,4402.564102564103,1680.0,1684.0,917.702,878.708251953125,0.0,0.0,0.0,0.0
915994,26.0,0.0,0.0,4457.948717948719,4187.6923076923085,4350.769230769231,4862.051282051283,3789.7435897435903,4236.410256410257,4273.333333333334,4124.102564102564,4412.820512820514,4125.641025641026,4292.820512820514,4323.076923076924,4438.974358974359,4409.2307692307695,1680.0,1686.0,917.71,878.708251953125,0.0,0.0,0.0,0.0
915994,27.0,0.0,0.0,4453.846153846154,4186.666666666667,4347.179487179487,4861.025641025642,3787.692307692308,4242.051282051282,4269.74358974359,4111.794871794872,4404.615384615385,4117.948717948719,4283.589743589744,4321.025641025642,4431.794871794872,4406.666666666667,1680.0,1685.0,917.718,878.708251953125,0.0,0.0,0.0,0.0
915994,28.0,0.0,0.0,4448.717948717949,4182.051282051282,4338.974358974359,4858.461538461539,3782.564102564103,4242.051282051282,4262.564102564103,4097.435897435898,4395.8974358974365,4111.282051282052,4272.820512820514,4320.512820512821,4424.102564102564,4399.48717948718,1680.0,1686.0,917.726,878.708251953125,0.0,0.0,0.0,0.0
915995,29.0,0.0,0.0,4452.820512820514,4185.128205128206,4345.128205128206,4862.051282051283,3787.1794871794878,4239.48717948718,4262.564102564103,4104.102564102564,4403.589743589744,4118.461538461539,4278.974358974359,4324.102564102564,4432.307692307693,4405.128205128206,1680.0,1685.0,917.733,878.708251953125,0.0,0.0,0.0,0.0
915995,30.0,0.0,0.0,4462.051282051282,4193.846153846154,4354.358974358975,4870.769230769231,3794.358974358975,4242.051282051282,4269.2307692307695,4113.846153846154,4412.307692307693,4124.102564102564,4290.256410256411,4326.153846153847,4444.615384615385,4417.948717948719,1680.0,1687.0,917.741,878.708251953125,0.0,0.0,0.0,0.0
915996,31.0,0.0,0.0,4461.025641025642,4192.820512820514,4351.282051282052,4870.769230769231,3791.2820512820517,4237.948717948719,4272.820512820514,4120.000000000001,4414.358974358975,4121.538461538462,4290.256410256411,4325.641025641026,4443.076923076924,4416.410256410257,1681.0,1686.0,917.749,878.708251953125,0.0,0.0,0.0,0.0
916124,32.0,0.0,0.0,4452.307692307693,4184.615384615385,4345.641025641026,4865.641025641026,3788.717948717949,4235.8974358974365,4269.74358974359,4122.564102564103,4412.820512820514,4120.000000000001,4283.589743589744,4322.564102564103,4432.820512820514,4404.615384615385,1681.0,1687.0,917.757,878.8333740234375,0.0,0.0,0.0,0.0
916124,33.0,0.0,0.0,4452.307692307693,4184.615384615385,4345.641025641026,4864.102564102564,3791.7948717948725,4242.051282051282,4269.2307692307695,4111.282051282052,4403.589743589744,4120.000000000001,4280.512820512821,4321.538461538462,4428.205128205129,4402.564102564103,1681.0,1686.0,917.765,878.8333740234375,0.0,0.0,0.0,0.0
916124,34.0,0.0,0.0,4456.923076923077,4187.6923076923085,4349.2307692307695,4866.153846153847,3791.7948717948725,4241.538461538462,4271.794871794872,4102.051282051282,4396.410256410257,4117.435897435898,4280.512820512821,4322.051282051282,4431.282051282052,4404.615384615385,1680.0,1688.0,917.773,878.8333740234375,0.0,0.0,0.0,0.0
916124,35.0,0.0,0.0,4453.333333333334,4185.128205128206,4348.717948717949,4864.615384615386,3790.2564102564106,4238.974358974359,4273.333333333334,4117.435897435898,4405.128205128206,4117.948717948719,4279.48717948718,4320.512820512821,4428.205128205129,4400.512820512821,1682.0,1687.0,917.78,878.8333740234375,0.0,0.0,0.0,0.0
916124,36.0,0.0,0.0,4447.179487179487,4184.102564102564,4344.102564102564,4860.512820512821,3791.2820512820517,4243.589743589744,4272.307692307693,4122.051282051282,4407.6923076923085,4118.461538461539,4278.461538461539,4319.48717948718,4422.051282051282,4397.948717948719,1681.0,1686.0,917.789,878.8333740234375,0.0,0.0,0.0,0.0
916124,37.0,0.0,0.0,4452.307692307693,4185.641025641026,4343.589743589744,4864.102564102564,3791.7948717948725,4245.128205128206,4269.2307692307695,4106.153846153847,4398.461538461539,4117.948717948719,4282.051282051282,4323.589743589744,4427.179487179487,4403.076923076924,1681.0,1687.0,917.796,878.8333740234375,0.0,0.0,0.0,0.0
916125,38.0,0.0,0.0,4462.051282051282,4186.153846153847,4349.2307692307695,4870.769230769231,3791.7948717948725,4240.000000000001,4267.179487179487,4110.256410256411,4404.102564102564,4123.076923076924,4293.333333333334,4326.666666666667,4436.923076923077,4411.794871794872,1682.0,1685.0,917.805,878.8333740234375,0.0,0.0,0.0,0.0
916125,39.0,0.0,0.0,4461.025641025642,4186.666666666667,4350.256410256411,4870.256410256411,3790.7692307692314,4236.923076923077,4266.153846153847,4120.000000000001,4412.307692307693,4124.615384615385,4293.846153846154,4322.564102564103,4436.410256410257,4412.307692307693,1681.0,1686.0,917.812,878.8333740234375,0.0,0.0,0.0,0.0
916125,40.0,0.0,0.0,4454.871794871796,4184.615384615385,4343.076923076924,4864.615384615386,3787.1794871794878,4233.333333333334,4266.153846153847,4112.307692307693,4404.615384615385,4117.948717948719,4284.615384615385,4321.025641025642,4429.2307692307695,4405.641025641026,1682.0,1685.0,917.819,878.8333740234375,0.0,0.0,0.0,0.0
916125,41.0,0.0,0.0,4461.538461538462,4185.128205128206,4344.102564102564,4865.128205128206,3786.666666666667,4230.769230769231,4269.74358974359,4106.153846153847,4400.512820512821,4114.358974358975,4288.205128205129,4323.589743589744,4429.743589743591,4410.769230769231,1682.0,1685.0,917.827,878.8333740234375,0.0,0.0,0.0,0.0
916125,42.0,0.0,0.0,4468.205128205129,4187.6923076923085,4353.846153846154,4870.769230769231,3790.7692307692314,4235.384615384616,4274.358974358975,4106.666666666667,4403.589743589744,4121.538461538462,4296.923076923077,4323.589743589744,4436.410256410257,4419.48717948718,1682.0,1685.0,917.835,878.8333740234375,0.0,0.0,0.0,0.0
916125,43.0,0.0,0.0,4461.538461538462,4188.717948717949,4350.256410256411,4869.743589743591,3795.3846153846157,4250.256410256411,4275.8974358974365,4102.564102564103,4402.564102564103,4124.615384615385,4291.282051282052,4321.025641025642,4437.435897435898,4410.769230769231,1681.0,1686.0,917.843,878.8333740234375,0.0,0.0,0.0,0.0
916125,44.0,0.0,0.0,4455.384615384616,4186.153846153847,4341.025641025642,4863.076923076924,3801.0256410256416,4258.461538461539,4276.410256410257,4108.717948717949,4404.615384615385,4120.000000000001,4281.538461538462,4318.461538461539,4430.256410256411,4403.589743589744,1682.0,1686.0,917.851,878.8333740234375,0.0,0.0,0.0,0.0
916126,45.0,0.0,0.0,4457.435897435898,4184.615384615385,4346.153846153847,4860.000000000001,3798.461538461539,4240.512820512821,4273.846153846154,4124.102564102564,4412.307692307693,4120.000000000001,4284.615384615385,4319.48717948718,4428.205128205129,4410.256410256411,1682.0,1686.0,917.859,878.8333740234375,0.0,0.0,0.0,0.0
916126,46.0,0.0,0.0,4458.974358974359,4186.666666666667,4350.769230769231,4862.564102564103,3790.7692307692314,4224.102564102564,4269.2307692307695,4118.461538461539,4409.2307692307695,4123.589743589744,4290.256410256411,4323.589743589744,4435.384615384616,4414.871794871796,1682.0,1685.0,917.866,878.8333740234375,0.0,0.0,0.0,0.0
916126,47.0,0.0,0.0,4462.051282051282,4187.6923076923085,4344.615384615385,4867.179487179488,3792.307692307693,4231.794871794872,4271.794871794872,4107.6923076923085,4405.128205128206,4123.589743589744,4290.769230769231,4327.179487179487,4439.48717948718,4413.333333333334,1681.0,1686.0,917.875,878.8333740234375,0.0,0.0,0.0,0.0
916250,48.0,0.0,0.0,4466.153846153847,4186.666666666667,4345.128205128206,4869.2307692307695,3794.8717948717954,4236.923076923077,4275.8974358974365,4117.948717948719,4411.794871794872,4120.512820512821,4290.769230769231,4326.153846153847,4436.410256410257,4411.794871794872,1681.0,1685.0,917.882,878.95849609375,0.0,0.0,0.0,0.0
916250,49.0,0.0,0.0,4462.051282051282,4186.153846153847,4347.6923076923085,4866.666666666667,3790.2564102564106,4231.794871794872,4271.282051282052,4127.6923076923085,4413.846153846154,4119.48717948718,4289.2307692307695,4321.025641025642,4433.333333333334,4406.666666666667,1681.0,1686.0,917.89,878.95849609375,0.0,0.0,0.0,0.0
916251,50.0,0.0,0.0,4453.846153846154,4185.641025641026,4342.051282051282,4864.102564102564,3786.666666666667,4235.8974358974365,4265.128205128206,4110.256410256411,4402.051282051282,4119.48717948718,4284.615384615385,4318.974358974359,4433.333333333334,4401.025641025642,1681.0,1684.0,917.898,878.95849609375,0.0,0.0,0.0,0.0
916251,51.0,0.0,0.0,4457.435897435898,4185.641025641026,4340.512820512821,4865.641025641026,3787.1794871794878,4239.48717948718,4269.74358974359,4095.3846153846157,4397.948717948719,4120.000000000001,4286.153846153847,4322.564102564103,4437.435897435898,4403.076923076924,1680.0,1686.0,917.906,878.95849609375,0.0,0.0,0.0,0.0
916251,52.0,0.0,0.0,4464.102564102564,4186.666666666667,4345.128205128206,4866.153846153847,3785.6410256410263,4229.2307692307695,4271.282051282052,4109.74358974359,4406.666666666667,4122.051282051282,4292.307692307693,4323.589743589744,4440.512820512821,4407.179487179487,1681.0,1685.0,917.913,878.95849609375,0.0,0.0,0.0,0.0
916251,53.0,0.0,0.0,4453.846153846154,4184.102564102564,4340.000000000001,4858.974358974359,3784.615384615385,4223.589743589744,4265.641025641026,4129.2307692307695,4408.717948717949,4117.948717948719,4286.153846153847,4316.410256410257,4433.333333333334,4403.076923076924,1680.0,1684.0,917.922,878.95849609375,0.0,0.0,0.0,0.0
916251,54.0,0.0,0.0,4443.076923076924,4181.538461538462,4329.743589743591,4852.820512820514,3784.615384615385,4231.282051282052,4263.076923076924,4119.48717948718,4398.461538461539,4111.282051282052,4273.846153846154,4311.282051282052,4420.000000000001,4391.282051282052,1681.0,1685.0,917.93,878.95849609375,0.0,0.0,0.0,0.0
916251,55.0,0.0,0.0,4451.282051282052,4183.076923076924,4327.179487179487,4855.8974358974365,3789.2307692307695,4239.48717948718,4263.589743589744,4089.23076923077,4388.205128205129,4111.794871794872,4273.333333333334,4313.846153846154,4417.948717948719,4389.2307692307695,1679.0,1684.0,917.938,878.95849609375,0.0,0.0,0.0,0.0
916251,56.0,0.0,0.0,4462.051282051282,4186.153846153847,4332.820512820514,4863.589743589744,3795.8974358974365,4245.128205128206,4268.717948717949,4085.1282051282055,4393.333333333334,4118.461538461539,4279.48717948718,4318.974358974359,4427.179487179487,4400.512820512821,1680.0,1684.0,917.945,878.95849609375,0.0,0.0,0.0,0.0
916251,57.0,0.0,0.0,4457.948717948719,4186.153846153847,4334.871794871796,4863.076923076924,3795.8974358974365,4250.769230769231,4275.8974358974365,4106.666666666667,4403.076923076924,4120.000000000001,4277.435897435898,4317.948717948719,4428.205128205129,4404.615384615385,1680.0,1683.0,917.953,878.95849609375,0.0,0.0,0.0,0.0
916252,58.0,0.0,0.0,4447.6923076923085,4184.102564102564,4329.2307692307695,4856.410256410257,3793.333333333334,4250.769230769231,4277.435897435898,4114.358974358975,4400.000000000001,4113.846153846154,4268.717948717949,4315.384615384616,4413.846153846154,4394.358974358975,1680.0,1684.0,917.96,878.95849609375,0.0,0.0,0.0,0.0
916252,59.0,0.0,0.0,4451.794871794872,4184.102564102564,4330.769230769231,4855.384615384616,3795.8974358974365,4244.615384615385,4276.923076923077,4109.2307692307695,4400.512820512821,4111.282051282052,4271.794871794872,4317.948717948719,4413.846153846154,4394.358974358975,1680.0,1683.0,917.968,878.95849609375,0.0,0.0,0.0,0.0
916252,60.0,0.0,0.0,4466.153846153847,4187.6923076923085,4343.076923076924,4862.051282051283,3798.9743589743593,4242.564102564103,4276.923076923077,4112.307692307693,4410.256410256411,4118.461538461539,4288.717948717949,4324.102564102564,4435.384615384616,4411.794871794872,1681.0,1683.0,917.976,878.95849609375,0.0,0.0,0.0,0.0
916252,61.0,0.0,0.0,4469.743589743591,4188.717948717949,4349.743589743591,4868.205128205129,3796.9230769230776,4243.589743589744,4273.846153846154,4112.820512820514,4409.2307692307695,4124.102564102564,4293.846153846154,4326.153846153847,4443.076923076924,4423.076923076924,1681.0,1683.0,917.984,878.95849609375,0.0,0.0,0.0,0.0
916252,62.0,0.0,0.0,4458.974358974359,4186.153846153847,4344.615384615385,4865.128205128206,3790.2564102564106,4235.8974358974365,4265.128205128206,4103.076923076924,4396.410256410257,4120.000000000001,4278.461538461539,4318.461538461539,4430.769230769231,4415.8974358974365,1681.0,1684.0,917.992,878.95849609375,0.0,0.0,0.0,0.0
916252,63.0,0.0,0.0,4454.358974358975,4184.615384615385,4337.948717948719,4858.461538461539,3785.1282051282055,4227.6923076923085,4260.512820512821,4103.589743589744,4395.8974358974365,4114.358974358975,4271.282051282052,4312.820512820514,4424.615384615385,4406.153846153847,1682.0,1683.0,917.999,878.95849609375,0.0,0.0,0.0,0.0
916375,64.0,0.0,474.0,4457.435897435898,4184.102564102564,4333.333333333334,4859.48717948718,3786.1538461538466,4225.128205128206,4261.025641025642,4113.846153846154,4403.589743589744,4114.358974358975,4276.410256410257,4316.410256410257,4425.641025641026,4403.076923076924,1681.0,1684.0,918.007,879.0836181640625,0.0,0.0,0.0,0.0
916375,65.0,0.0,279.0,4452.307692307693,4183.076923076924,4327.6923076923085,4860.000000000001,3786.666666666667,4228.205128205129,4261.538461538462,4107.179487179487,4399.48717948718,4112.307692307693,4269.74358974359,4316.923076923077,4417.948717948719,4394.871794871796,1682.0,1685.0,918.015,879.0836181640625,0.0,0.0,0.0,0.0
916375,66.0,0.0,447.0,4447.6923076923085,4184.102564102564,4328.205128205129,4856.923076923077,3783.076923076924,4229.74358974359,4262.564102564103,4098.461538461539,4394.358974358975,4108.717948717949,4264.102564102564,4315.8974358974365,4414.871794871796,4391.794871794872,1681.0,1685.0,918.024,879.0836181640625,0.0,0.0,0.0,0.0
916375,67.0,0.0,349.0,4451.794871794872,4184.615384615385,4333.333333333334,4858.974358974359,3783.589743589744,4226.153846153847,4266.153846153847,4108.717948717949,4400.000000000001,4109.74358974359,4268.717948717949,4317.948717948719,4417.948717948719,4397.948717948719,1682.0,1686.0,918.031,879.0836181640625,0.0,0.0,0.0,0.0
916376,68.0,0.0,456.0,4455.384615384616,4184.102564102564,4333.846153846154,4861.025641025642,3787.1794871794878,4223.589743589744,4267.6923076923085,4120.000000000001,4406.153846153847,4113.846153846154,4267.179487179487,4315.384615384616,4415.8974358974365,4398.974358974359,1682.0,1683.0,918.039,879.0836181640625,0.0,0.0,0.0,0.0
916376,69.0,0.0,547.0,4453.333333333334,4186.153846153847,4329.743589743591,4860.000000000001,3787.692307692308,4229.74358974359,4267.6923076923085,4112.820512820514,4400.000000000001,4113.846153846154,4263.076923076924,4313.333333333334,4415.384615384616,4395.384615384616,1681.0,1684.0,918.046,879.0836181640625,0.0,0.0,0.0,0.0
916376,70.0,0.0,531.0,4448.205128205129,4185.641025641026,4325.641025641026,4862.051282051283,3788.205128205129,4238.461538461539,4268.205128205129,4093.8461538461543,4387.179487179487,4106.153846153847,4263.076923076924,4314.358974358975,4412.820512820514,4391.282051282052,1682.0,1683.0,918.055,879.0836181640625,0.0,0.0,0.0,0.0
916376,71.0,0.0,476.0,4445.641025641026,4182.564102564103,4322.564102564103,4860.000000000001,3788.717948717949,4241.025641025642,4265.128205128206,4089.23076923077,4382.564102564103,4101.538461538462,4258.461538461539,4312.820512820514,4405.128205128206,4385.641025641026,1681.0,1683.0,918.062,879.0836181640625,0.0,0.0,0.0,0.0
916376,72.0,0.0,419.0,4446.666666666667,4182.564102564103,4320.512820512821,4851.282051282052,3788.717948717949,4236.923076923077,4259.48717948718,4102.051282051282,4385.641025641026,4104.615384615385,4252.820512820514,4310.769230769231,4403.076923076924,4382.051282051282,1681.0,1683.0,918.07,879.0836181640625,0.0,0.0,0.0,0.0
916376,73.0,0.0,468.0,4447.6923076923085,4184.102564102564,4317.435897435898,4850.769230769231,3786.1538461538466,4227.179487179487,4256.923076923077,4098.461538461539,4384.615384615385,4105.128205128206,4254.358974358975,4312.307692307693,4406.153846153847,4383.589743589744,1681.0,1684.0,918.078,879.0836181640625,0.0,0.0,0.0,0.0
916377,74.0,0.0,485.0,4447.6923076923085,4184.615384615385,4318.461538461539,4853.846153846154,3782.564102564103,4218.974358974359,4256.923076923077,4083.076923076924,4381.025641025642,4102.051282051282,4260.000000000001,4314.871794871796,4410.256410256411,4388.717948717949,1681.0,1684.0,918.085,879.0836181640625,0.0,0.0,0.0,0.0
916377,75.0,0.0,438.0,4446.666666666667,4183.076923076924,4322.051282051282,4850.769230769231,3778.9743589743593,4216.410256410257,4258.461538461539,4092.820512820513,4388.717948717949,4103.589743589744,4264.102564102564,4316.923076923077,4417.948717948719,4395.384615384616,1681.0,1686.0,918.094,879.0836181640625,0.0,0.0,0.0,0.0
916377,76.0,0.0,446.0,4448.205128205129,4181.538461538462,4324.102564102564,4848.717948717949,3780.0000000000005,4218.461538461539,4262.051282051282,4115.8974358974365,4401.025641025642,4109.2307692307695,4264.615384615385,4320.512820512821,4421.025641025642,4402.051282051282,1681.0,1687.0,918.101,879.0836181640625,0.0,0.0,0.0,0.0
916377,77.0,0.0,235.0,4453.333333333334,4183.076923076924,4327.179487179487,4849.743589743591,3781.538461538462,4218.974358974359,4259.48717948718,4114.871794871796,4401.538461538462,4111.282051282052,4262.564102564103,4321.025641025642,4416.923076923077,4403.076923076924,1681.0,1686.0,918.109,879.0836181640625,0.0,0.0,0.0,0.0
916377,78.0,0.0,485.0,4452.820512820514,4180.512820512821,4324.615384615385,4847.6923076923085,3780.0000000000005,4217.948717948719,4252.307692307693,4090.2564102564106,4383.076923076924,4103.076923076924,4256.410256410257,4316.410256410257,4410.769230769231,4395.384615384616,1681.0,1688.0,918.117,879.0836181640625,0.0,0.0,0.0,0.0
916377,79.0,0.0,438.0,4445.128205128206,4174.871794871796,4317.435897435898,4843.076923076924,3780.512820512821,4226.666666666667,4253.846153846154,4073.8461538461543,4369.743589743591,4094.8717948717954,4250.769230769231,4311.794871794872,4404.615384615385,4386.153846153847,1681.0,1686.0,918.125,879.0836181640625,0.0,0.0,0.0,0.0
916492,80.0,0.0,446.0,4444.102564102564,4177.948717948719,4320.512820512821,4844.615384615386,3784.615384615385,4234.358974358975,4264.102564102564,4096.410256410257,4386.666666666667,4105.128205128206,4257.435897435898,4315.384615384616,4407.179487179487,4389.743589743591,1681.0,1687.0,918.133,879.2086791992188,0.0,0.0,0.0,0.0
916492,81.0,0.0,235.0,4453.846153846154,4185.641025641026,4332.820512820514,4851.282051282052,3790.7692307692314,4230.769230769231,4272.820512820514,4121.025641025642,4403.076923076924,4118.461538461539,4273.333333333334,4323.589743589744,4422.564102564103,4402.051282051282,1683.0,1685.0,918.141,879.2086791992188,0.0,0.0,0.0,0.0
916492,82.0,0.0,485.0,4457.948717948719,4186.153846153847,4338.974358974359,4854.871794871796,3794.358974358975,4230.256410256411,4275.8974358974365,4107.179487179487,4396.410256410257,4116.410256410257,4278.461538461539,4323.589743589744,4432.820512820514,4405.128205128206,1682.0,1685.0,918.149,879.2086791992188,0.0,0.0,0.0,0.0
916493,83.0,0.0,438.0,4454.358974358975,4184.102564102564,4335.8974358974365,4856.923076923077,3796.9230769230776,4238.974358974359,4275.8974358974365,4102.051282051282,4397.948717948719,4114.871794871796,4275.384615384616,4319.48717948718,4430.769230769231,4398.974358974359,1682.0,1685.0,918.156,879.2086791992188,0.0,0.0,0.0,0.0
916493,84.0,0.0,446.0,4451.282051282052,4184.102564102564,4336.410256410257,4858.461538461539,3797.9487179487182,4243.589743589744,4278.974358974359,4119.48717948718,4408.717948717949,4121.538461538462,4277.948717948719,4321.538461538462,4430.256410256411,4398.974358974359,1682.0,1684.0,918.164,879.2086791992188,0.0,0.0,0.0,0.0
916493,85.0,0.0,235.0,4447.6923076923085,4182.051282051282,4337.435897435898,4853.333333333334,3796.9230769230776,4242.051282051282,4280.512820512821,4111.794871794872,4397.948717948719,4118.974358974359,4271.794871794872,4322.564102564103,4428.205128205129,4396.410256410257,1683.0,1683.0,918.172,879.2086791992188,0.0,0.0,0.0,0.0
916493,86.0,0.0,485.0,4446.153846153847,4182.564102564103,4335.8974358974365,4850.769230769231,3796.9230769230776,4241.538461538462,4276.923076923077,4103.076923076924,4388.717948717949,4111.282051282052,4262.051282051282,4320.512820512821,4422.564102564103,4389.2307692307695,1682.0,1682.0,918.179,879.2086791992188,0.0,0.0,0.0,0.0
916493,87.0,0.0,438.0,4452.307692307693,4186.666666666667,4340.000000000001,4861.025641025642,3795.8974358974365,4235.384615384616,4274.358974358975,4117.948717948719,4408.205128205129,4116.923076923077,4269.2307692307695,4323.589743589744,4429.743589743591,4393.333333333334,1682.0,1683.0,918.187,879.2086791992188,0.0,0.0,0.0,0.0
916493,88.0,0.0,446.0,4458.461538461539,4187.179487179487,4344.102564102564,4865.641025641026,3796.410256410257,4233.846153846154,4274.358974358975,4115.384615384616,4416.923076923077,4123.076923076924,4276.923076923077,4324.102564102564,4437.435897435898,4399.48717948718,1682.0,1682.0,918.195,879.2086791992188,0.0,0.0,0.0,0.0
916494,89.0,0.0,235.0,4454.358974358975,4183.589743589744,4339.48717948718,4858.974358974359,3797.9487179487182,4241.025641025642,4272.820512820514,4098.974358974359,4405.128205128206,4115.384615384616,4269.2307692307695,4317.435897435898,4428.717948717949,4389.743589743591,1682.0,1684.0,918.203,879.2086791992188,0.0,0.0,0.0,0.0
916494,90.0,0.0,485.0,4449.743589743591,4183.076923076924,4333.333333333334,4860.000000000001,3797.435897435898,4240.000000000001,4269.74358974359,4107.179487179487,4407.6923076923085,4112.820512820514,4264.615384615385,4316.923076923077,4423.589743589744,4382.051282051282,1682.0,1684.0,918.21,879.2086791992188,0.0,0.0,0.0,0.0
916494,91.0,0.0,438.0,4452.307692307693,4184.615384615385,4331.794871794872,4861.538461538462,3795.3846153846157,4237.435897435898,4263.589743589744,4113.846153846154,4413.846153846154,4116.923076923077,4266.153846153847,4320.512820512821,4427.6923076923085,4387.6923076923085,1681.0,1686.0,918.218,879.2086791992188,0.0,0.0,0.0,0.0
916494,92.0,0.0,446.0,4453.846153846154,4183.076923076924,4336.410256410257,4857.948717948719,3795.8974358974365,4241.538461538462,4258.461538461539,4097.948717948719,4402.564102564103,4113.846153846154,4263.589743589744,4320.000000000001,4423.589743589744,4392.820512820514,1683.0,1685.0,918.226,879.2086791992188,0.0,0.0,0.0,0.0
916495,93.0,0.0,235.0,4455.384615384616,4183.076923076924,4343.589743589744,4859.48717948718,3795.3846153846157,4241.538461538462,4260.000000000001,4090.2564102564106,4397.948717948719,4113.333333333334,4262.564102564103,4319.48717948718,4422.051282051282,4394.358974358975,1681.0,1686.0,918.234,879.2086791992188,0.0,0.0,0.0,0.0
916496,94.0,0.0,485.0,4454.871794871796,4183.076923076924,4342.564102564103,4861.538461538462,3792.307692307693,4236.410256410257,4265.128205128206,4102.564102564103,4405.641025641026,4117.435897435898,4266.153846153847,4321.538461538462,4427.6923076923085,4396.410256410257,1682.0,1686.0,918.242,879.2086791992188,0.0,0.0,0.0,0.0
916496,95.0,0.0,438.0,4451.282051282052,4180.512820512821,4335.384615384616,4856.410256410257,3796.410256410257,4237.435897435898,4268.205128205129,4114.358974358975,4403.589743589744,4116.410256410257,4267.6923076923085,4318.461538461539,4427.179487179487,4393.333333333334,1682.0,1685.0,918.251,879.2086791992188,0.0,0.0,0.0,0.0
916621,96.0,0.0,446.0,4451.282051282052,4182.051282051282,4334.358974358975,4854.358974358975,3799.48717948718,4237.435897435898,4271.794871794872,4114.358974358975,4402.564102564103,4113.333333333334,4265.128205128206,4317.435897435898,4422.564102564103,4389.2307692307695,1681.0,1686.0,918.257,879.3338012695312,0.0,0.0,0.0,0.0
916621,97.0,0.0,235.0,4453.846153846154,4184.615384615385,4333.333333333334,4860.000000000001,3794.358974358975,4230.769230769231,4271.794871794872,4107.179487179487,4406.153846153847,4112.307692307693,4260.512820512821,4319.48717948718,4421.538461538462,4387.6923076923085,1682.0,1684.0,918.266,879.3338012695312,0.0,0.0,0.0,0.0
916621,98.0,0.0,485.0,4454.871794871796,4183.589743589744,4330.256410256411,4863.076923076924,3790.2564102564106,4231.282051282052,4268.717948717949,4106.153846153847,4403.589743589744,4113.846153846154,4261.025641025642,4317.948717948719,4418.461538461539,4386.153846153847,1682.0,1684.0,918.273,879.3338012695312,0.0,0.0,0.0,0.0
916622,99.0,0.0,438.0,4455.8974358974365,4182.051282051282,4331.282051282052,4859.48717948718,3794.358974358975,4240.512820512821,4272.307692307693,4114.871794871796,4407.179487179487,4116.923076923077,4264.615384615385,4318.461538461539,4418.974358974359,4386.666666666667,1682.0,1683.0,918.282,879.3338012695312,0.0,0.0,0.0,0.0
916622,100.0,0.0,446.0,4456.410256410257,4182.564102564103,4334.358974358975,4859.48717948718,3800.512820512821,4250.256410256411,4274.358974358975,4112.307692307693,4408.205128205129,4114.358974358975,4264.102564102564,4320.000000000001,4423.076923076924,4389.2307692307695,1681.0,1684.0,918.29,879.3338012695312,0.0,0.0,0.0,0.0
916622,101.0,0.0,235.0,4460.512820512821,4183.589743589744,4336.410256410257,4867.179487179488,3801.538461538462,4250.256410256411,4270.769230769231,4100.000000000001,4401.025641025642,4114.871794871796,4267.6923076923085,4320.512820512821,4429.2307692307695,4395.8974358974365,1681.0,1684.0,918.296,879.3338012695312,0.0,0.0,0.0,0.0
916622,102.0,0.0,485.0,4465.641025641026,4185.128205128206,4335.8974358974365,4870.769230769231,3798.9743589743593,4248.717948717949,4272.820512820514,4095.8974358974365,4401.538461538462,4124.615384615385,4273.333333333334,4320.512820512821,4434.358974358975,4403.076923076924,1681.0,1684.0,918.305,879.3338012695312,0.0,0.0,0.0,0.0
916623,103.0,0.0,438.0,4463.589743589744,4184.102564102564,4333.846153846154,4863.589743589744,3800.512820512821,4252.307692307693,4277.435897435898,4098.461538461539,4406.153846153847,4122.051282051282,4270.256410256411,4318.461538461539,4430.256410256411,4401.025641025642,1681.0,1685.0,918.312,879.3338012695312,0.0,0.0,0.0,0.0
916623,104.0,0.0,446.0,4461.025641025642,4183.589743589744,4335.384615384616,4857.948717948719,3800.0000000000005,4250.769230769231,4275.8974358974365,4106.666666666667,4408.717948717949,4115.8974358974365,4268.717948717949,4320.512820512821,4431.282051282052,4398.974358974359,1681.0,1685.0,918.32,879.3338012695312,0.0,0.0,0.0,0.0
916623,105.0,0.0,235.0,4464.102564102564,4185.641025641026,4340.000000000001,4860.512820512821,3794.358974358975,4244.615384615385,4270.769230769231,4118.461538461539,4417.435897435898,4123.589743589744,4279.48717948718,4326.153846153847,4441.538461538462,4410.256410256411,1681.0,1686.0,918.328,879.3338012695312,0.0,0.0,0.0,0.0
916623,106.0,0.0,485.0,4462.564102564103,4184.615384615385,4337.435897435898,4860.512820512821,3794.358974358975,4245.128205128206,4267.179487179487,4113.333333333334,4415.8974358974365,4122.564102564103,4278.461538461539,4322.564102564103,4438.461538461539,4412.820512820514,1681.0,1686.0,918.337,879.3338012695312,0.0,0.0,0.0,0.0
916624,107.0,0.0,438.0,4458.461538461539,4182.564102564103,4332.820512820514,4856.410256410257,3796.9230769230776,4251.282051282052,4266.153846153847,4099.48717948718,4400.000000000001,4112.820512820514,4265.641025641026,4315.8974358974365,4426.666666666667,4401.538461538462,1681.0,1686.0,918.343,879.3338012695312,0.0,0.0,0.0,0.0
916624,108.0,0.0,446.0,4465.128205128206,4185.128205128206,4342.051282051282,4858.974358974359,3794.8717948717954,4248.205128205129,4267.6923076923085,4102.564102564103,4402.051282051282,4114.358974358975,4269.74358974359,4321.538461538462,4432.307692307693,4404.102564102564,1681.0,1687.0,918.351,879.3338012695312,0.0,0.0,0.0,0.0
916624,109.0,0.0,235.0,4473.333333333334,4188.205128205129,4353.333333333334,4865.128205128206,3795.3846153846157,4243.076923076924,4271.794871794872,4113.333333333334,4417.435897435898,4123.589743589744,4283.076923076924,4327.6923076923085,4447.179487179487,4418.461538461539,1682.0,1685.0,918.359,879.3338012695312,0.0,0.0,0.0,0.0
916625,110.0,0.0,485.0,4465.641025641026,4187.179487179487,4350.256410256411,4866.153846153847,3797.435897435898,4247.179487179487,4273.333333333334,4121.025641025642,4422.051282051282,4124.615384615385,4283.076923076924,4324.615384615385,4447.179487179487,4416.923076923077,1681.0,1686.0,918.367,879.3338012695312,0.0,0.0,0.0,0.0
916625,111.0,0.0,438.0,4456.410256410257,4185.128205128206,4338.974358974359,4866.666666666667,3793.8461538461543,4248.717948717949,4270.769230769231,4116.923076923077,4415.384615384616,4122.564102564103,4273.333333333334,4320.512820512821,4436.923076923077,4405.641025641026,1682.0,1685.0,918.375,879.3338012695312,0.0,0.0,0.0,0.0
916742,112.0,0.0,446.0,4458.461538461539,4182.564102564103,4333.846153846154,4870.769230769231,3791.7948717948725,4246.666666666667,4267.179487179487,4104.615384615385,4407.6923076923085,4116.923076923077,4262.051282051282,4317.435897435898,4426.666666666667,4400.000000000001,1680.0,1685.0,918.383,879.4589233398438,0.0,0.0,0.0,0.0
916742,113.0,0.0,235.0,4458.974358974359,4181.025641025642,4331.282051282052,4875.8974358974365,3795.3846153846157,4247.179487179487,4267.179487179487,4110.256410256411,4407.6923076923085,4113.333333333334,4254.358974358975,4315.8974358974365,4420.512820512821,4396.923076923077,1682.0,1685.0,918.391,879.4589233398438,0.0,0.0,0.0,0.0
916742,114.0,0.0,485.0,4460.512820512821,4184.615384615385,4335.384615384616,4881.538461538462,3797.9487179487182,4247.6923076923085,4270.256410256411,4122.051282051282,4415.8974358974365,4117.948717948719,4258.461538461539,4320.512820512821,4426.666666666667,4397.948717948719,1682.0,1684.0,918.398,879.4589233398438,0.0,0.0,0.0,0.0
916743,115.0,0.0,438.0,4464.102564102564,4186.666666666667,4341.025641025642,4881.538461538462,3800.0000000000005,4253.333333333334,4269.2307692307695,4103.589743589744,4412.307692307693,4120.000000000001,4263.589743589744,4321.538461538462,4435.384615384616,4401.538461538462,1681.0,1685.0,918.406,879.4589233398438,0.0,0.0,0.0,0.0
916743,116.0,0.0,446.0,4467.179487179487,4184.102564102564,4341.538461538462,4883.076923076924,3800.0000000000005,4257.948717948719,4265.128205128206,4078.461538461539,4397.435897435898,4114.871794871796,4260.512820512821,4315.8974358974365,4435.384615384616,4404.102564102564,1682.0,1686.0,918.414,879.4589233398438,0.0,0.0,0.0,0.0
916743,117.0,0.0,235.0,4475.8974358974365,4190.769230769231,4350.256410256411,4890.769230769231,3799.48717948718,4248.717948717949,4267.179487179487,4096.410256410257,4409.743589743591,4121.025641025642,4273.846153846154,4321.538461538462,4446.666666666667,4414.358974358975,1683.0,1686.0,918.422,879.4589233398438,0.0,0.0,0.0,0.0
916743,118.0,0.0,485.0,4482.051282051282,4197.435897435898,4359.48717948718,4890.769230769231,3801.538461538462,4241.538461538462,4271.282051282052,4125.641025641026,4435.384615384616,4131.282051282052,4289.74358974359,4328.205128205129,4460.512820512821,4422.051282051282,1682.0,1685.0,918.43,879.4589233398438,0.0,0.0,0.0,0.0
916743,119.0,0.0,438.0,4468.717948717949,4189.74358974359,4349.2307692307695,4882.051282051283,3801.538461538462,4249.74358974359,4267.6923076923085,4118.974358974359,4424.615384615385,4124.615384615385,4278.974358974359,4319.48717948718,4448.717948717949,4410.769230769231,1682.0,1686.0,918.438,879.4589233398438,0.0,0.0,0.0,0.0
916743,120.0,0.0,446.0,4462.564102564103,4184.102564102564,4342.564102564103,4880.512820512821,3799.48717948718,4253.333333333334,4267.179487179487,4114.358974358975,4410.769230769231,4120.000000000001,4271.282051282052,4315.384615384616,4437.435897435898,4405.128205128206,1683.0,1684.0,918.445,879.4589233398438,0.0,0.0,0.0,0.0
916743,121.0,0.0,235.0,4475.384615384616,4187.6923076923085,4352.307692307693,4881.025641025642,3800.0000000000005,4249.2307692307695,4273.333333333334,4140.512820512821,4432.307692307693,4132.307692307693,4284.615384615385,4324.102564102564,4447.179487179487,4415.384615384616,1681.0,1684.0,918.453,879.4589233398438,0.0,0.0,0.0,0.0
916744,122.0,0.0,485.0,4480.512820512821,4193.333333333334,4357.435897435898,4877.435897435898,3799.48717948718,4248.205128205129,4271.794871794872,4135.8974358974365,4436.410256410257,4133.333333333334,4290.256410256411,4326.666666666667,4454.358974358975,4419.48717948718,1682.0,1683.0,918.461,879.4589233398438,0.0,0.0,0.0,0.0
