timestamp,cnt,inerpolated,raw_cq,af3,f7,f3,fc5,t7,p7,o1,o2,p8,t8,fc6,f4,f8,af4,gyrox,gyroy,epoc_timestamp,epoc_es_timestamp,func_id,func_value,marker,sync_signal
513980,14.0,0.0,487.0,4466.666666666667,4169.74358974359,4304.102564102564,4821.025641025642,3773.8461538461543,4224.102564102564,4240.000000000001,4107.179487179487,4393.846153846154,4088.717948717949,4270.256410256411,4288.205128205129,4391.794871794872,4378.974358974359,1676.0,1684.0,515.656,489.3658752441406,0.0,0.0,0.0,0.0
513980,15.0,0.0,446.0,4459.48717948718,4167.6923076923085,4297.435897435898,4812.307692307693,3770.7692307692314,4216.923076923077,4241.025641025642,4110.769230769231,4395.384615384616,4084.1025641025644,4266.153846153847,4288.205128205129,4388.205128205129,4368.717948717949,1675.0,1685.0,515.664,489.3658752441406,0.0,0.0,0.0,0.0
513981,16.0,0.0,0.0,4466.666666666667,4171.282051282052,4304.102564102564,4818.974358974359,3772.820512820513,4210.769230769231,4243.589743589744,4094.358974358975,4392.307692307693,4090.2564102564106,4271.282051282052,4287.6923076923085,4392.307692307693,4373.846153846154,1676.0,1686.0,515.671,489.3658752441406,0.0,0.0,0.0,0.0
513981,17.0,0.0,0.0,4466.666666666667,4169.74358974359,4302.051282051282,4821.538461538462,3771.2820512820517,4212.820512820514,4238.461538461539,4080.5128205128212,4382.051282051282,4086.666666666667,4262.051282051282,4285.641025641026,4383.076923076924,4367.6923076923085,1676.0,1687.0,515.679,489.3658752441406,0.0,0.0,0.0,0.0
513981,18.0,0.0,0.0,4462.564102564103,4169.74358974359,4296.410256410257,4815.8974358974365,3768.717948717949,4211.282051282052,4232.307692307693,4088.205128205129,4380.000000000001,4077.9487179487187,4253.846153846154,4285.128205128206,4377.435897435898,4358.974358974359,1677.0,1687.0,515.688,489.3658752441406,0.0,0.0,0.0,0.0
513981,19.0,0.0,0.0,4471.794871794872,4175.8974358974365,4306.666666666667,4823.589743589744,3769.7435897435903,4206.153846153847,4234.358974358975,4088.717948717949,4380.000000000001,4082.0512820512827,4263.589743589744,4288.205128205129,4384.615384615385,4368.205128205129,1678.0,1687.0,515.696,489.3658752441406,0.0,0.0,0.0,0.0
513981,20.0,0.0,0.0,4479.48717948718,4182.051282051282,4320.512820512821,4835.384615384616,3771.2820512820517,4207.6923076923085,4240.000000000001,4091.7948717948725,4384.615384615385,4091.2820512820517,4272.820512820514,4293.333333333334,4394.871794871796,4384.102564102564,1680.0,1688.0,515.705,489.3658752441406,0.0,0.0,0.0,0.0
513982,21.0,0.0,0.0,4477.435897435898,4180.512820512821,4322.051282051282,4832.307692307693,3775.3846153846157,4220.000000000001,4244.102564102564,4113.333333333334,4394.358974358975,4094.358974358975,4273.333333333334,4294.871794871796,4400.512820512821,4385.128205128206,1680.0,1689.0,515.711,489.3658752441406,0.0,0.0,0.0,0.0
513982,22.0,0.0,0.0,4474.358974358975,4177.948717948719,4317.948717948719,4829.2307692307695,3779.48717948718,4227.179487179487,4244.102564102564,4106.153846153847,4388.717948717949,4090.7692307692314,4271.794871794872,4291.794871794872,4400.000000000001,4375.384615384616,1682.0,1687.0,515.72,489.3658752441406,0.0,0.0,0.0,0.0
513982,23.0,0.0,0.0,4470.769230769231,4177.435897435898,4312.820512820514,4831.282051282052,3778.461538461539,4225.641025641026,4244.615384615385,4091.2820512820517,4381.025641025642,4084.615384615385,4270.256410256411,4288.205128205129,4393.846153846154,4370.769230769231,1682.0,1688.0,515.726,489.3658752441406,0.0,0.0,0.0,0.0
513982,24.0,0.0,0.0,4466.666666666667,4173.333333333334,4305.128205128206,4828.717948717949,3775.8974358974365,4228.717948717949,4246.666666666667,4109.2307692307695,4393.333333333334,4085.6410256410263,4269.2307692307695,4287.6923076923085,4389.2307692307695,4372.820512820514,1683.0,1687.0,515.735,489.3658752441406,0.0,0.0,0.0,0.0
513982,25.0,0.0,0.0,4467.6923076923085,4173.846153846154,4307.179487179487,4828.205128205129,3776.410256410257,4228.717948717949,4245.128205128206,4121.025641025642,4400.512820512821,4093.333333333334,4272.820512820514,4289.74358974359,4394.358974358975,4375.384615384616,1683.0,1687.0,515.742,489.3658752441406,0.0,0.0,0.0,0.0
514364,26.0,0.0,0.0,4473.846153846154,4180.512820512821,4313.846153846154,4830.769230769231,3778.461538461539,4220.512820512821,4242.051282051282,4109.2307692307695,4394.871794871796,4094.358974358975,4280.512820512821,4291.794871794872,4401.025641025642,4379.48717948718,1685.0,1686.0,515.751,489.4596862792969,0.0,0.0,0.0,0.0
514364,27.0,0.0,0.0,4475.384615384616,4178.461538461539,4312.820512820514,4830.769230769231,3778.9743589743593,4218.461538461539,4242.051282051282,4109.2307692307695,4396.410256410257,4093.8461538461543,4282.051282051282,4292.820512820514,4401.538461538462,4382.564102564103,1684.0,1685.0,515.758,489.4596862792969,0.0,0.0,0.0,0.0
514365,28.0,0.0,0.0,4465.641025641026,4170.256410256411,4308.205128205129,4829.2307692307695,3777.435897435898,4222.564102564103,4243.076923076924,4111.282051282052,4397.948717948719,4093.8461538461543,4268.717948717949,4289.74358974359,4397.435897435898,4376.410256410257,1685.0,1684.0,515.765,489.4596862792969,0.0,0.0,0.0,0.0
514365,29.0,0.0,0.0,4458.461538461539,4167.6923076923085,4302.564102564103,4826.666666666667,3778.461538461539,4224.615384615385,4246.666666666667,4096.923076923077,4386.153846153847,4089.23076923077,4256.923076923077,4286.666666666667,4390.256410256411,4366.153846153847,1684.0,1682.0,515.773,489.4596862792969,0.0,0.0,0.0,0.0
514365,30.0,0.0,0.0,4462.051282051282,4172.307692307693,4298.974358974359,4823.076923076924,3783.589743589744,4229.2307692307695,4253.333333333334,4096.410256410257,4383.589743589744,4089.23076923077,4264.102564102564,4287.6923076923085,4387.6923076923085,4367.6923076923085,1684.0,1682.0,515.781,489.4596862792969,0.0,0.0,0.0,0.0
514365,31.0,0.0,0.0,4470.256410256411,4177.948717948719,4307.6923076923085,4832.307692307693,3787.1794871794878,4232.820512820514,4254.358974358975,4108.205128205129,4397.435897435898,4097.948717948719,4280.512820512821,4292.820512820514,4405.641025641026,4382.051282051282,1684.0,1680.0,515.789,489.4596862792969,0.0,0.0,0.0,0.0
514365,32.0,0.0,0.0,4477.948717948719,4185.128205128206,4318.974358974359,4844.102564102564,3789.2307692307695,4230.256410256411,4252.307692307693,4107.6923076923085,4403.589743589744,4103.076923076924,4289.2307692307695,4300.000000000001,4425.641025641026,4394.871794871796,1683.0,1681.0,515.796,489.4596862792969,0.0,0.0,0.0,0.0
514365,33.0,0.0,0.0,4478.974358974359,4184.615384615385,4314.358974358975,4837.948717948719,3789.2307692307695,4231.794871794872,4256.410256410257,4108.205128205129,4400.512820512821,4100.000000000001,4284.615384615385,4297.948717948719,4418.461538461539,4390.256410256411,1683.0,1680.0,515.805,489.4596862792969,0.0,0.0,0.0,0.0
514365,34.0,0.0,0.0,4469.2307692307695,4176.923076923077,4305.641025641026,4827.179487179488,3789.7435897435903,4240.000000000001,4257.948717948719,4112.307692307693,4397.435897435898,4098.461538461539,4272.820512820514,4288.205128205129,4399.48717948718,4379.48717948718,1682.0,1680.0,515.813,489.4596862792969,0.0,0.0,0.0,0.0
514365,35.0,0.0,0.0,4463.076923076924,4175.384615384616,4308.717948717949,4828.205128205129,3790.7692307692314,4240.512820512821,4252.307692307693,4104.615384615385,4390.256410256411,4096.923076923077,4269.74358974359,4288.717948717949,4400.000000000001,4383.589743589744,1681.0,1681.0,515.821,489.4596862792969,0.0,0.0,0.0,0.0
514366,36.0,0.0,0.0,4471.282051282052,4179.48717948718,4314.871794871796,4835.384615384616,3790.2564102564106,4232.820512820514,4252.307692307693,4098.974358974359,4387.179487179487,4096.923076923077,4277.435897435898,4294.358974358975,4412.820512820514,4392.820512820514,1680.0,1682.0,515.828,489.4596862792969,0.0,0.0,0.0,0.0
514366,37.0,0.0,0.0,4478.974358974359,4181.538461538462,4317.435897435898,4838.974358974359,3791.2820512820517,4234.358974358975,4259.48717948718,4114.871794871796,4398.974358974359,4102.564102564103,4285.128205128206,4293.333333333334,4416.923076923077,4394.871794871796,1681.0,1682.0,515.837,489.4596862792969,0.0,0.0,0.0,0.0
514366,38.0,0.0,0.0,4477.435897435898,4182.051282051282,4316.923076923077,4836.410256410257,3800.0000000000005,4245.128205128206,4262.051282051282,4136.923076923077,4411.282051282052,4105.128205128206,4283.589743589744,4291.282051282052,4414.358974358975,4394.358974358975,1680.0,1682.0,515.844,489.4596862792969,0.0,0.0,0.0,0.0
514366,39.0,0.0,0.0,4472.307692307693,4178.461538461539,4311.282051282052,4828.717948717949,3800.512820512821,4244.102564102564,4262.051282051282,4134.358974358975,4406.666666666667,4099.48717948718,4276.410256410257,4290.256410256411,4407.179487179487,4388.717948717949,1680.0,1683.0,515.852,489.4596862792969,0.0,0.0,0.0,0.0
514366,40.0,0.0,0.0,4467.179487179487,4171.282051282052,4306.153846153847,4825.641025641026,3789.7435897435903,4236.923076923077,4265.128205128206,4113.846153846154,4394.871794871796,4094.358974358975,4275.384615384616,4290.256410256411,4398.461538461539,4382.051282051282,1680.0,1682.0,515.859,489.4596862792969,0.0,0.0,0.0,0.0
514366,41.0,0.0,0.0,4469.2307692307695,4169.74358974359,4310.769230769231,4828.717948717949,3785.1282051282055,4229.74358974359,4260.512820512821,4106.153846153847,4391.282051282052,4095.8974358974365,4282.564102564103,4291.794871794872,4401.025641025642,4388.205128205129,1680.0,1683.0,515.868,489.4596862792969,0.0,0.0,0.0,0.0
514366,42.0,0.0,0.0,4475.384615384616,4173.846153846154,4318.974358974359,4829.743589743591,3787.1794871794878,4221.538461538462,4253.846153846154,4111.794871794872,4392.820512820514,4094.8717948717954,4282.564102564103,4292.307692307693,4407.6923076923085,4395.8974358974365,1681.0,1682.0,515.875,489.4596862792969,0.0,0.0,0.0,0.0
514366,43.0,0.0,0.0,4474.358974358975,4172.820512820514,4317.435897435898,4827.179487179488,3786.1538461538466,4218.461538461539,4250.256410256411,4105.128205128206,4384.102564102564,4089.7435897435903,4272.820512820514,4290.256410256411,4399.48717948718,4391.794871794872,1679.0,1684.0,515.882,489.4596862792969,0.0,0.0,0.0,0.0
514367,44.0,0.0,0.0,4475.8974358974365,4176.410256410257,4319.48717948718,4832.307692307693,3783.076923076924,4224.102564102564,4243.076923076924,4088.205128205129,4372.307692307693,4089.7435897435903,4267.6923076923085,4291.282051282052,4394.358974358975,4389.2307692307695,1681.0,1683.0,515.89,489.4596862792969,0.0,0.0,0.0,0.0
514367,45.0,0.0,0.0,4483.589743589744,4186.153846153847,4329.743589743591,4841.538461538462,3784.1025641025644,4234.871794871796,4244.102564102564,4088.717948717949,4378.461538461539,4094.8717948717954,4273.846153846154,4294.871794871796,4405.128205128206,4398.974358974359,1680.0,1682.0,515.898,489.4596862792969,0.0,0.0,0.0,0.0
514367,46.0,0.0,0.0,4479.48717948718,4184.102564102564,4327.6923076923085,4834.358974358975,3787.1794871794878,4241.025641025642,4255.8974358974365,4105.641025641026,4390.769230769231,4096.410256410257,4280.512820512821,4294.871794871796,4406.666666666667,4404.102564102564,1681.0,1682.0,515.906,489.4596862792969,0.0,0.0,0.0,0.0
514367,47.0,0.0,0.0,4470.769230769231,4175.384615384616,4320.512820512821,4825.641025641026,3788.205128205129,4233.846153846154,4257.435897435898,4109.74358974359,4390.256410256411,4095.8974358974365,4283.589743589744,4294.358974358975,4405.128205128206,4398.974358974359,1680.0,1682.0,515.914,489.4596862792969,0.0,0.0,0.0,0.0
514367,48.0,0.0,0.0,4481.025641025642,4177.948717948719,4327.179487179487,4837.948717948719,3788.205128205129,4224.615384615385,4253.333333333334,4106.666666666667,4388.717948717949,4102.051282051282,4289.74358974359,4298.461538461539,4415.384615384616,4401.538461538462,1681.0,1683.0,515.922,489.4596862792969,0.0,0.0,0.0,0.0
514367,49.0,0.0,0.0,4488.717948717949,4184.615384615385,4331.794871794872,4848.717948717949,3788.205128205129,4229.74358974359,4256.923076923077,4115.384615384616,4394.871794871796,4103.589743589744,4293.333333333334,4298.461538461539,4417.435897435898,4407.6923076923085,1680.0,1684.0,515.929,489.4596862792969,0.0,0.0,0.0,0.0
514367,50.0,0.0,0.0,4478.461538461539,4183.589743589744,4322.051282051282,4843.589743589744,3787.1794871794878,4235.8974358974365,4257.435897435898,4117.435897435898,4392.307692307693,4096.410256410257,4288.205128205129,4293.333333333334,4409.743589743591,4402.564102564103,1682.0,1685.0,515.937,489.4596862792969,0.0,0.0,0.0,0.0
514367,51.0,0.0,0.0,4471.794871794872,4177.435897435898,4313.333333333334,4836.410256410257,3784.615384615385,4227.6923076923085,4253.846153846154,4108.205128205129,4388.717948717949,4093.8461538461543,4283.076923076924,4291.282051282052,4407.6923076923085,4394.358974358975,1682.0,1684.0,515.945,489.4596862792969,0.0,0.0,0.0,0.0
514368,52.0,0.0,0.0,4468.717948717949,4172.820512820514,4307.179487179487,4831.794871794872,3784.1025641025644,4225.641025641026,4255.8974358974365,4114.358974358975,4395.8974358974365,4096.410256410257,4280.512820512821,4291.794871794872,4407.179487179487,4390.256410256411,1681.0,1687.0,515.954,489.4596862792969,0.0,0.0,0.0,0.0
514368,53.0,0.0,0.0,4460.000000000001,4169.74358974359,4297.435897435898,4829.2307692307695,3785.1282051282055,4236.410256410257,4261.538461538462,4121.025641025642,4396.410256410257,4094.358974358975,4275.8974358974365,4288.205128205129,4402.564102564103,4383.076923076924,1682.0,1685.0,515.961,489.4596862792969,0.0,0.0,0.0,0.0
514368,54.0,0.0,0.0,4458.974358974359,4170.256410256411,4295.384615384616,4827.179487179488,3786.1538461538466,4235.384615384616,4261.025641025642,4104.615384615385,4383.076923076924,4089.23076923077,4272.307692307693,4286.666666666667,4397.948717948719,4376.923076923077,1681.0,1687.0,515.968,489.4596862792969,0.0,0.0,0.0,0.0
514368,55.0,0.0,0.0,4462.564102564103,4172.307692307693,4301.025641025642,4826.666666666667,3782.564102564103,4223.589743589744,4251.282051282052,4086.666666666667,4371.282051282052,4086.1538461538466,4271.282051282052,4289.2307692307695,4392.820512820514,4378.974358974359,1682.0,1686.0,515.976,489.4596862792969,0.0,0.0,0.0,0.0
514368,56.0,0.0,0.0,4466.153846153847,4169.74358974359,4306.153846153847,4827.179487179488,3778.461538461539,4222.564102564103,4247.179487179487,4089.7435897435903,4373.846153846154,4085.1282051282055,4271.794871794872,4289.74358974359,4395.384615384616,4385.128205128206,1681.0,1685.0,515.984,489.4596862792969,0.0,0.0,0.0,0.0
514368,57.0,0.0,0.0,4470.769230769231,4170.256410256411,4309.2307692307695,4828.717948717949,3781.538461538462,4226.666666666667,4251.282051282052,4102.564102564103,4385.128205128206,4091.2820512820517,4280.000000000001,4288.717948717949,4407.6923076923085,4389.743589743591,1681.0,1686.0,515.992,489.4596862792969,0.0,0.0,0.0,0.0
514368,58.0,0.0,0.0,4468.205128205129,4172.820512820514,4304.102564102564,4828.717948717949,3782.564102564103,4226.153846153847,4252.307692307693,4103.076923076924,4387.6923076923085,4094.8717948717954,4283.589743589744,4287.6923076923085,4407.6923076923085,4386.666666666667,1681.0,1685.0,516.0,489.4596862792969,0.0,0.0,0.0,0.0
514368,59.0,0.0,0.0,4464.615384615385,4171.282051282052,4298.974358974359,4830.769230769231,3777.9487179487182,4224.615384615385,4252.307692307693,4108.205128205129,4388.717948717949,4089.7435897435903,4278.974358974359,4286.666666666667,4398.974358974359,4381.538461538462,1680.0,1685.0,516.008,489.4596862792969,0.0,0.0,0.0,0.0
514369,60.0,0.0,0.0,4471.282051282052,4169.2307692307695,4306.153846153847,4829.743589743591,3779.48717948718,4224.102564102564,4258.461538461539,4126.666666666667,4396.410256410257,4089.23076923077,4277.948717948719,4288.717948717949,4397.435897435898,4384.615384615385,1681.0,1685.0,516.015,489.4596862792969,0.0,0.0,0.0,0.0
514369,61.0,0.0,0.0,4477.948717948719,4174.358974358975,4315.384615384616,4831.282051282052,3785.1282051282055,4224.102564102564,4260.512820512821,4130.769230769231,4401.025641025642,4096.410256410257,4278.461538461539,4291.282051282052,4401.538461538462,4389.2307692307695,1681.0,1686.0,516.023,489.4596862792969,0.0,0.0,0.0,0.0
514369,62.0,0.0,0.0,4475.384615384616,4182.051282051282,4318.461538461539,4841.025641025642,3784.615384615385,4226.153846153847,4258.974358974359,4120.512820512821,4395.8974358974365,4099.48717948718,4275.8974358974365,4290.256410256411,4402.051282051282,4391.282051282052,1681.0,1685.0,516.031,489.4596862792969,0.0,0.0,0.0,0.0
514369,63.0,0.0,0.0,4468.205128205129,4177.435897435898,4315.384615384616,4840.000000000001,3783.076923076924,4230.769230769231,4257.435897435898,4111.794871794872,4386.666666666667,4094.8717948717954,4273.846153846154,4288.205128205129,4398.974358974359,4388.205128205129,1680.0,1685.0,516.039,489.4596862792969,0.0,0.0,0.0,0.0
514369,64.0,0.0,476.0,4460.512820512821,4167.179487179487,4307.179487179487,4829.2307692307695,3786.1538461538466,4237.948717948719,4254.358974358975,4099.48717948718,4377.435897435898,4088.205128205129,4271.794871794872,4286.153846153847,4389.743589743591,4379.48717948718,1681.0,1685.0,516.047,489.4596862792969,0.0,0.0,0.0,0.0
514369,65.0,0.0,335.0,4461.025641025642,4169.74358974359,4304.102564102564,4829.743589743591,3789.2307692307695,4237.948717948719,4258.974358974359,4107.6923076923085,4388.205128205129,4091.2820512820517,4273.333333333334,4288.205128205129,4388.717948717949,4380.512820512821,1679.0,1686.0,516.055,489.4596862792969,0.0,0.0,0.0,0.0
514369,66.0,0.0,447.0,4472.307692307693,4183.589743589744,4313.333333333334,4840.512820512821,3787.692307692308,4224.102564102564,4264.102564102564,4130.256410256411,4406.666666666667,4102.051282051282,4286.153846153847,4293.333333333334,4405.641025641026,4394.871794871796,1681.0,1686.0,516.062,489.4596862792969,0.0,0.0,0.0,0.0
514370,67.0,0.0,328.0,4473.846153846154,4183.076923076924,4317.435897435898,4841.025641025642,3785.1282051282055,4217.948717948719,4259.48717948718,4120.000000000001,4398.974358974359,4101.025641025642,4293.333333333334,4293.333333333334,4410.769230769231,4396.410256410257,1680.0,1685.0,516.071,489.4596862792969,0.0,0.0,0.0,0.0
514370,68.0,0.0,460.0,4464.102564102564,4169.74358974359,4310.769230769231,4831.282051282052,3786.666666666667,4233.846153846154,4263.076923076924,4105.128205128206,4385.128205128206,4093.333333333334,4280.512820512821,4288.205128205129,4394.871794871796,4385.128205128206,1679.0,1686.0,516.078,489.4596862792969,0.0,0.0,0.0,0.0
514370,69.0,0.0,548.0,4466.666666666667,4173.333333333334,4308.717948717949,4831.794871794872,3790.7692307692314,4240.000000000001,4273.846153846154,4120.000000000001,4390.256410256411,4094.8717948717954,4275.384615384616,4286.666666666667,4391.794871794872,4385.128205128206,1680.0,1685.0,516.087,489.4596862792969,0.0,0.0,0.0,0.0
514370,70.0,0.0,532.0,4473.846153846154,4182.564102564103,4312.820512820514,4837.948717948719,3793.8461538461543,4225.641025641026,4272.820512820514,4132.820512820514,4398.974358974359,4100.000000000001,4281.025641025642,4289.2307692307695,4403.589743589744,4389.2307692307695,1679.0,1686.0,516.094,489.4596862792969,0.0,0.0,0.0,0.0
514371,71.0,0.0,478.0,4467.6923076923085,4175.8974358974365,4308.205128205129,4834.871794871796,3792.307692307693,4224.615384615385,4272.820512820514,4130.256410256411,4399.48717948718,4095.8974358974365,4274.871794871796,4289.74358974359,4400.512820512821,4382.564102564103,1679.0,1685.0,516.102,489.4596862792969,0.0,0.0,0.0,0.0
514371,72.0,0.0,417.0,4460.512820512821,4166.666666666667,4299.48717948718,4828.717948717949,3789.7435897435903,4235.8974358974365,4277.948717948719,4121.538461538462,4387.179487179487,4086.666666666667,4264.102564102564,4284.615384615385,4381.025641025642,4371.282051282052,1678.0,1685.0,516.109,489.4596862792969,0.0,0.0,0.0,0.0
514371,73.0,0.0,420.0,4464.102564102564,4168.717948717949,4302.564102564103,4827.6923076923085,3791.2820512820517,4238.974358974359,4273.846153846154,4109.2307692307695,4369.2307692307695,4084.1025641025644,4258.974358974359,4282.564102564103,4369.2307692307695,4368.717948717949,1679.0,1684.0,516.117,489.4596862792969,0.0,0.0,0.0,0.0
514382,74.0,0.0,487.0,4467.6923076923085,4178.461538461539,4311.282051282052,4832.307692307693,3793.8461538461543,4240.512820512821,4267.6923076923085,4100.000000000001,4363.589743589744,4084.615384615385,4256.410256410257,4285.128205128206,4371.282051282052,4371.794871794872,1679.0,1684.0,516.125,489.83502197265625,0.0,0.0,0.0,0.0
514382,75.0,0.0,446.0,4469.743589743591,4181.538461538462,4312.820512820514,4837.948717948719,3793.8461538461543,4237.948717948719,4273.846153846154,4106.666666666667,4378.461538461539,4085.1282051282055,4264.102564102564,4288.205128205129,4383.589743589744,4378.461538461539,1679.0,1682.0,516.134,489.83502197265625,0.0,0.0,0.0,0.0
514382,76.0,0.0,455.0,4473.846153846154,4176.410256410257,4312.820512820514,4839.48717948718,3791.2820512820517,4230.769230769231,4281.025641025642,4123.589743589744,4397.435897435898,4094.358974358975,4283.589743589744,4291.282051282052,4399.48717948718,4388.717948717949,1679.0,1683.0,516.141,489.83502197265625,0.0,0.0,0.0,0.0
514382,77.0,0.0,184.0,4473.846153846154,4174.358974358975,4311.282051282052,4838.974358974359,3791.7948717948725,4233.333333333334,4276.923076923077,4129.74358974359,4404.102564102564,4101.025641025642,4290.256410256411,4290.256410256411,4403.076923076924,4390.256410256411,1679.0,1682.0,516.148,489.83502197265625,0.0,0.0,0.0,0.0
514857,78.0,0.0,487.0,4465.128205128206,4173.333333333334,4302.564102564103,4836.410256410257,3793.333333333334,4241.538461538462,4269.2307692307695,4121.025641025642,4396.923076923077,4093.333333333334,4282.564102564103,4286.153846153847,4393.846153846154,4381.538461538462,1680.0,1682.0,516.156,489.8663024902344,0.0,0.0,0.0,0.0
514857,79.0,0.0,446.0,4460.512820512821,4172.820512820514,4301.025641025642,4831.794871794872,3792.820512820513,4238.461538461539,4272.820512820514,4118.461538461539,4393.333333333334,4088.717948717949,4283.076923076924,4286.666666666667,4391.794871794872,4379.48717948718,1680.0,1682.0,516.164,489.8663024902344,0.0,0.0,0.0,0.0
514857,80.0,0.0,455.0,4471.794871794872,4181.538461538462,4311.794871794872,4835.8974358974365,3795.3846153846157,4232.307692307693,4283.589743589744,4125.641025641026,4402.564102564103,4098.974358974359,4294.358974358975,4293.333333333334,4405.641025641026,4389.743589743591,1680.0,1682.0,516.172,489.8663024902344,0.0,0.0,0.0,0.0
514857,81.0,0.0,184.0,4479.48717948718,4183.589743589744,4317.435897435898,4846.153846153847,3800.0000000000005,4234.358974358975,4285.641025641026,4135.8974358974365,4413.846153846154,4107.6923076923085,4303.076923076924,4294.871794871796,4414.358974358975,4397.435897435898,1681.0,1683.0,516.18,489.8663024902344,0.0,0.0,0.0,0.0
514857,82.0,0.0,487.0,4469.743589743591,4173.846153846154,4307.6923076923085,4843.589743589744,3795.8974358974365,4232.307692307693,4278.974358974359,4136.923076923077,4410.256410256411,4102.564102564103,4297.435897435898,4289.74358974359,4407.179487179487,4392.820512820514,1681.0,1685.0,516.188,489.8663024902344,0.0,0.0,0.0,0.0
514857,83.0,0.0,446.0,4469.743589743591,4177.948717948719,4301.538461538462,4839.48717948718,3788.205128205129,4225.641025641026,4271.794871794872,4122.051282051282,4397.948717948719,4097.948717948719,4289.2307692307695,4289.2307692307695,4403.589743589744,4389.2307692307695,1682.0,1683.0,516.195,489.8663024902344,0.0,0.0,0.0,0.0
514858,84.0,0.0,455.0,4476.410256410257,4187.179487179487,4308.717948717949,4845.641025641026,3788.717948717949,4225.641025641026,4272.307692307693,4111.282051282052,4394.358974358975,4101.025641025642,4290.769230769231,4291.794871794872,4409.2307692307695,4392.307692307693,1682.0,1684.0,516.203,489.8663024902344,0.0,0.0,0.0,0.0
514858,85.0,0.0,184.0,4476.410256410257,4183.076923076924,4314.358974358975,4845.641025641026,3791.7948717948725,4231.794871794872,4277.435897435898,4117.948717948719,4397.435897435898,4100.000000000001,4290.256410256411,4291.794871794872,4409.743589743591,4393.333333333334,1683.0,1683.0,516.211,489.8663024902344,0.0,0.0,0.0,0.0
514858,86.0,0.0,487.0,4478.461538461539,4180.000000000001,4316.923076923077,4844.615384615386,3792.307692307693,4234.358974358975,4274.358974358975,4128.717948717949,4400.512820512821,4099.48717948718,4285.641025641026,4294.358974358975,4407.179487179487,4391.794871794872,1682.0,1683.0,516.22,489.8663024902344,0.0,0.0,0.0,0.0
514858,87.0,0.0,446.0,4471.794871794872,4175.8974358974365,4313.333333333334,4843.589743589744,3787.692307692308,4234.358974358975,4270.769230769231,4128.717948717949,4399.48717948718,4101.025641025642,4282.051282051282,4294.358974358975,4405.641025641026,4388.205128205129,1683.0,1684.0,516.227,489.8663024902344,0.0,0.0,0.0,0.0
514858,88.0,0.0,455.0,4457.435897435898,4168.717948717949,4301.538461538462,4831.794871794872,3786.666666666667,4240.000000000001,4274.358974358975,4119.48717948718,4393.333333333334,4095.8974358974365,4277.948717948719,4289.74358974359,4399.48717948718,4380.000000000001,1683.0,1683.0,516.235,489.8663024902344,0.0,0.0,0.0,0.0
514858,89.0,0.0,184.0,4462.051282051282,4173.333333333334,4298.974358974359,4831.794871794872,3792.307692307693,4241.538461538462,4277.435897435898,4115.384615384616,4391.282051282052,4093.8461538461543,4275.384615384616,4288.205128205129,4399.48717948718,4380.512820512821,1682.0,1684.0,516.243,489.8663024902344,0.0,0.0,0.0,0.0
514859,90.0,0.0,487.0,4472.307692307693,4180.512820512821,4306.666666666667,4843.076923076924,3789.7435897435903,4232.820512820514,4273.846153846154,4116.923076923077,4394.871794871796,4099.48717948718,4275.8974358974365,4288.205128205129,4404.615384615385,4388.205128205129,1683.0,1684.0,516.251,489.8663024902344,0.0,0.0,0.0,0.0
514859,91.0,0.0,446.0,4465.641025641026,4174.871794871796,4305.128205128206,4838.974358974359,3782.564102564103,4223.076923076924,4268.717948717949,4113.333333333334,4397.435897435898,4097.435897435898,4272.820512820514,4287.6923076923085,4400.000000000001,4385.641025641026,1683.0,1685.0,516.258,489.8663024902344,0.0,0.0,0.0,0.0
514859,92.0,0.0,455.0,4460.512820512821,4167.179487179487,4296.410256410257,4827.179487179488,3784.1025641025644,4221.538461538462,4266.153846153847,4103.589743589744,4390.769230769231,4088.717948717949,4261.538461538462,4287.179487179487,4388.717948717949,4374.358974358975,1682.0,1685.0,516.266,489.8663024902344,0.0,0.0,0.0,0.0
514859,93.0,0.0,184.0,4465.641025641026,4169.74358974359,4296.410256410257,4829.2307692307695,3785.6410256410263,4221.538461538462,4266.666666666667,4099.48717948718,4381.025641025642,4085.1282051282055,4255.384615384616,4287.179487179487,4385.128205128206,4373.846153846154,1682.0,1686.0,516.273,489.8663024902344,0.0,0.0,0.0,0.0
514859,94.0,0.0,487.0,4463.589743589744,4171.794871794872,4299.48717948718,4832.307692307693,3782.564102564103,4218.974358974359,4267.6923076923085,4107.179487179487,4381.025641025642,4087.692307692308,4260.512820512821,4287.6923076923085,4389.743589743591,4380.000000000001,1684.0,1685.0,516.281,489.8663024902344,0.0,0.0,0.0,0.0
514859,95.0,0.0,446.0,4458.461538461539,4166.666666666667,4294.358974358975,4827.179487179488,3784.1025641025644,4223.076923076924,4267.179487179487,4111.794871794872,4387.6923076923085,4090.2564102564106,4260.512820512821,4287.6923076923085,4389.2307692307695,4376.410256410257,1682.0,1686.0,516.289,489.8663024902344,0.0,0.0,0.0,0.0
514859,96.0,0.0,455.0,4460.512820512821,4167.179487179487,4285.641025641026,4825.641025641026,3785.6410256410263,4226.666666666667,4270.256410256411,4102.051282051282,4384.102564102564,4088.205128205129,4252.307692307693,4286.153846153847,4382.564102564103,4366.666666666667,1683.0,1685.0,516.297,489.8663024902344,0.0,0.0,0.0,0.0
514859,97.0,0.0,184.0,4461.538461538462,4169.74358974359,4287.6923076923085,4827.6923076923085,3784.615384615385,4226.666666666667,4274.358974358975,4095.8974358974365,4375.8974358974365,4082.564102564103,4249.74358974359,4285.641025641026,4381.025641025642,4364.102564102564,1682.0,1684.0,516.305,489.8663024902344,0.0,0.0,0.0,0.0
514859,98.0,0.0,487.0,4460.000000000001,4170.256410256411,4297.948717948719,4829.2307692307695,3784.1025641025644,4225.641025641026,4270.769230769231,4101.538461538462,4377.948717948719,4083.589743589744,4254.871794871796,4287.179487179487,4384.102564102564,4367.179487179487,1683.0,1685.0,516.313,489.8663024902344,0.0,0.0,0.0,0.0
514860,99.0,0.0,446.0,4462.051282051282,4170.256410256411,4301.538461538462,4829.743589743591,3783.076923076924,4221.538461538462,4264.615384615385,4104.615384615385,4381.538461538462,4086.666666666667,4257.435897435898,4286.666666666667,4385.641025641026,4366.666666666667,1682.0,1683.0,516.32,489.8663024902344,0.0,0.0,0.0,0.0
514860,100.0,0.0,455.0,4461.025641025642,4168.717948717949,4296.410256410257,4829.743589743591,3782.0512820512827,4216.410256410257,4262.564102564103,4104.615384615385,4382.051282051282,4085.1282051282055,4261.538461538462,4285.128205128206,4385.641025641026,4362.051282051282,1681.0,1684.0,516.328,489.8663024902344,0.0,0.0,0.0,0.0
514860,101.0,0.0,184.0,4457.435897435898,4169.74358974359,4294.871794871796,4829.2307692307695,3782.564102564103,4219.48717948718,4265.641025641026,4102.051282051282,4377.948717948719,4086.666666666667,4268.717948717949,4287.179487179487,4388.205128205129,4364.102564102564,1682.0,1683.0,516.336,489.8663024902344,0.0,0.0,0.0,0.0
514860,102.0,0.0,487.0,4462.564102564103,4171.794871794872,4300.000000000001,4830.256410256411,3783.589743589744,4227.6923076923085,4265.641025641026,4093.333333333334,4376.923076923077,4088.717948717949,4268.717948717949,4289.2307692307695,4391.794871794872,4370.769230769231,1681.0,1683.0,516.344,489.8663024902344,0.0,0.0,0.0,0.0
514860,103.0,0.0,446.0,4468.717948717949,4170.769230769231,4301.538461538462,4831.794871794872,3784.1025641025644,4224.615384615385,4264.615384615385,4094.8717948717954,4386.666666666667,4086.1538461538466,4265.641025641026,4288.717948717949,4392.307692307693,4368.205128205129,1681.0,1683.0,516.352,489.8663024902344,0.0,0.0,0.0,0.0
514860,104.0,0.0,455.0,4463.589743589744,4169.74358974359,4297.948717948719,4830.769230769231,3785.6410256410263,4222.051282051282,4267.6923076923085,4103.076923076924,4389.743589743591,4087.1794871794878,4267.179487179487,4287.179487179487,4391.282051282052,4362.564102564103,1681.0,1683.0,516.359,489.8663024902344,0.0,0.0,0.0,0.0
514860,105.0,0.0,184.0,4458.974358974359,4171.282051282052,4301.538461538462,4830.256410256411,3785.6410256410263,4231.282051282052,4269.2307692307695,4089.23076923077,4374.358974358975,4089.23076923077,4265.641025641026,4287.6923076923085,4389.743589743591,4362.051282051282,1681.0,1682.0,516.367,489.8663024902344,0.0,0.0,0.0,0.0
514860,106.0,0.0,487.0,4463.076923076924,4173.333333333334,4307.6923076923085,4832.820512820514,3785.6410256410263,4234.871794871796,4268.717948717949,4082.0512820512827,4369.2307692307695,4088.717948717949,4260.000000000001,4290.256410256411,4389.2307692307695,4361.025641025642,1679.0,1683.0,516.375,489.8663024902344,0.0,0.0,0.0,0.0
514860,107.0,0.0,446.0,4464.102564102564,4172.820512820514,4304.102564102564,4833.333333333334,3785.1282051282055,4223.076923076924,4266.666666666667,4106.153846153847,4385.128205128206,4089.7435897435903,4261.025641025642,4289.74358974359,4391.282051282052,4357.948717948719,1680.0,1684.0,516.383,489.8663024902344,0.0,0.0,0.0,0.0
514860,108.0,0.0,455.0,4458.461538461539,4170.256410256411,4294.871794871796,4828.717948717949,3778.9743589743593,4217.435897435898,4258.974358974359,4108.717948717949,4383.589743589744,4085.1282051282055,4259.48717948718,4284.615384615385,4386.666666666667,4351.794871794872,1680.0,1683.0,516.391,489.8663024902344,0.0,0.0,0.0,0.0
514861,109.0,0.0,184.0,4456.923076923077,4167.179487179487,4292.820512820514,4823.589743589744,3773.8461538461543,4224.615384615385,4252.820512820514,4086.1538461538466,4368.717948717949,4077.9487179487187,4251.794871794872,4283.076923076924,4377.948717948719,4347.6923076923085,1680.0,1685.0,516.399,489.8663024902344,0.0,0.0,0.0,0.0
514861,110.0,0.0,487.0,4459.48717948718,4167.6923076923085,4298.461538461539,4824.615384615386,3777.435897435898,4220.512820512821,4258.461538461539,4095.3846153846157,4380.000000000001,4083.076923076924,4252.820512820514,4287.179487179487,4383.076923076924,4352.820512820514,1681.0,1684.0,516.406,489.8663024902344,0.0,0.0,0.0,0.0
514861,111.0,0.0,446.0,4459.48717948718,4169.74358974359,4303.589743589744,4827.6923076923085,3777.9487179487182,4207.179487179487,4261.025641025642,4124.615384615385,4398.974358974359,4092.307692307693,4257.948717948719,4289.74358974359,4390.769230769231,4361.025641025642,1680.0,1686.0,516.414,489.8663024902344,0.0,0.0,0.0,0.0
514861,112.0,0.0,455.0,4464.615384615385,4170.256410256411,4305.641025641026,4827.6923076923085,3772.820512820513,4208.205128205129,4257.948717948719,4112.820512820514,4386.666666666667,4088.717948717949,4256.923076923077,4289.74358974359,4386.153846153847,4363.589743589744,1682.0,1684.0,516.422,489.8663024902344,0.0,0.0,0.0,0.0
514861,113.0,0.0,184.0,4471.794871794872,4171.794871794872,4310.256410256411,4830.769230769231,3775.3846153846157,4218.974358974359,4257.948717948719,4083.589743589744,4369.2307692307695,4085.1282051282055,4257.948717948719,4290.256410256411,4383.589743589744,4367.179487179487,1681.0,1685.0,516.43,489.8663024902344,0.0,0.0,0.0,0.0
514861,114.0,0.0,487.0,4472.820512820514,4171.794871794872,4315.384615384616,4832.307692307693,3782.564102564103,4224.102564102564,4258.461538461539,4094.358974358975,4379.48717948718,4090.2564102564106,4258.974358974359,4291.282051282052,4389.2307692307695,4371.794871794872,1682.0,1685.0,516.438,489.8663024902344,0.0,0.0,0.0,0.0
514861,115.0,0.0,446.0,4471.794871794872,4172.307692307693,4311.794871794872,4830.256410256411,3783.589743589744,4223.589743589744,4261.538461538462,4111.794871794872,4391.282051282052,4092.820512820513,4258.974358974359,4291.794871794872,4391.282051282052,4372.307692307693,1681.0,1685.0,516.446,489.8663024902344,0.0,0.0,0.0,0.0
514862,116.0,0.0,455.0,4471.282051282052,4171.794871794872,4308.717948717949,4836.410256410257,3785.6410256410263,4227.179487179487,4266.666666666667,4096.410256410257,4385.128205128206,4090.2564102564106,4260.000000000001,4290.769230769231,4392.307692307693,4373.333333333334,1681.0,1684.0,516.453,489.8663024902344,0.0,0.0,0.0,0.0
514862,117.0,0.0,184.0,4466.666666666667,4172.820512820514,4311.794871794872,4842.051282051283,3787.1794871794878,4231.282051282052,4269.74358974359,4091.7948717948725,4384.102564102564,4091.2820512820517,4258.461538461539,4289.74358974359,4393.846153846154,4374.871794871796,1681.0,1685.0,516.461,489.8663024902344,0.0,0.0,0.0,0.0
514862,118.0,0.0,487.0,4466.153846153847,4176.923076923077,4312.820512820514,4840.512820512821,3785.6410256410263,4232.307692307693,4270.769230769231,4116.410256410257,4393.846153846154,4092.820512820513,4257.948717948719,4289.74358974359,4392.307692307693,4374.871794871796,1682.0,1685.0,516.469,489.8663024902344,0.0,0.0,0.0,0.0
514862,119.0,0.0,446.0,4470.769230769231,4175.8974358974365,4314.358974358975,4841.025641025642,3787.1794871794878,4234.871794871796,4272.307692307693,4121.538461538462,4394.358974358975,4092.820512820513,4266.153846153847,4292.307692307693,4395.8974358974365,4375.8974358974365,1682.0,1684.0,516.477,489.8663024902344,0.0,0.0,0.0,0.0
514862,120.0,0.0,455.0,4475.384615384616,4174.358974358975,4315.8974358974365,4844.615384615386,3789.2307692307695,4234.871794871796,4273.846153846154,4105.641025641026,4390.256410256411,4095.8974358974365,4272.820512820514,4292.307692307693,4404.615384615385,4382.564102564103,1682.0,1685.0,516.485,489.8663024902344,0.0,0.0,0.0,0.0
514862,121.0,0.0,184.0,4473.333333333334,4178.974358974359,4316.410256410257,4844.615384615386,3787.692307692308,4232.820512820514,4272.820512820514,4095.8974358974365,4388.717948717949,4099.48717948718,4267.179487179487,4287.6923076923085,4406.153846153847,4383.076923076924,1682.0,1684.0,516.492,489.8663024902344,0.0,0.0,0.0,0.0
514862,122.0,0.0,487.0,4467.179487179487,4177.948717948719,4312.820512820514,4841.025641025642,3789.7435897435903,4233.846153846154,4270.769230769231,4092.820512820513,4384.102564102564,4093.8461538461543,4257.948717948719,4285.641025641026,4398.461538461539,4372.820512820514,1681.0,1685.0,516.5,489.8663024902344,0.0,0.0,0.0,0.0
514862,123.0,0.0,446.0,4467.6923076923085,4170.256410256411,4309.2307692307695,4839.48717948718,3790.7692307692314,4235.8974358974365,4272.307692307693,4100.000000000001,4385.641025641026,4088.205128205129,4254.358974358975,4289.74358974359,4391.282051282052,4369.743589743591,1683.0,1684.0,516.508,489.8663024902344,0.0,0.0,0.0,0.0
514862,124.0,0.0,455.0,4470.769230769231,4169.2307692307695,4309.743589743591,4836.410256410257,3786.1538461538466,4232.820512820514,4274.871794871796,4102.564102564103,4386.666666666667,4089.23076923077,4254.358974358975,4291.794871794872,4389.2307692307695,4372.307692307693,1682.0,1685.0,516.516,489.8663024902344,0.0,0.0,0.0,0.0
514862,125.0,0.0,184.0,4469.743589743591,4171.282051282052,4310.769230769231,4830.769230769231,3783.076923076924,4226.153846153847,4266.666666666667,4094.8717948717954,4377.435897435898,4087.692307692308,4254.871794871796,4290.256410256411,4387.179487179487,4370.769230769231,1682.0,1685.0,516.524,489.8663024902344,0.0,0.0,0.0,0.0
514863,126.0,0.0,487.0,4468.205128205129,4170.769230769231,4310.769230769231,4829.2307692307695,3783.076923076924,4223.589743589744,4258.461538461539,4093.8461538461543,4375.384615384616,4085.1282051282055,4256.923076923077,4289.2307692307695,4389.743589743591,4369.743589743591,1682.0,1685.0,516.532,489.8663024902344,0.0,0.0,0.0,0.0
514863,127.0,0.0,446.0,4465.641025641026,4170.769230769231,4308.717948717949,4830.256410256411,3782.564102564103,4226.153846153847,4263.589743589744,4100.512820512821,4384.615384615385,4087.1794871794878,4256.410256410257,4288.717948717949,4394.871794871796,4368.205128205129,1682.0,1686.0,516.539,489.8663024902344,0.0,0.0,0.0,0.0
514863,128.0,0.0,455.0,4462.564102564103,4169.74358974359,4305.641025641026,4829.2307692307695,3783.589743589744,4227.179487179487,4271.794871794872,4117.435897435898,4398.461538461539,4090.7692307692314,4257.948717948719,4289.74358974359,4393.333333333334,4365.641025641026,1681.0,1685.0,516.547,489.8663024902344,0.0,0.0,0.0,0.0
514864,0.0,0.0,476.0,4465.641025641026,4170.256410256411,4306.153846153847,4831.794871794872,3784.615384615385,4230.256410256411,4270.256410256411,4128.717948717949,4406.666666666667,4093.333333333334,4267.6923076923085,4291.794871794872,4395.8974358974365,4370.256410256411,1681.0,1685.0,516.555,489.8663024902344,0.0,0.0,0.0,0.0
514864,1.0,0.0,335.0,4470.769230769231,4173.333333333334,4311.794871794872,4839.48717948718,3784.615384615385,4236.923076923077,4264.102564102564,4104.615384615385,4398.974358974359,4095.8974358974365,4275.384615384616,4293.846153846154,4407.6923076923085,4380.512820512821,1681.0,1684.0,516.564,489.8663024902344,0.0,0.0,0.0,0.0
514864,2.0,0.0,447.0,4473.846153846154,4173.333333333334,4319.48717948718,4842.564102564103,3787.1794871794878,4234.358974358975,4268.205128205129,4086.1538461538466,4387.6923076923085,4097.435897435898,4275.384615384616,4294.871794871796,4412.820512820514,4385.641025641026,1681.0,1684.0,516.571,489.8663024902344,0.0,0.0,0.0,0.0
514865,3.0,0.0,328.0,4474.871794871796,4171.282051282052,4320.000000000001,4842.051282051283,3787.692307692308,4223.076923076924,4274.871794871796,4103.589743589744,4391.794871794872,4097.435897435898,4275.384615384616,4295.8974358974365,4409.743589743591,4385.641025641026,1681.0,1685.0,516.578,489.8663024902344,0.0,0.0,0.0,0.0
514865,4.0,0.0,460.0,4472.820512820514,4172.307692307693,4316.410256410257,4842.564102564103,3786.666666666667,4225.641025641026,4272.820512820514,4114.358974358975,4400.512820512821,4097.435897435898,4275.384615384616,4293.846153846154,4409.743589743591,4385.128205128206,1681.0,1686.0,516.586,489.8663024902344,0.0,0.0,0.0,0.0
514865,5.0,0.0,548.0,4471.794871794872,4173.333333333334,4314.358974358975,4841.025641025642,3789.2307692307695,4236.923076923077,4271.282051282052,4104.102564102564,4398.461538461539,4096.923076923077,4273.846153846154,4291.282051282052,4408.205128205129,4383.589743589744,1680.0,1687.0,516.594,489.8663024902344,0.0,0.0,0.0,0.0
514865,6.0,0.0,532.0,4473.846153846154,4172.820512820514,4316.923076923077,4842.564102564103,3790.7692307692314,4239.48717948718,4276.410256410257,4105.641025641026,4394.358974358975,4098.974358974359,4275.8974358974365,4292.307692307693,4406.666666666667,4381.025641025642,1681.0,1687.0,516.602,489.8663024902344,0.0,0.0,0.0,0.0
514865,7.0,0.0,478.0,4472.820512820514,4170.769230769231,4320.512820512821,4844.102564102564,3788.205128205129,4236.410256410257,4276.923076923077,4115.8974358974365,4392.820512820514,4096.410256410257,4275.8974358974365,4290.256410256411,4407.179487179487,4375.8974358974365,1680.0,1687.0,516.611,489.8663024902344,0.0,0.0,0.0,0.0
514865,8.0,0.0,417.0,4472.307692307693,4170.769230769231,4321.025641025642,4836.923076923077,3785.6410256410263,4232.307692307693,4272.307692307693,4121.538461538462,4395.384615384616,4093.333333333334,4270.256410256411,4290.256410256411,4404.615384615385,4374.871794871796,1680.0,1686.0,516.618,489.8663024902344,0.0,0.0,0.0,0.0
514885,9.0,0.0,420.0,4475.8974358974365,4173.846153846154,4321.025641025642,4836.410256410257,3785.1282051282055,4226.666666666667,4269.2307692307695,4122.051282051282,4396.410256410257,4096.923076923077,4270.256410256411,4293.333333333334,4404.615384615385,4378.974358974359,1679.0,1685.0,516.625,490.33544921875,0.0,0.0,0.0,0.0
514885,10.0,0.0,487.0,4471.794871794872,4174.871794871796,4316.923076923077,4843.589743589744,3784.615384615385,4230.769230769231,4266.153846153847,4106.666666666667,4388.717948717949,4096.410256410257,4276.923076923077,4291.794871794872,4407.6923076923085,4376.923076923077,1679.0,1685.0,516.634,490.33544921875,0.0,0.0,0.0,0.0
514885,11.0,0.0,446.0,4462.564102564103,4170.769230769231,4311.282051282052,4836.410256410257,3785.6410256410263,4238.461538461539,4266.153846153847,4090.2564102564106,4381.025641025642,4089.23076923077,4272.307692307693,4287.179487179487,4400.000000000001,4367.6923076923085,1680.0,1683.0,516.641,490.33544921875,0.0,0.0,0.0,0.0
514885,12.0,0.0,455.0,4460.512820512821,4168.717948717949,4308.205128205129,4830.256410256411,3787.1794871794878,4233.333333333334,4271.282051282052,4098.461538461539,4385.641025641026,4088.205128205129,4260.000000000001,4286.666666666667,4389.743589743591,4360.512820512821,1679.0,1684.0,516.65,490.33544921875,0.0,0.0,0.0,0.0
515109,13.0,0.0,184.0,4467.179487179487,4170.256410256411,4316.923076923077,4838.974358974359,3786.1538461538466,4224.102564102564,4275.8974358974365,4122.051282051282,4397.435897435898,4094.358974358975,4265.128205128206,4290.769230769231,4393.846153846154,4365.641025641026,1681.0,1683.0,516.657,490.3667297363281,0.0,0.0,0.0,0.0
515109,14.0,0.0,487.0,4472.820512820514,4170.256410256411,4326.153846153847,4839.48717948718,3785.1282051282055,4223.589743589744,4270.769230769231,4115.8974358974365,4392.820512820514,4092.820512820513,4273.333333333334,4290.769230769231,4397.435897435898,4372.820512820514,1680.0,1684.0,516.664,490.3667297363281,0.0,0.0,0.0,0.0
515109,15.0,0.0,446.0,4471.282051282052,4170.769230769231,4320.512820512821,4829.2307692307695,3784.615384615385,4227.6923076923085,4261.538461538462,4087.692307692308,4374.358974358975,4086.1538461538466,4264.102564102564,4287.6923076923085,4391.282051282052,4369.743589743591,1681.0,1684.0,516.672,490.3667297363281,0.0,0.0,0.0,0.0
515110,16.0,0.0,0.0,4467.6923076923085,4171.794871794872,4312.820512820514,4831.282051282052,3784.615384615385,4229.2307692307695,4263.589743589744,4088.717948717949,4373.846153846154,4085.6410256410263,4262.051282051282,4288.205128205129,4393.333333333334,4365.641025641026,1681.0,1685.0,516.68,490.3667297363281,0.0,0.0,0.0,0.0
515110,17.0,0.0,0.0,4466.153846153847,4168.205128205129,4310.256410256411,4833.333333333334,3785.6410256410263,4227.179487179487,4267.179487179487,4108.717948717949,4385.641025641026,4085.6410256410263,4269.74358974359,4286.666666666667,4395.384615384616,4364.102564102564,1681.0,1686.0,516.688,490.3667297363281,0.0,0.0,0.0,0.0
515110,18.0,0.0,0.0,4463.589743589744,4166.666666666667,4309.2307692307695,4827.6923076923085,3785.1282051282055,4232.307692307693,4268.717948717949,4112.307692307693,4388.205128205129,4088.717948717949,4265.641025641026,4283.589743589744,4389.2307692307695,4360.000000000001,1681.0,1686.0,516.696,490.3667297363281,0.0,0.0,0.0,0.0
515110,19.0,0.0,0.0,4462.564102564103,4169.2307692307695,4310.256410256411,4827.6923076923085,3785.6410256410263,4238.461538461539,4273.846153846154,4120.000000000001,4392.307692307693,4094.358974358975,4258.974358974359,4285.641025641026,4388.205128205129,4360.000000000001,1681.0,1686.0,516.704,490.3667297363281,0.0,0.0,0.0,0.0
515111,20.0,0.0,0.0,4467.179487179487,4170.256410256411,4314.358974358975,4830.256410256411,3786.666666666667,4230.769230769231,4269.74358974359,4131.794871794872,4398.974358974359,4096.410256410257,4262.051282051282,4290.256410256411,4393.846153846154,4365.641025641026,1681.0,1685.0,516.711,490.3667297363281,0.0,0.0,0.0,0.0
515111,21.0,0.0,0.0,4469.2307692307695,4167.6923076923085,4315.384615384616,4831.282051282052,3784.1025641025644,4222.051282051282,4256.923076923077,4117.948717948719,4393.333333333334,4092.820512820513,4263.076923076924,4289.2307692307695,4395.384615384616,4368.717948717949,1682.0,1686.0,516.719,490.3667297363281,0.0,0.0,0.0,0.0
515111,22.0,0.0,0.0,4461.025641025642,4168.205128205129,4310.769230769231,4829.743589743591,3781.538461538462,4226.666666666667,4257.948717948719,4095.8974358974365,4380.512820512821,4086.666666666667,4257.948717948719,4287.179487179487,4389.2307692307695,4363.589743589744,1682.0,1685.0,516.727,490.3667297363281,0.0,0.0,0.0,0.0
515111,23.0,0.0,0.0,4456.410256410257,4166.666666666667,4304.615384615385,4825.128205128206,3784.1025641025644,4227.6923076923085,4266.153846153847,4098.461538461539,4378.974358974359,4083.076923076924,4251.282051282052,4287.6923076923085,4378.974358974359,4356.923076923077,1681.0,1686.0,516.736,490.3667297363281,0.0,0.0,0.0,0.0
515111,24.0,0.0,0.0,4458.461538461539,4160.512820512821,4297.948717948719,4824.615384615386,3783.076923076924,4223.076923076924,4260.512820512821,4108.717948717949,4380.000000000001,4081.538461538462,4245.128205128206,4287.6923076923085,4371.794871794872,4353.333333333334,1682.0,1686.0,516.743,490.3667297363281,0.0,0.0,0.0,0.0
515112,25.0,0.0,0.0,4458.974358974359,4162.564102564103,4300.512820512821,4826.153846153847,3777.9487179487182,4223.589743589744,4254.871794871796,4106.666666666667,4373.846153846154,4079.48717948718,4241.538461538462,4284.615384615385,4371.794871794872,4353.333333333334,1681.0,1686.0,516.751,490.3667297363281,0.0,0.0,0.0,0.0
515112,26.0,0.0,0.0,4462.051282051282,4169.74358974359,4311.282051282052,4827.179487179488,3779.48717948718,4222.564102564103,4263.076923076924,4104.102564102564,4378.974358974359,4082.564102564103,4251.794871794872,4287.6923076923085,4382.564102564103,4361.538461538462,1682.0,1686.0,516.758,490.3667297363281,0.0,0.0,0.0,0.0
515112,27.0,0.0,0.0,4472.820512820514,4170.769230769231,4316.923076923077,4831.282051282052,3784.615384615385,4221.538461538462,4268.205128205129,4108.205128205129,4392.307692307693,4092.307692307693,4268.717948717949,4292.820512820514,4396.923076923077,4372.820512820514,1682.0,1684.0,516.766,490.3667297363281,0.0,0.0,0.0,0.0
515112,28.0,0.0,0.0,4473.846153846154,4168.205128205129,4312.307692307693,4833.333333333334,3785.1282051282055,4226.153846153847,4265.128205128206,4115.8974358974365,4394.358974358975,4094.358974358975,4268.205128205129,4290.256410256411,4395.8974358974365,4372.820512820514,1681.0,1685.0,516.774,490.3667297363281,0.0,0.0,0.0,0.0
515112,29.0,0.0,0.0,4465.128205128206,4169.74358974359,4310.256410256411,4830.769230769231,3784.615384615385,4229.74358974359,4265.641025641026,4121.538461538462,4393.846153846154,4089.7435897435903,4258.461538461539,4289.2307692307695,4388.717948717949,4367.179487179487,1681.0,1685.0,516.782,490.3667297363281,0.0,0.0,0.0,0.0
515113,30.0,0.0,0.0,4468.205128205129,4169.2307692307695,4314.871794871796,4830.769230769231,3785.6410256410263,4227.6923076923085,4264.102564102564,4105.641025641026,4391.282051282052,4088.205128205129,4257.948717948719,4291.794871794872,4391.282051282052,4367.6923076923085,1682.0,1686.0,516.79,490.3667297363281,0.0,0.0,0.0,0.0
515113,31.0,0.0,0.0,4474.358974358975,4168.717948717949,4314.871794871796,4829.743589743591,3784.1025641025644,4226.666666666667,4255.8974358974365,4084.615384615385,4377.435897435898,4085.6410256410263,4257.435897435898,4291.794871794872,4392.307692307693,4369.743589743591,1681.0,1686.0,516.797,490.3667297363281,0.0,0.0,0.0,0.0
515113,32.0,0.0,0.0,4472.820512820514,4170.256410256411,4313.333333333334,4828.717948717949,3778.9743589743593,4222.051282051282,4252.307692307693,4090.7692307692314,4370.256410256411,4083.076923076924,4257.435897435898,4292.820512820514,4390.769230769231,4372.820512820514,1681.0,1687.0,516.805,490.3667297363281,0.0,0.0,0.0,0.0
515114,33.0,0.0,0.0,4468.717948717949,4166.666666666667,4314.871794871796,4828.717948717949,3774.8717948717954,4212.820512820514,4252.820512820514,4100.000000000001,4374.358974358975,4083.076923076924,4262.051282051282,4292.820512820514,4391.282051282052,4372.307692307693,1682.0,1686.0,516.813,490.3667297363281,0.0,0.0,0.0,0.0
515114,34.0,0.0,0.0,4462.564102564103,4161.025641025642,4311.794871794872,4826.153846153847,3775.3846153846157,4216.410256410257,4250.256410256411,4094.358974358975,4373.846153846154,4080.0000000000005,4257.948717948719,4286.666666666667,4382.051282051282,4361.025641025642,1681.0,1688.0,516.821,490.3667297363281,0.0,0.0,0.0,0.0
515114,35.0,0.0,0.0,4462.564102564103,4163.589743589744,4308.717948717949,4825.128205128206,3778.461538461539,4225.128205128206,4249.74358974359,4097.948717948719,4373.333333333334,4076.9230769230776,4253.846153846154,4284.615384615385,4378.461538461539,4359.48717948718,1683.0,1687.0,516.829,490.3667297363281,0.0,0.0,0.0,0.0
515115,36.0,0.0,0.0,4472.307692307693,4169.2307692307695,4313.846153846154,4828.717948717949,3774.358974358975,4217.948717948719,4250.256410256411,4098.974358974359,4375.8974358974365,4081.538461538462,4263.589743589744,4289.74358974359,4391.282051282052,4373.846153846154,1681.0,1687.0,516.836,490.3667297363281,0.0,0.0,0.0,0.0
515115,37.0,0.0,0.0,4474.358974358975,4170.769230769231,4317.435897435898,4829.743589743591,3772.307692307693,4205.641025641026,4250.769230769231,4097.435897435898,4382.051282051282,4086.1538461538466,4272.820512820514,4291.282051282052,4398.461538461539,4380.512820512821,1682.0,1686.0,516.844,490.3667297363281,0.0,0.0,0.0,0.0
515115,38.0,0.0,0.0,4467.179487179487,4165.128205128206,4313.333333333334,4827.6923076923085,3778.461538461539,4212.820512820514,4254.871794871796,4116.410256410257,4393.333333333334,4085.1282051282055,4269.74358974359,4289.2307692307695,4392.820512820514,4376.410256410257,1681.0,1686.0,516.852,490.3667297363281,0.0,0.0,0.0,0.0
515115,39.0,0.0,0.0,4462.564102564103,4158.461538461539,4304.615384615385,4822.564102564103,3780.0000000000005,4225.128205128206,4256.410256410257,4114.871794871796,4385.641025641026,4082.564102564103,4260.000000000001,4285.641025641026,4384.615384615385,4370.769230769231,1681.0,1687.0,516.86,490.3667297363281,0.0,0.0,0.0,0.0
515115,40.0,0.0,0.0,4458.461538461539,4161.025641025642,4300.000000000001,4819.48717948718,3771.794871794872,4220.000000000001,4246.153846153847,4082.0512820512827,4360.512820512821,4078.461538461539,4254.358974358975,4282.051282051282,4379.48717948718,4365.641025641026,1682.0,1685.0,516.868,490.3667297363281,0.0,0.0,0.0,0.0
515236,41.0,0.0,0.0,4458.461538461539,4163.589743589744,4300.512820512821,4823.589743589744,3766.1538461538466,4206.666666666667,4235.384615384616,4072.820512820513,4353.333333333334,4076.9230769230776,4254.871794871796,4285.128205128206,4380.512820512821,4365.641025641026,1681.0,1686.0,516.876,490.5856628417969,0.0,0.0,0.0,0.0
515236,42.0,0.0,0.0,4462.051282051282,4163.589743589744,4305.641025641026,4827.6923076923085,3767.692307692308,4203.589743589744,4239.48717948718,4091.2820512820517,4363.076923076924,4082.0512820512827,4255.8974358974365,4288.717948717949,4382.564102564103,4370.256410256411,1681.0,1685.0,516.883,490.5856628417969,0.0,0.0,0.0,0.0
515236,43.0,0.0,0.0,4460.000000000001,4162.051282051282,4305.641025641026,4826.666666666667,3769.7435897435903,4209.2307692307695,4245.128205128206,4094.358974358975,4363.589743589744,4081.0256410256416,4253.846153846154,4286.666666666667,4377.948717948719,4370.256410256411,1681.0,1686.0,516.891,490.5856628417969,0.0,0.0,0.0,0.0
515236,44.0,0.0,0.0,4455.8974358974365,4161.025641025642,4298.974358974359,4822.051282051282,3768.717948717949,4213.846153846154,4242.564102564103,4079.48717948718,4350.769230769231,4071.7948717948725,4252.307692307693,4284.615384615385,4371.282051282052,4362.051282051282,1682.0,1684.0,516.899,490.5856628417969,0.0,0.0,0.0,0.0
515236,45.0,0.0,0.0,4455.8974358974365,4161.538461538462,4295.384615384616,4818.461538461539,3768.205128205129,4209.74358974359,4241.538461538462,4080.0000000000005,4353.846153846154,4070.2564102564106,4253.846153846154,4284.615384615385,4371.794871794872,4359.48717948718,1681.0,1686.0,516.907,490.5856628417969,0.0,0.0,0.0,0.0
515237,46.0,0.0,0.0,4457.948717948719,4166.666666666667,4298.974358974359,4822.051282051282,3768.205128205129,4201.538461538462,4241.025641025642,4092.307692307693,4368.717948717949,4075.3846153846157,4256.410256410257,4286.153846153847,4378.974358974359,4365.641025641026,1682.0,1686.0,516.915,490.5856628417969,0.0,0.0,0.0,0.0
515237,47.0,0.0,0.0,4461.538461538462,4168.205128205129,4300.512820512821,4826.666666666667,3769.7435897435903,4204.615384615385,4237.948717948719,4085.6410256410263,4365.641025641026,4076.410256410257,4259.48717948718,4287.6923076923085,4381.538461538462,4372.307692307693,1681.0,1685.0,516.922,490.5856628417969,0.0,0.0,0.0,0.0
515237,48.0,0.0,0.0,4465.641025641026,4166.153846153847,4301.538461538462,4826.153846153847,3769.2307692307695,4211.282051282052,4240.512820512821,4077.9487179487187,4358.461538461539,4076.9230769230776,4259.48717948718,4287.6923076923085,4380.512820512821,4373.846153846154,1682.0,1686.0,516.93,490.5856628417969,0.0,0.0,0.0,0.0
515237,49.0,0.0,0.0,4466.666666666667,4166.153846153847,4307.179487179487,4826.666666666667,3768.205128205129,4207.179487179487,4243.076923076924,4094.8717948717954,4367.6923076923085,4078.461538461539,4256.410256410257,4286.666666666667,4382.051282051282,4374.358974358975,1682.0,1685.0,516.938,490.5856628417969,0.0,0.0,0.0,0.0
515237,50.0,0.0,0.0,4467.6923076923085,4164.102564102564,4310.769230769231,4827.6923076923085,3768.205128205129,4203.589743589744,4239.48717948718,4101.538461538462,4368.717948717949,4077.9487179487187,4256.410256410257,4288.205128205129,4381.025641025642,4374.358974358975,1682.0,1685.0,516.946,490.5856628417969,0.0,0.0,0.0,0.0
515237,51.0,0.0,0.0,4470.256410256411,4166.666666666667,4313.333333333334,4827.179487179488,3768.205128205129,4208.205128205129,4244.102564102564,4084.1025641025644,4361.025641025642,4080.0000000000005,4262.051282051282,4290.256410256411,4380.000000000001,4378.974358974359,1682.0,1684.0,516.954,490.5856628417969,0.0,0.0,0.0,0.0
515237,52.0,0.0,0.0,4471.282051282052,4171.282051282052,4315.384615384616,4829.743589743591,3768.717948717949,4211.282051282052,4250.769230769231,4076.9230769230776,4361.025641025642,4081.538461538462,4264.615384615385,4289.74358974359,4384.615384615385,4384.102564102564,1681.0,1684.0,516.962,490.5856628417969,0.0,0.0,0.0,0.0
515238,53.0,0.0,0.0,4465.641025641026,4168.205128205129,4310.769230769231,4830.256410256411,3770.2564102564106,4212.307692307693,4246.666666666667,4081.538461538462,4358.974358974359,4076.9230769230776,4259.48717948718,4286.153846153847,4383.076923076924,4374.871794871796,1682.0,1684.0,516.969,490.5856628417969,0.0,0.0,0.0,0.0
515238,54.0,0.0,0.0,4460.512820512821,4166.153846153847,4306.666666666667,4826.153846153847,3770.2564102564106,4212.820512820514,4244.102564102564,4087.1794871794878,4358.461538461539,4073.8461538461543,4255.8974358974365,4283.589743589744,4373.846153846154,4364.615384615385,1682.0,1685.0,516.977,490.5856628417969,0.0,0.0,0.0,0.0
515238,55.0,0.0,0.0,4465.128205128206,4167.6923076923085,4311.794871794872,4825.641025641026,3769.2307692307695,4211.282051282052,4246.666666666667,4091.2820512820517,4363.076923076924,4078.461538461539,4258.461538461539,4285.641025641026,4372.307692307693,4367.6923076923085,1681.0,1684.0,516.985,490.5856628417969,0.0,0.0,0.0,0.0
515238,56.0,0.0,0.0,4469.743589743591,4167.179487179487,4314.871794871796,4830.769230769231,3769.2307692307695,4209.2307692307695,4243.076923076924,4088.205128205129,4361.538461538462,4082.0512820512827,4264.102564102564,4288.205128205129,4377.435897435898,4373.333333333334,1681.0,1684.0,516.993,490.5856628417969,0.0,0.0,0.0,0.0
515365,57.0,0.0,0.0,4464.615384615385,4166.153846153847,4306.153846153847,4827.179487179488,3768.717948717949,4211.282051282052,4237.948717948719,4076.9230769230776,4357.948717948719,4076.410256410257,4260.000000000001,4287.179487179487,4371.794871794872,4367.6923076923085,1681.0,1684.0,517.002,490.71075439453125,0.0,0.0,0.0,0.0
515365,58.0,0.0,0.0,4454.358974358975,4163.076923076924,4296.923076923077,4816.923076923077,3767.692307692308,4220.000000000001,4238.974358974359,4069.23076923077,4352.820512820514,4066.666666666667,4243.589743589744,4281.538461538462,4356.410256410257,4354.358974358975,1681.0,1685.0,517.008,490.71075439453125,0.0,0.0,0.0,0.0
515365,59.0,0.0,0.0,4456.410256410257,4160.000000000001,4297.435897435898,4819.48717948718,3771.794871794872,4226.153846153847,4240.000000000001,4071.7948717948725,4347.179487179487,4068.205128205129,4241.025641025642,4282.051282051282,4351.794871794872,4350.256410256411,1682.0,1684.0,517.016,490.71075439453125,0.0,0.0,0.0,0.0
515365,60.0,0.0,0.0,4469.743589743591,4164.102564102564,4307.6923076923085,4829.743589743591,3773.8461538461543,4221.025641025642,4243.076923076924,4086.666666666667,4360.000000000001,4078.9743589743593,4258.974358974359,4290.769230769231,4367.6923076923085,4367.179487179487,1682.0,1685.0,517.025,490.71075439453125,0.0,0.0,0.0,0.0
515366,61.0,0.0,0.0,4477.948717948719,4170.256410256411,4316.923076923077,4831.794871794872,3774.8717948717954,4211.794871794872,4249.74358974359,4101.538461538462,4377.948717948719,4086.1538461538466,4272.820512820514,4294.358974358975,4388.205128205129,4386.153846153847,1682.0,1685.0,517.032,490.71075439453125,0.0,0.0,0.0,0.0
515366,62.0,0.0,0.0,4478.461538461539,4170.256410256411,4318.461538461539,4831.282051282052,3775.8974358974365,4210.256410256411,4250.769230769231,4095.3846153846157,4373.333333333334,4086.1538461538466,4273.846153846154,4293.846153846154,4397.948717948719,4390.769230769231,1682.0,1686.0,517.04,490.71075439453125,0.0,0.0,0.0,0.0
515366,63.0,0.0,0.0,4474.871794871796,4169.2307692307695,4314.358974358975,4833.846153846154,3774.358974358975,4213.333333333334,4250.256410256411,4081.0256410256416,4360.000000000001,4082.0512820512827,4270.256410256411,4291.794871794872,4390.769230769231,4384.615384615385,1682.0,1685.0,517.048,490.71075439453125,0.0,0.0,0.0,0.0
515366,64.0,0.0,476.0,4464.615384615385,4163.589743589744,4304.102564102564,4824.615384615386,3771.2820512820517,4214.358974358975,4249.2307692307695,4084.615384615385,4357.948717948719,4077.435897435898,4260.512820512821,4286.666666666667,4371.794871794872,4370.769230769231,1681.0,1685.0,517.055,490.71075439453125,0.0,0.0,0.0,0.0
515366,65.0,0.0,335.0,4453.846153846154,4158.461538461539,4296.923076923077,4815.384615384616,3769.2307692307695,4210.256410256411,4238.461538461539,4090.7692307692314,4361.538461538462,4075.3846153846157,4251.794871794872,4283.076923076924,4362.564102564103,4360.000000000001,1683.0,1684.0,517.063,490.71075439453125,0.0,0.0,0.0,0.0
515366,66.0,0.0,447.0,4461.025641025642,4164.615384615385,4298.974358974359,4824.102564102564,3769.7435897435903,4207.179487179487,4228.717948717949,4076.9230769230776,4356.410256410257,4076.410256410257,4255.384615384616,4284.615384615385,4369.2307692307695,4367.6923076923085,1682.0,1683.0,517.071,490.71075439453125,0.0,0.0,0.0,0.0
515367,67.0,0.0,328.0,4476.410256410257,4172.820512820514,4311.794871794872,4832.820512820514,3772.820512820513,4208.205128205129,4240.000000000001,4076.9230769230776,4354.871794871796,4081.0256410256416,4267.179487179487,4290.256410256411,4380.000000000001,4381.025641025642,1682.0,1684.0,517.079,490.71075439453125,0.0,0.0,0.0,0.0
515367,68.0,0.0,460.0,4479.48717948718,4170.769230769231,4323.589743589744,4835.8974358974365,3774.358974358975,4212.307692307693,4251.794871794872,4101.025641025642,4366.153846153847,4087.1794871794878,4278.974358974359,4292.820512820514,4386.666666666667,4387.6923076923085,1682.0,1681.0,517.088,490.71075439453125,0.0,0.0,0.0,0.0
515367,69.0,0.0,548.0,4476.410256410257,4169.2307692307695,4323.076923076924,4839.48717948718,3774.358974358975,4212.307692307693,4250.769230769231,4109.2307692307695,4370.256410256411,4086.666666666667,4282.564102564103,4291.794871794872,4389.743589743591,4392.820512820514,1682.0,1683.0,517.095,490.71075439453125,0.0,0.0,0.0,0.0
515367,70.0,0.0,532.0,4475.8974358974365,4171.282051282052,4321.538461538462,4837.435897435898,3775.3846153846157,4209.74358974359,4246.153846153847,4093.8461538461543,4362.564102564103,4082.564102564103,4279.48717948718,4292.307692307693,4388.717948717949,4393.333333333334,1682.0,1682.0,517.102,490.71075439453125,0.0,0.0,0.0,0.0
515367,71.0,0.0,478.0,4475.8974358974365,4170.769230769231,4323.076923076924,4833.846153846154,3777.435897435898,4214.358974358975,4243.589743589744,4082.564102564103,4362.564102564103,4082.0512820512827,4275.8974358974365,4291.282051282052,4389.2307692307695,4388.205128205129,1681.0,1683.0,517.11,490.71075439453125,0.0,0.0,0.0,0.0
515367,72.0,0.0,417.0,4476.923076923077,4171.794871794872,4322.051282051282,4840.000000000001,3781.538461538462,4225.128205128206,4246.153846153847,4086.666666666667,4373.846153846154,4085.6410256410263,4279.48717948718,4289.74358974359,4394.358974358975,4389.743589743591,1682.0,1683.0,517.119,490.71075439453125,0.0,0.0,0.0,0.0
515388,73.0,0.0,420.0,4477.435897435898,4172.820512820514,4321.025641025642,4845.128205128206,3784.615384615385,4226.666666666667,4250.769230769231,4094.8717948717954,4378.974358974359,4089.23076923077,4284.102564102564,4290.769230769231,4397.948717948719,4393.333333333334,1681.0,1685.0,517.126,490.83587646484375,0.0,0.0,0.0,0.0
515389,74.0,0.0,487.0,4469.2307692307695,4172.307692307693,4321.025641025642,4840.000000000001,3779.48717948718,4220.512820512821,4246.666666666667,4097.948717948719,4375.8974358974365,4088.717948717949,4283.076923076924,4292.307692307693,4395.8974358974365,4388.717948717949,1681.0,1685.0,517.135,490.83587646484375,0.0,0.0,0.0,0.0
515389,75.0,0.0,446.0,4464.615384615385,4170.256410256411,4316.923076923077,4832.820512820514,3773.8461538461543,4222.051282051282,4243.076923076924,4094.358974358975,4370.769230769231,4084.615384615385,4277.948717948719,4291.794871794872,4389.743589743591,4382.564102564103,1680.0,1685.0,517.143,490.83587646484375,0.0,0.0,0.0,0.0
515389,76.0,0.0,455.0,4467.6923076923085,4167.179487179487,4312.820512820514,4830.769230769231,3776.410256410257,4226.666666666667,4246.666666666667,4085.1282051282055,4362.564102564103,4081.538461538462,4273.333333333334,4289.2307692307695,4386.666666666667,4380.512820512821,1682.0,1685.0,517.15,490.83587646484375,0.0,0.0,0.0,0.0
515484,77.0,0.0,184.0,4465.641025641026,4167.6923076923085,4314.358974358975,4830.769230769231,3783.076923076924,4228.205128205129,4250.769230769231,4090.2564102564106,4364.615384615385,4083.589743589744,4272.307692307693,4290.256410256411,4388.205128205129,4380.000000000001,1681.0,1685.0,517.158,490.8671569824219,0.0,0.0,0.0,0.0
515484,78.0,0.0,487.0,4463.076923076924,4169.74358974359,4312.820512820514,4830.769230769231,3784.615384615385,4220.512820512821,4255.384615384616,4106.666666666667,4375.384615384616,4086.1538461538466,4275.384615384616,4293.333333333334,4387.6923076923085,4381.538461538462,1682.0,1686.0,517.166,490.8671569824219,0.0,0.0,0.0,0.0
515484,79.0,0.0,446.0,4471.282051282052,4170.256410256411,4314.358974358975,4835.8974358974365,3781.538461538462,4211.794871794872,4256.923076923077,4102.564102564103,4372.307692307693,4085.6410256410263,4280.000000000001,4293.846153846154,4391.282051282052,4384.102564102564,1682.0,1685.0,517.173,490.8671569824219,0.0,0.0,0.0,0.0
515484,80.0,0.0,455.0,4476.923076923077,4169.74358974359,4320.000000000001,4841.025641025642,3780.512820512821,4216.410256410257,4256.410256410257,4089.23076923077,4360.000000000001,4085.6410256410263,4283.589743589744,4293.846153846154,4396.923076923077,4385.641025641026,1681.0,1687.0,517.181,490.8671569824219,0.0,0.0,0.0,0.0
515485,81.0,0.0,184.0,4470.769230769231,4170.769230769231,4321.538461538462,4837.435897435898,3784.615384615385,4222.051282051282,4259.48717948718,4098.974358974359,4368.717948717949,4088.717948717949,4285.128205128206,4293.846153846154,4395.8974358974365,4386.153846153847,1682.0,1686.0,517.188,490.8671569824219,0.0,0.0,0.0,0.0
515485,82.0,0.0,487.0,4463.589743589744,4170.256410256411,4317.435897435898,4832.820512820514,3785.6410256410263,4221.025641025642,4258.974358974359,4105.128205128206,4381.538461538462,4090.2564102564106,4283.589743589744,4291.282051282052,4390.769230769231,4378.974358974359,1681.0,1687.0,517.196,490.8671569824219,0.0,0.0,0.0,0.0
515485,83.0,0.0,446.0,4460.512820512821,4168.717948717949,4311.794871794872,4832.307692307693,3783.076923076924,4226.666666666667,4253.846153846154,4086.1538461538466,4367.179487179487,4086.666666666667,4276.923076923077,4288.205128205129,4389.2307692307695,4368.205128205129,1683.0,1687.0,517.204,490.8671569824219,0.0,0.0,0.0,0.0
515485,84.0,0.0,455.0,4459.48717948718,4168.717948717949,4308.717948717949,4830.256410256411,3783.589743589744,4230.256410256411,4254.358974358975,4083.076923076924,4356.923076923077,4080.5128205128212,4270.769230769231,4287.179487179487,4387.179487179487,4366.153846153847,1681.0,1686.0,517.212,490.8671569824219,0.0,0.0,0.0,0.0
515486,85.0,0.0,184.0,4457.435897435898,4168.205128205129,4305.128205128206,4827.6923076923085,3782.0512820512827,4222.051282051282,4257.948717948719,4099.48717948718,4369.743589743591,4077.9487179487187,4268.717948717949,4287.179487179487,4383.589743589744,4367.6923076923085,1681.0,1685.0,517.221,490.8671569824219,0.0,0.0,0.0,0.0
515486,86.0,0.0,487.0,4452.820512820514,4166.666666666667,4303.589743589744,4826.153846153847,3774.358974358975,4217.435897435898,4257.435897435898,4099.48717948718,4370.256410256411,4078.461538461539,4268.205128205129,4287.179487179487,4381.025641025642,4363.589743589744,1681.0,1684.0,517.227,490.8671569824219,0.0,0.0,0.0,0.0
515486,87.0,0.0,446.0,4458.461538461539,4167.179487179487,4312.820512820514,4828.205128205129,3775.8974358974365,4221.025641025642,4255.384615384616,4093.333333333334,4364.102564102564,4080.0000000000005,4268.205128205129,4290.256410256411,4381.538461538462,4365.128205128206,1681.0,1684.0,517.236,490.8671569824219,0.0,0.0,0.0,0.0
515486,88.0,0.0,455.0,4470.769230769231,4171.794871794872,4326.153846153847,4833.846153846154,3782.0512820512827,4216.923076923077,4253.333333333334,4098.461538461539,4372.820512820514,4083.589743589744,4274.358974358975,4292.820512820514,4390.256410256411,4371.794871794872,1680.0,1682.0,517.243,490.8671569824219,0.0,0.0,0.0,0.0
516087,89.0,0.0,184.0,4471.794871794872,4172.307692307693,4325.128205128206,4834.871794871796,3777.9487179487182,4209.2307692307695,4249.74358974359,4092.820512820513,4371.794871794872,4083.589743589744,4277.435897435898,4289.74358974359,4396.410256410257,4367.179487179487,1680.0,1684.0,517.251,490.96099853515625,0.0,0.0,0.0,0.0
516087,90.0,0.0,487.0,4462.564102564103,4167.6923076923085,4314.871794871796,4830.256410256411,3774.358974358975,4216.923076923077,4251.282051282052,4076.410256410257,4356.410256410257,4078.461538461539,4271.282051282052,4286.153846153847,4391.794871794872,4357.435897435898,1681.0,1682.0,517.259,490.96099853515625,0.0,0.0,0.0,0.0
516087,91.0,0.0,446.0,4458.974358974359,4167.179487179487,4313.333333333334,4827.6923076923085,3779.48717948718,4226.153846153847,4254.358974358975,4083.076923076924,4363.076923076924,4078.461538461539,4268.205128205129,4285.641025641026,4388.717948717949,4354.358974358975,1680.0,1684.0,517.267,490.96099853515625,0.0,0.0,0.0,0.0
516088,92.0,0.0,455.0,4463.076923076924,4170.769230769231,4314.871794871796,4830.256410256411,3784.1025641025644,4221.025641025642,4252.307692307693,4093.8461538461543,4374.358974358975,4080.0000000000005,4270.769230769231,4287.6923076923085,4388.717948717949,4354.871794871796,1681.0,1684.0,517.274,490.96099853515625,0.0,0.0,0.0,0.0
516088,93.0,0.0,184.0,4464.102564102564,4169.74358974359,4316.410256410257,4831.794871794872,3780.512820512821,4216.410256410257,4248.205128205129,4077.435897435898,4359.48717948718,4081.0256410256416,4269.2307692307695,4289.2307692307695,4383.076923076924,4356.410256410257,1680.0,1684.0,517.282,490.96099853515625,0.0,0.0,0.0,0.0
516088,94.0,0.0,487.0,4460.000000000001,4166.153846153847,4317.435897435898,4829.743589743591,3780.0000000000005,4223.589743589744,4248.205128205129,4072.307692307693,4350.769230769231,4078.461538461539,4266.153846153847,4287.179487179487,4378.974358974359,4356.923076923077,1681.0,1684.0,517.29,490.96099853515625,0.0,0.0,0.0,0.0
516088,95.0,0.0,446.0,4456.410256410257,4166.153846153847,4315.384615384616,4827.179487179488,3783.076923076924,4227.179487179487,4251.794871794872,4090.7692307692314,4360.512820512821,4075.3846153846157,4265.641025641026,4286.153846153847,4381.025641025642,4354.358974358975,1681.0,1683.0,517.808,490.96099853515625,0.0,0.0,0.0,0.0
516088,96.0,0.0,455.0,4463.076923076924,4169.74358974359,4319.48717948718,4828.717948717949,3783.076923076924,4217.948717948719,4253.846153846154,4096.410256410257,4367.6923076923085,4083.076923076924,4276.923076923077,4290.769230769231,4389.2307692307695,4364.102564102564,1682.0,1684.0,517.814,490.96099853515625,0.0,0.0,0.0,0.0
516089,97.0,0.0,184.0,4475.384615384616,4172.307692307693,4332.307692307693,4832.307692307693,3783.589743589744,4212.820512820514,4256.923076923077,4095.8974358974365,4377.435897435898,4098.461538461539,4295.8974358974365,4296.923076923077,4404.102564102564,4384.615384615385,1681.0,1683.0,517.814,490.96099853515625,0.0,0.0,0.0,0.0
516089,98.0,0.0,487.0,4471.282051282052,4169.74358974359,4334.358974358975,4830.769230769231,3783.076923076924,4211.794871794872,4257.435897435898,4105.641025641026,4384.615384615385,4097.948717948719,4295.384615384616,4295.384615384616,4403.589743589744,4386.153846153847,1682.0,1684.0,517.814,490.96099853515625,0.0,0.0,0.0,0.0
516089,99.0,0.0,446.0,4457.948717948719,4165.641025641026,4322.564102564103,4827.6923076923085,3780.0000000000005,4204.615384615385,4249.2307692307695,4104.615384615385,4375.8974358974365,4081.538461538462,4280.512820512821,4289.74358974359,4385.128205128206,4369.743589743591,1681.0,1683.0,517.814,490.96099853515625,0.0,0.0,0.0,0.0
516089,100.0,0.0,455.0,4457.948717948719,4167.6923076923085,4318.461538461539,4827.6923076923085,3774.358974358975,4200.512820512821,4239.48717948718,4089.7435897435903,4368.205128205129,4076.410256410257,4282.051282051282,4289.2307692307695,4380.512820512821,4366.153846153847,1681.0,1685.0,517.814,490.96099853515625,0.0,0.0,0.0,0.0
516089,101.0,0.0,184.0,4470.769230769231,4171.282051282052,4324.615384615385,4830.256410256411,3772.307692307693,4205.128205128206,4236.923076923077,4084.615384615385,4372.820512820514,4082.564102564103,4289.2307692307695,4290.256410256411,4392.820512820514,4374.358974358975,1682.0,1683.0,517.814,490.96099853515625,0.0,0.0,0.0,0.0
516090,102.0,0.0,487.0,4471.282051282052,4168.717948717949,4322.051282051282,4829.2307692307695,3778.461538461539,4212.820512820514,4245.128205128206,4087.692307692308,4374.358974358975,4084.615384615385,4286.153846153847,4287.6923076923085,4393.333333333334,4372.820512820514,1680.0,1685.0,517.814,490.96099853515625,0.0,0.0,0.0,0.0
516090,103.0,0.0,446.0,4461.538461538462,4166.666666666667,4316.410256410257,4828.205128205129,3783.589743589744,4220.000000000001,4252.307692307693,4085.6410256410263,4365.128205128206,4082.564102564103,4285.641025641026,4288.205128205129,4385.128205128206,4370.256410256411,1682.0,1684.0,517.814,490.96099853515625,0.0,0.0,0.0,0.0
516090,104.0,0.0,455.0,4462.564102564103,4168.205128205129,4319.48717948718,4830.769230769231,3781.538461538462,4220.512820512821,4248.205128205129,4081.0256410256416,4355.384615384616,4080.0000000000005,4284.615384615385,4291.282051282052,4385.128205128206,4374.871794871796,1681.0,1684.0,517.814,490.96099853515625,0.0,0.0,0.0,0.0
516090,105.0,0.0,184.0,4467.179487179487,4167.179487179487,4322.051282051282,4829.2307692307695,3776.9230769230776,4209.2307692307695,4238.461538461539,4081.0256410256416,4353.333333333334,4076.9230769230776,4276.410256410257,4289.74358974359,4385.128205128206,4374.358974358975,1682.0,1685.0,517.814,490.96099853515625,0.0,0.0,0.0,0.0
516090,106.0,0.0,487.0,4463.076923076924,4169.2307692307695,4321.538461538462,4826.666666666667,3773.333333333334,4202.564102564103,4236.923076923077,4087.692307692308,4360.512820512821,4079.48717948718,4280.000000000001,4289.74358974359,4388.205128205129,4375.384615384616,1682.0,1685.0,517.814,490.96099853515625,0.0,0.0,0.0,0.0
516091,107.0,0.0,446.0,4458.461538461539,4169.2307692307695,4317.948717948719,4829.2307692307695,3773.8461538461543,4208.717948717949,4243.589743589744,4093.8461538461543,4368.717948717949,4084.615384615385,4289.2307692307695,4291.282051282052,4392.820512820514,4378.974358974359,1681.0,1685.0,517.814,490.96099853515625,0.0,0.0,0.0,0.0
516091,108.0,0.0,455.0,4460.512820512821,4161.538461538462,4313.846153846154,4829.2307692307695,3777.435897435898,4210.256410256411,4250.256410256411,4097.948717948719,4372.820512820514,4082.0512820512827,4288.205128205129,4288.205128205129,4388.205128205129,4371.794871794872,1681.0,1684.0,517.814,490.96099853515625,0.0,0.0,0.0,0.0
516091,109.0,0.0,184.0,4458.974358974359,4160.512820512821,4315.384615384616,4826.153846153847,3777.435897435898,4207.6923076923085,4250.256410256411,4091.7948717948725,4370.769230769231,4079.48717948718,4286.153846153847,4284.615384615385,4383.076923076924,4363.589743589744,1681.0,1684.0,517.814,490.96099853515625,0.0,0.0,0.0,0.0
516091,110.0,0.0,487.0,4458.974358974359,4168.205128205129,4321.025641025642,4826.153846153847,3777.9487179487182,4214.358974358975,4250.256410256411,4084.615384615385,4364.102564102564,4083.076923076924,4290.256410256411,4286.666666666667,4387.6923076923085,4372.820512820514,1681.0,1684.0,517.814,490.96099853515625,0.0,0.0,0.0,0.0
516092,111.0,0.0,446.0,4463.076923076924,4172.307692307693,4318.974358974359,4828.205128205129,3782.564102564103,4221.538461538462,4249.2307692307695,4089.23076923077,4361.025641025642,4085.6410256410263,4292.820512820514,4289.74358974359,4391.794871794872,4383.076923076924,1680.0,1684.0,517.814,490.96099853515625,0.0,0.0,0.0,0.0
516092,112.0,0.0,455.0,4461.025641025642,4167.179487179487,4312.820512820514,4829.2307692307695,3781.538461538462,4219.48717948718,4247.6923076923085,4088.205128205129,4361.538461538462,4081.0256410256416,4288.717948717949,4287.6923076923085,4387.179487179487,4372.820512820514,1680.0,1685.0,517.814,490.96099853515625,0.0,0.0,0.0,0.0
516092,113.0,0.0,184.0,4455.8974358974365,4158.974358974359,4311.282051282052,4822.051282051282,3776.410256410257,4215.384615384616,4246.666666666667,4086.666666666667,4362.564102564103,4077.435897435898,4278.974358974359,4283.589743589744,4378.974358974359,4362.564102564103,1680.0,1685.0,517.814,490.96099853515625,0.0,0.0,0.0,0.0
516092,114.0,0.0,487.0,4454.871794871796,4157.435897435898,4308.717948717949,4812.820512820514,3773.8461538461543,4211.794871794872,4244.615384615385,4090.2564102564106,4359.48717948718,4076.9230769230776,4272.307692307693,4281.538461538462,4371.794871794872,4363.589743589744,1680.0,1685.0,517.814,490.96099853515625,0.0,0.0,0.0,0.0
516092,115.0,0.0,446.0,4457.435897435898,4164.615384615385,4308.717948717949,4818.461538461539,3775.3846153846157,4208.205128205129,4245.128205128206,4085.6410256410263,4355.8974358974365,4076.410256410257,4274.871794871796,4284.615384615385,4374.871794871796,4368.205128205129,1681.0,1685.0,517.814,490.96099853515625,0.0,0.0,0.0,0.0
516093,116.0,0.0,455.0,4461.025641025642,4167.179487179487,4314.358974358975,4830.769230769231,3781.0256410256416,4212.307692307693,4250.769230769231,4087.692307692308,4360.512820512821,4077.9487179487187,4280.000000000001,4286.666666666667,4380.512820512821,4370.256410256411,1681.0,1685.0,517.814,490.96099853515625,0.0,0.0,0.0,0.0
516093,117.0,0.0,184.0,4465.128205128206,4164.615384615385,4319.48717948718,4829.743589743591,3784.615384615385,4216.923076923077,4256.410256410257,4101.538461538462,4367.179487179487,4081.0256410256416,4278.461538461539,4285.128205128206,4378.461538461539,4371.794871794872,1681.0,1686.0,517.814,490.96099853515625,0.0,0.0,0.0,0.0
516093,118.0,0.0,487.0,4465.128205128206,4167.179487179487,4321.538461538462,4826.153846153847,3782.0512820512827,4210.256410256411,4256.923076923077,4100.000000000001,4367.6923076923085,4081.0256410256416,4278.461538461539,4286.153846153847,4379.48717948718,4373.846153846154,1681.0,1685.0,517.814,490.96099853515625,0.0,0.0,0.0,0.0
516093,119.0,0.0,446.0,4461.025641025642,4170.256410256411,4316.923076923077,4829.2307692307695,3782.564102564103,4214.358974358975,4251.794871794872,4081.0256410256416,4361.025641025642,4078.9743589743593,4275.8974358974365,4285.641025641026,4379.48717948718,4369.2307692307695,1681.0,1686.0,517.814,490.96099853515625,0.0,0.0,0.0,0.0
516093,120.0,0.0,455.0,4454.871794871796,4165.128205128206,4311.794871794872,4829.2307692307695,3785.1282051282055,4228.205128205129,4247.6923076923085,4073.8461538461543,4356.923076923077,4078.461538461539,4270.256410256411,4284.102564102564,4373.333333333334,4364.615384615385,1681.0,1684.0,517.814,490.96099853515625,0.0,0.0,0.0,0.0
516094,121.0,0.0,184.0,4458.974358974359,4163.076923076924,4315.384615384616,4827.6923076923085,3785.6410256410263,4227.6923076923085,4255.384615384616,4089.23076923077,4364.102564102564,4078.461538461539,4273.846153846154,4288.717948717949,4375.384615384616,4371.282051282052,1680.0,1686.0,517.814,490.96099853515625,0.0,0.0,0.0,0.0
516094,122.0,0.0,487.0,4468.717948717949,4166.153846153847,4322.564102564103,4827.6923076923085,3786.1538461538466,4220.000000000001,4264.615384615385,4104.615384615385,4369.743589743591,4078.461538461539,4277.948717948719,4293.333333333334,4379.48717948718,4380.000000000001,1682.0,1684.0,517.814,490.96099853515625,0.0,0.0,0.0,0.0
516094,123.0,0.0,446.0,4467.6923076923085,4168.205128205129,4324.102564102564,4827.179487179488,3783.589743589744,4216.923076923077,4257.948717948719,4096.410256410257,4365.641025641026,4077.9487179487187,4279.48717948718,4291.794871794872,4378.974358974359,4383.076923076924,1680.0,1683.0,517.814,490.96099853515625,0.0,0.0,0.0,0.0
516094,124.0,0.0,455.0,4466.153846153847,4168.717948717949,4325.641025641026,4828.717948717949,3778.9743589743593,4208.717948717949,4251.282051282052,4086.666666666667,4365.641025641026,4081.538461538462,4282.051282051282,4291.794871794872,4385.641025641026,4385.128205128206,1681.0,1684.0,517.814,490.96099853515625,0.0,0.0,0.0,0.0
516095,125.0,0.0,184.0,4466.666666666667,4164.102564102564,4324.102564102564,4829.743589743591,3779.48717948718,4206.153846153847,4251.794871794872,4092.307692307693,4367.6923076923085,4084.1025641025644,4277.948717948719,4292.820512820514,4389.2307692307695,4384.102564102564,1681.0,1683.0,517.814,490.96099853515625,0.0,0.0,0.0,0.0
516095,126.0,0.0,487.0,4461.025641025642,4159.48717948718,4315.384615384616,4824.615384615386,3784.1025641025644,4216.410256410257,4250.769230769231,4089.23076923077,4362.564102564103,4079.48717948718,4267.179487179487,4292.307692307693,4380.512820512821,4379.48717948718,1680.0,1684.0,517.814,490.96099853515625,0.0,0.0,0.0,0.0
516095,127.0,0.0,446.0,4464.102564102564,4163.589743589744,4318.461538461539,4824.102564102564,3785.6410256410263,4219.48717948718,4251.282051282052,4079.48717948718,4360.512820512821,4077.435897435898,4270.256410256411,4292.820512820514,4381.538461538462,4382.051282051282,1680.0,1683.0,517.814,490.96099853515625,0.0,0.0,0.0,0.0
516095,128.0,0.0,455.0,4475.384615384616,4169.74358974359,4332.820512820514,4830.769230769231,3784.615384615385,4214.871794871796,4255.8974358974365,4089.7435897435903,4368.717948717949,4084.615384615385,4285.641025641026,4293.333333333334,4395.8974358974365,4391.282051282052,1681.0,1684.0,517.814,490.96099853515625,0.0,0.0,0.0,0.0
516095,0.0,0.0,476.0,4474.358974358975,4170.256410256411,4334.871794871796,4830.256410256411,3785.6410256410263,4219.48717948718,4257.435897435898,4106.153846153847,4378.974358974359,4087.1794871794878,4286.666666666667,4290.769230769231,4398.974358974359,4393.333333333334,1681.0,1684.0,517.814,490.96099853515625,0.0,0.0,0.0,0.0
516096,1.0,0.0,335.0,4464.615384615385,4165.641025641026,4324.102564102564,4826.153846153847,3785.1282051282055,4224.615384615385,4256.410256410257,4102.564102564103,4379.48717948718,4082.0512820512827,4273.846153846154,4287.6923076923085,4389.743589743591,4384.102564102564,1680.0,1685.0,517.814,490.96099853515625,0.0,0.0,0.0,0.0
516096,2.0,0.0,447.0,4462.051282051282,4162.564102564103,4316.410256410257,4825.128205128206,3784.1025641025644,4225.641025641026,4253.846153846154,4088.717948717949,4367.6923076923085,4080.0000000000005,4266.153846153847,4287.6923076923085,4383.076923076924,4376.410256410257,1681.0,1684.0,517.814,490.96099853515625,0.0,0.0,0.0,0.0
516096,3.0,0.0,328.0,4463.076923076924,4164.615384615385,4317.948717948719,4826.153846153847,3787.692307692308,4226.153846153847,4252.820512820514,4086.666666666667,4364.102564102564,4081.538461538462,4272.307692307693,4291.794871794872,4386.666666666667,4382.564102564103,1680.0,1684.0,517.814,490.96099853515625,0.0,0.0,0.0,0.0
516096,4.0,0.0,460.0,4467.179487179487,4169.74358974359,4326.153846153847,4828.717948717949,3790.2564102564106,4222.564102564103,4257.948717948719,4102.051282051282,4381.538461538462,4087.692307692308,4283.589743589744,4295.384615384616,4398.461538461539,4392.307692307693,1681.0,1684.0,517.814,490.96099853515625,0.0,0.0,0.0,0.0
516097,5.0,0.0,548.0,4465.128205128206,4170.769230769231,4321.538461538462,4828.717948717949,3787.1794871794878,4221.025641025642,4256.410256410257,4097.948717948719,4381.025641025642,4086.1538461538466,4278.974358974359,4292.820512820514,4399.48717948718,4386.666666666667,1680.0,1684.0,517.814,490.96099853515625,0.0,0.0,0.0,0.0
516097,6.0,0.0,532.0,4451.794871794872,4164.102564102564,4307.179487179487,4821.025641025642,3782.0512820512827,4224.102564102564,4245.128205128206,4070.7692307692314,4353.846153846154,4074.358974358975,4260.512820512821,4285.128205128206,4382.051282051282,4371.794871794872,1681.0,1685.0,517.814,490.96099853515625,0.0,0.0,0.0,0.0
516097,7.0,0.0,478.0,4445.641025641026,4157.435897435898,4305.641025641026,4813.846153846154,3782.564102564103,4221.538461538462,4244.615384615385,4067.1794871794878,4349.2307692307695,4070.7692307692314,4256.410256410257,4284.615384615385,4374.358974358975,4366.666666666667,1681.0,1684.0,517.814,490.96099853515625,0.0,0.0,0.0,0.0
516097,8.0,0.0,417.0,4453.333333333334,4159.48717948718,4311.794871794872,4819.48717948718,3783.589743589744,4213.846153846154,4252.820512820514,4089.7435897435903,4372.820512820514,4081.0256410256416,4267.6923076923085,4287.179487179487,4383.589743589744,4370.769230769231,1680.0,1686.0,517.814,490.96099853515625,0.0,0.0,0.0,0.0
516098,9.0,0.0,420.0,4460.512820512821,4167.6923076923085,4313.846153846154,4826.153846153847,3782.564102564103,4210.769230769231,4251.282051282052,4106.153846153847,4383.076923076924,4083.589743589744,4268.205128205129,4288.205128205129,4386.666666666667,4370.769230769231,1682.0,1685.0,517.814,490.96099853515625,0.0,0.0,0.0,0.0
516098,10.0,0.0,487.0,4461.538461538462,4169.2307692307695,4321.538461538462,4826.153846153847,3782.564102564103,4214.358974358975,4248.205128205129,4098.461538461539,4375.8974358974365,4078.9743589743593,4265.128205128206,4292.307692307693,4385.128205128206,4374.871794871796,1681.0,1686.0,517.814,490.96099853515625,0.0,0.0,0.0,0.0
516098,11.0,0.0,446.0,4461.538461538462,4166.153846153847,4327.6923076923085,4824.615384615386,3784.1025641025644,4212.307692307693,4250.769230769231,4084.615384615385,4372.307692307693,4080.0000000000005,4269.2307692307695,4293.846153846154,4387.179487179487,4384.615384615385,1682.0,1686.0,517.814,490.96099853515625,0.0,0.0,0.0,0.0
516098,12.0,0.0,455.0,4461.538461538462,4166.666666666667,4321.538461538462,4825.128205128206,3785.1282051282055,4210.256410256411,4254.358974358975,4088.205128205129,4371.282051282052,4078.9743589743593,4269.74358974359,4290.769230769231,4383.589743589744,4382.564102564103,1682.0,1687.0,517.814,490.96099853515625,0.0,0.0,0.0,0.0
516099,13.0,0.0,184.0,4464.102564102564,4168.205128205129,4318.974358974359,4827.179487179488,3785.1282051282055,4214.358974358975,4256.923076923077,4097.948717948719,4370.256410256411,4077.435897435898,4270.769230769231,4290.256410256411,4381.025641025642,4376.923076923077,1683.0,1686.0,517.814,490.96099853515625,0.0,0.0,0.0,0.0
516099,14.0,0.0,487.0,4466.153846153847,4169.74358974359,4323.076923076924,4827.6923076923085,3783.076923076924,4214.358974358975,4251.282051282052,4088.717948717949,4369.743589743591,4080.5128205128212,4272.820512820514,4292.307692307693,4387.6923076923085,4383.076923076924,1682.0,1687.0,517.814,490.96099853515625,0.0,0.0,0.0,0.0
516099,15.0,0.0,446.0,4464.102564102564,4169.2307692307695,4323.589743589744,4826.666666666667,3782.564102564103,4212.307692307693,4244.102564102564,4076.410256410257,4370.769230769231,4081.538461538462,4270.769230769231,4291.282051282052,4389.2307692307695,4385.641025641026,1684.0,1687.0,517.814,490.96099853515625,0.0,0.0,0.0,0.0
516099,16.0,0.0,0.0,4465.128205128206,4167.179487179487,4324.102564102564,4825.641025641026,3785.6410256410263,4216.410256410257,4250.769230769231,4083.076923076924,4374.871794871796,4078.9743589743593,4270.256410256411,4289.74358974359,4387.179487179487,4378.974358974359,1683.0,1687.0,517.814,490.96099853515625,0.0,0.0,0.0,0.0
516100,17.0,0.0,0.0,4469.743589743591,4169.2307692307695,4328.717948717949,4827.6923076923085,3785.1282051282055,4215.8974358974365,4256.923076923077,4108.717948717949,4387.179487179487,4081.538461538462,4275.384615384616,4291.282051282052,4393.846153846154,4384.102564102564,1683.0,1687.0,517.814,490.96099853515625,0.0,0.0,0.0,0.0
516100,18.0,0.0,0.0,4470.256410256411,4169.2307692307695,4332.307692307693,4828.717948717949,3783.076923076924,4209.74358974359,4257.435897435898,4120.512820512821,4396.410256410257,4086.1538461538466,4277.435897435898,4293.333333333334,4399.48717948718,4393.846153846154,1683.0,1686.0,517.814,490.96099853515625,0.0,0.0,0.0,0.0
516100,19.0,0.0,0.0,4463.589743589744,4166.666666666667,4329.743589743591,4828.205128205129,3784.615384615385,4216.410256410257,4258.974358974359,4089.7435897435903,4383.076923076924,4083.076923076924,4269.74358974359,4291.282051282052,4395.384615384616,4387.6923076923085,1683.0,1687.0,517.814,490.96099853515625,0.0,0.0,0.0,0.0
516101,20.0,0.0,0.0,4458.461538461539,4165.128205128206,4327.179487179487,4826.666666666667,3785.1282051282055,4225.641025641026,4256.410256410257,4071.2820512820517,4371.282051282052,4079.48717948718,4261.538461538462,4288.717948717949,4390.769230769231,4378.974358974359,1683.0,1686.0,517.814,490.96099853515625,0.0,0.0,0.0,0.0
516101,21.0,0.0,0.0,4466.153846153847,4167.179487179487,4329.743589743591,4827.179487179488,3784.1025641025644,4220.000000000001,4250.769230769231,4098.974358974359,4384.102564102564,4082.0512820512827,4267.6923076923085,4290.769230769231,4393.333333333334,4383.589743589744,1682.0,1687.0,517.814,490.96099853515625,0.0,0.0,0.0,0.0
516102,22.0,0.0,0.0,4472.820512820514,4169.74358974359,4333.846153846154,4829.743589743591,3785.6410256410263,4216.410256410257,4253.333333333334,4105.128205128206,4389.743589743591,4084.1025641025644,4275.8974358974365,4293.333333333334,4398.461538461539,4390.256410256411,1683.0,1688.0,517.814,490.96099853515625,0.0,0.0,0.0,0.0
516102,23.0,0.0,0.0,4464.102564102564,4169.74358974359,4331.282051282052,4830.256410256411,3787.692307692308,4221.025641025642,4254.358974358975,4081.0256410256416,4374.871794871796,4082.564102564103,4266.666666666667,4289.2307692307695,4395.8974358974365,4385.128205128206,1682.0,1687.0,517.814,490.96099853515625,0.0,0.0,0.0,0.0
516102,24.0,0.0,0.0,4455.384615384616,4167.6923076923085,4326.666666666667,4827.6923076923085,3785.1282051282055,4216.923076923077,4245.641025641026,4083.589743589744,4372.307692307693,4079.48717948718,4255.384615384616,4284.615384615385,4389.2307692307695,4378.461538461539,1683.0,1687.0,517.814,490.96099853515625,0.0,0.0,0.0,0.0
516102,25.0,0.0,0.0,4463.076923076924,4167.6923076923085,4329.2307692307695,4826.666666666667,3782.564102564103,4207.179487179487,4244.102564102564,4102.564102564103,4382.564102564103,4080.0000000000005,4261.538461538462,4288.717948717949,4388.717948717949,4381.025641025642,1682.0,1687.0,517.814,490.96099853515625,0.0,0.0,0.0,0.0
516103,26.0,0.0,0.0,4467.6923076923085,4167.6923076923085,4329.2307692307695,4826.666666666667,3783.589743589744,4210.769230769231,4253.846153846154,4103.589743589744,4381.025641025642,4081.0256410256416,4270.256410256411,4289.2307692307695,4393.333333333334,4386.153846153847,1682.0,1686.0,517.814,490.96099853515625,0.0,0.0,0.0,0.0
516103,27.0,0.0,0.0,4461.538461538462,4166.153846153847,4324.102564102564,4824.615384615386,3784.615384615385,4220.512820512821,4260.512820512821,4094.8717948717954,4374.871794871796,4078.9743589743593,4264.102564102564,4285.641025641026,4393.846153846154,4384.102564102564,1680.0,1685.0,517.814,490.96099853515625,0.0,0.0,0.0,0.0
516103,28.0,0.0,0.0,4457.435897435898,4166.153846153847,4321.538461538462,4825.128205128206,3784.615384615385,4222.051282051282,4253.333333333334,4090.2564102564106,4375.384615384616,4076.410256410257,4256.923076923077,4288.205128205129,4391.282051282052,4377.435897435898,1681.0,1685.0,517.814,490.96099853515625,0.0,0.0,0.0,0.0
516103,29.0,0.0,0.0,4458.974358974359,4167.6923076923085,4322.051282051282,4828.205128205129,3786.1538461538466,4220.000000000001,4243.076923076924,4086.1538461538466,4372.820512820514,4076.9230769230776,4258.974358974359,4289.74358974359,4388.205128205129,4374.358974358975,1681.0,1683.0,517.814,490.96099853515625,0.0,0.0,0.0,0.0
516103,30.0,0.0,0.0,4460.000000000001,4167.6923076923085,4320.512820512821,4827.6923076923085,3785.6410256410263,4221.025641025642,4245.641025641026,4076.9230769230776,4363.589743589744,4076.410256410257,4258.461538461539,4286.666666666667,4386.666666666667,4378.461538461539,1680.0,1684.0,517.814,490.96099853515625,0.0,0.0,0.0,0.0
516104,31.0,0.0,0.0,4464.102564102564,4167.6923076923085,4320.000000000001,4824.102564102564,3784.1025641025644,4218.974358974359,4254.358974358975,4078.9743589743593,4367.6923076923085,4076.410256410257,4258.974358974359,4287.6923076923085,4389.743589743591,4384.615384615385,1680.0,1683.0,517.814,490.96099853515625,0.0,0.0,0.0,0.0
516104,32.0,0.0,0.0,4468.205128205129,4169.2307692307695,4325.128205128206,4824.102564102564,3789.7435897435903,4216.410256410257,4254.871794871796,4101.025641025642,4386.153846153847,4083.589743589744,4268.205128205129,4293.846153846154,4397.435897435898,4390.769230769231,1680.0,1683.0,517.821,491.5161437988281,0.0,0.0,0.0,0.0
516104,33.0,0.0,0.0,4470.769230769231,4169.74358974359,4332.307692307693,4829.2307692307695,3794.8717948717954,4220.512820512821,4252.307692307693,4112.820512820514,4396.410256410257,4092.307692307693,4277.948717948719,4296.923076923077,4408.205128205129,4401.025641025642,1680.0,1684.0,517.825,491.5161437988281,0.0,0.0,0.0,0.0
516104,34.0,0.0,0.0,4468.205128205129,4166.666666666667,4332.307692307693,4830.256410256411,3788.205128205129,4222.051282051282,4252.307692307693,4101.538461538462,4391.282051282052,4089.7435897435903,4276.410256410257,4292.307692307693,4409.2307692307695,4405.128205128206,1680.0,1684.0,517.832,491.5161437988281,0.0,0.0,0.0,0.0
516104,35.0,0.0,0.0,4463.076923076924,4164.615384615385,4327.179487179487,4821.538461538462,3781.0256410256416,4217.948717948719,4252.820512820514,4098.974358974359,4386.666666666667,4083.589743589744,4269.74358974359,4291.794871794872,4401.025641025642,4397.948717948719,1681.0,1684.0,517.838,491.5161437988281,0.0,0.0,0.0,0.0
516115,36.0,0.0,0.0,4465.641025641026,4166.666666666667,4327.6923076923085,4818.461538461539,3783.589743589744,4217.435897435898,4251.282051282052,4107.179487179487,4389.743589743591,4084.615384615385,4268.205128205129,4295.8974358974365,4398.461538461539,4396.923076923077,1681.0,1684.0,517.846,491.54742431640625,0.0,0.0,0.0,0.0
516116,37.0,0.0,0.0,4469.743589743591,4168.717948717949,4331.794871794872,4824.615384615386,3784.615384615385,4222.051282051282,4249.74358974359,4102.051282051282,4388.717948717949,4087.692307692308,4270.256410256411,4294.871794871796,4400.000000000001,4399.48717948718,1681.0,1684.0,517.854,491.54742431640625,0.0,0.0,0.0,0.0
516116,38.0,0.0,0.0,4468.205128205129,4167.6923076923085,4332.307692307693,4826.153846153847,3782.564102564103,4221.538461538462,4249.74358974359,4089.7435897435903,4380.512820512821,4085.1282051282055,4269.74358974359,4290.769230769231,4397.948717948719,4396.410256410257,1681.0,1684.0,517.862,491.54742431640625,0.0,0.0,0.0,0.0
516116,39.0,0.0,0.0,4463.589743589744,4166.666666666667,4331.282051282052,4824.615384615386,3784.1025641025644,4215.384615384616,4251.794871794872,4085.6410256410263,4373.333333333334,4080.0000000000005,4262.564102564103,4289.74358974359,4394.358974358975,4390.769230769231,1682.0,1684.0,517.869,491.54742431640625,0.0,0.0,0.0,0.0
516225,40.0,0.0,0.0,4460.000000000001,4167.6923076923085,4330.769230769231,4823.589743589744,3784.615384615385,4210.769230769231,4251.282051282052,4090.7692307692314,4373.333333333334,4077.435897435898,4260.000000000001,4291.794871794872,4392.307692307693,4389.743589743591,1682.0,1684.0,517.877,491.54742431640625,0.0,0.0,0.0,0.0
516225,41.0,0.0,0.0,4462.564102564103,4167.6923076923085,4328.205128205129,4823.076923076924,3783.589743589744,4210.769230769231,4249.74358974359,4095.3846153846157,4373.846153846154,4081.0256410256416,4261.025641025642,4294.358974358975,4392.307692307693,4395.384615384616,1683.0,1684.0,517.884,491.54742431640625,0.0,0.0,0.0,0.0
516225,42.0,0.0,0.0,4465.641025641026,4166.153846153847,4328.717948717949,4824.102564102564,3784.1025641025644,4214.358974358975,4251.794871794872,4091.2820512820517,4372.820512820514,4083.076923076924,4261.538461538462,4293.333333333334,4394.358974358975,4398.974358974359,1682.0,1685.0,517.892,491.54742431640625,0.0,0.0,0.0,0.0
516225,43.0,0.0,0.0,4466.153846153847,4166.666666666667,4335.8974358974365,4828.205128205129,3785.1282051282055,4213.846153846154,4257.435897435898,4094.8717948717954,4376.410256410257,4082.0512820512827,4265.128205128206,4294.871794871796,4397.435897435898,4400.000000000001,1682.0,1684.0,517.901,491.54742431640625,0.0,0.0,0.0,0.0
516226,44.0,0.0,0.0,4468.205128205129,4170.769230769231,4341.025641025642,4830.256410256411,3785.1282051282055,4210.256410256411,4257.948717948719,4108.717948717949,4386.666666666667,4083.589743589744,4265.128205128206,4297.435897435898,4400.512820512821,4401.538461538462,1681.0,1684.0,517.908,491.54742431640625,0.0,0.0,0.0,0.0
516226,45.0,0.0,0.0,4463.589743589744,4165.641025641026,4333.846153846154,4825.128205128206,3784.1025641025644,4212.820512820514,4253.333333333334,4103.589743589744,4381.025641025642,4081.538461538462,4251.794871794872,4292.820512820514,4389.2307692307695,4395.8974358974365,1682.0,1684.0,517.916,491.54742431640625,0.0,0.0,0.0,0.0
516227,46.0,0.0,0.0,4445.128205128206,4157.948717948719,4318.974358974359,4817.948717948719,3784.1025641025644,4225.128205128206,4255.384615384616,4076.410256410257,4357.948717948719,4068.717948717949,4232.820512820514,4283.589743589744,4364.615384615385,4378.461538461539,1680.0,1683.0,517.923,491.54742431640625,0.0,0.0,0.0,0.0
516227,47.0,0.0,0.0,4441.025641025642,4158.974358974359,4309.743589743591,4811.794871794872,3784.615384615385,4230.256410256411,4255.8974358974365,4073.333333333334,4352.307692307693,4063.076923076924,4230.256410256411,4284.102564102564,4358.461538461539,4368.717948717949,1681.0,1684.0,517.931,491.54742431640625,0.0,0.0,0.0,0.0
516227,48.0,0.0,0.0,4459.48717948718,4163.076923076924,4320.512820512821,4812.307692307693,3784.1025641025644,4215.384615384616,4252.820512820514,4090.2564102564106,4370.769230769231,4075.3846153846157,4244.615384615385,4293.333333333334,4381.538461538462,4386.153846153847,1681.0,1682.0,517.939,491.54742431640625,0.0,0.0,0.0,0.0
516227,49.0,0.0,0.0,4469.743589743591,4167.6923076923085,4336.923076923077,4823.589743589744,3784.1025641025644,4204.615384615385,4252.820512820514,4092.820512820513,4378.974358974359,4083.589743589744,4258.461538461539,4297.435897435898,4403.589743589744,4406.153846153847,1679.0,1685.0,517.948,491.54742431640625,0.0,0.0,0.0,0.0
516228,50.0,0.0,0.0,4465.641025641026,4170.256410256411,4335.8974358974365,4830.769230769231,3786.1538461538466,4212.307692307693,4252.307692307693,4081.0256410256416,4370.769230769231,4077.435897435898,4260.000000000001,4293.846153846154,4404.615384615385,4405.128205128206,1680.0,1683.0,517.955,491.54742431640625,0.0,0.0,0.0,0.0
516228,51.0,0.0,0.0,4460.512820512821,4167.6923076923085,4326.666666666667,4821.538461538462,3786.666666666667,4223.076923076924,4249.74358974359,4076.410256410257,4368.205128205129,4076.9230769230776,4257.435897435898,4291.282051282052,4396.923076923077,4396.410256410257,1680.0,1684.0,517.962,491.54742431640625,0.0,0.0,0.0,0.0
516228,52.0,0.0,0.0,4459.48717948718,4165.128205128206,4327.6923076923085,4816.410256410257,3786.1538461538466,4220.512820512821,4251.794871794872,4094.358974358975,4380.000000000001,4082.564102564103,4262.051282051282,4292.307692307693,4397.435897435898,4395.8974358974365,1680.0,1685.0,517.97,491.54742431640625,0.0,0.0,0.0,0.0
516228,53.0,0.0,0.0,4463.076923076924,4167.6923076923085,4332.307692307693,4826.153846153847,3786.666666666667,4212.307692307693,4254.871794871796,4109.74358974359,4388.717948717949,4082.564102564103,4264.102564102564,4294.358974358975,4405.128205128206,4397.435897435898,1680.0,1684.0,517.978,491.54742431640625,0.0,0.0,0.0,0.0
516229,54.0,0.0,0.0,4461.025641025642,4168.205128205129,4326.153846153847,4829.743589743591,3786.666666666667,4210.769230769231,4252.307692307693,4095.8974358974365,4381.025641025642,4081.0256410256416,4259.48717948718,4293.333333333334,4404.102564102564,4395.384615384616,1681.0,1684.0,517.987,491.54742431640625,0.0,0.0,0.0,0.0
516229,55.0,0.0,0.0,4460.000000000001,4167.179487179487,4322.564102564103,4825.128205128206,3783.589743589744,4215.384615384616,4251.794871794872,4085.1282051282055,4372.820512820514,4082.0512820512827,4258.974358974359,4289.74358974359,4400.000000000001,4391.794871794872,1680.0,1685.0,517.994,491.54742431640625,0.0,0.0,0.0,0.0
516356,56.0,0.0,0.0,4463.076923076924,4168.717948717949,4326.666666666667,4825.641025641026,3783.076923076924,4216.410256410257,4251.794871794872,4090.2564102564106,4375.384615384616,4082.564102564103,4264.102564102564,4288.717948717949,4404.102564102564,4392.307692307693,1681.0,1685.0,518.003,491.70379638671875,0.0,0.0,0.0,0.0
516356,57.0,0.0,0.0,4461.538461538462,4168.717948717949,4326.153846153847,4826.666666666667,3784.615384615385,4213.333333333334,4251.282051282052,4088.205128205129,4379.48717948718,4083.076923076924,4267.6923076923085,4289.2307692307695,4405.641025641026,4394.871794871796,1680.0,1683.0,518.01,491.70379638671875,0.0,0.0,0.0,0.0
516356,58.0,0.0,0.0,4461.025641025642,4168.205128205129,4321.538461538462,4826.666666666667,3784.615384615385,4214.871794871796,4253.846153846154,4089.23076923077,4380.512820512821,4082.564102564103,4266.153846153847,4290.256410256411,4400.000000000001,4395.384615384616,1680.0,1684.0,518.018,491.70379638671875,0.0,0.0,0.0,0.0
516357,59.0,0.0,0.0,4462.564102564103,4168.717948717949,4322.564102564103,4827.6923076923085,3784.615384615385,4222.051282051282,4256.923076923077,4097.948717948719,4376.923076923077,4077.435897435898,4259.48717948718,4289.74358974359,4388.717948717949,4390.769230769231,1681.0,1683.0,518.025,491.70379638671875,0.0,0.0,0.0,0.0
516357,60.0,0.0,0.0,4458.974358974359,4167.179487179487,4326.666666666667,4826.666666666667,3785.1282051282055,4224.102564102564,4255.8974358974365,4095.8974358974365,4371.794871794872,4075.8974358974365,4253.333333333334,4288.205128205129,4385.128205128206,4385.641025641026,1680.0,1685.0,518.034,491.70379638671875,0.0,0.0,0.0,0.0
516358,61.0,0.0,0.0,4462.564102564103,4168.717948717949,4330.256410256411,4827.179487179488,3784.615384615385,4219.48717948718,4253.846153846154,4096.923076923077,4378.461538461539,4082.564102564103,4261.025641025642,4291.794871794872,4395.384615384616,4393.846153846154,1682.0,1684.0,518.041,491.70379638671875,0.0,0.0,0.0,0.0
516359,62.0,0.0,0.0,4470.769230769231,4171.282051282052,4332.820512820514,4829.2307692307695,3784.615384615385,4216.410256410257,4254.358974358975,4101.538461538462,4387.6923076923085,4084.1025641025644,4266.666666666667,4295.384615384616,4403.076923076924,4401.538461538462,1681.0,1685.0,518.049,491.70379638671875,0.0,0.0,0.0,0.0
516359,63.0,0.0,0.0,4463.589743589744,4165.641025641026,4329.2307692307695,4827.179487179488,3787.1794871794878,4218.974358974359,4256.410256410257,4096.410256410257,4386.153846153847,4080.0000000000005,4258.461538461539,4292.307692307693,4394.358974358975,4391.794871794872,1682.0,1685.0,518.056,491.70379638671875,0.0,0.0,0.0,0.0
516359,64.0,0.0,476.0,4453.333333333334,4160.512820512821,4323.076923076924,4823.589743589744,3788.205128205129,4224.615384615385,4255.384615384616,4087.692307692308,4380.000000000001,4079.48717948718,4252.307692307693,4286.666666666667,4385.128205128206,4381.538461538462,1682.0,1685.0,518.064,491.70379638671875,0.0,0.0,0.0,0.0
516359,65.0,0.0,335.0,4457.948717948719,4167.179487179487,4325.641025641026,4826.153846153847,3787.692307692308,4227.179487179487,4257.435897435898,4085.6410256410263,4376.410256410257,4081.538461538462,4255.8974358974365,4286.666666666667,4389.2307692307695,4386.666666666667,1682.0,1685.0,518.072,491.70379638671875,0.0,0.0,0.0,0.0
516360,66.0,0.0,447.0,4465.128205128206,4171.794871794872,4330.769230769231,4827.179487179488,3787.1794871794878,4222.564102564103,4263.076923076924,4091.2820512820517,4379.48717948718,4082.564102564103,4262.051282051282,4291.282051282052,4395.8974358974365,4391.282051282052,1682.0,1685.0,518.08,491.70379638671875,0.0,0.0,0.0,0.0
516360,67.0,0.0,328.0,4460.512820512821,4166.666666666667,4329.2307692307695,4824.102564102564,3785.6410256410263,4218.461538461539,4262.051282051282,4093.333333333334,4381.025641025642,4081.538461538462,4263.589743589744,4291.282051282052,4392.820512820514,4384.102564102564,1682.0,1685.0,518.088,491.70379638671875,0.0,0.0,0.0,0.0
516360,68.0,0.0,460.0,4451.794871794872,4164.615384615385,4322.564102564103,4822.564102564103,3785.6410256410263,4219.48717948718,4258.974358974359,4091.2820512820517,4378.974358974359,4077.9487179487187,4261.538461538462,4288.205128205129,4382.051282051282,4378.461538461539,1682.0,1685.0,518.095,491.70379638671875,0.0,0.0,0.0,0.0
516360,69.0,0.0,548.0,4453.846153846154,4169.2307692307695,4317.948717948719,4818.974358974359,3786.666666666667,4221.025641025642,4259.48717948718,4092.820512820513,4380.000000000001,4076.410256410257,4258.974358974359,4288.717948717949,4378.974358974359,4376.923076923077,1682.0,1686.0,518.104,491.70379638671875,0.0,0.0,0.0,0.0
516361,70.0,0.0,532.0,4454.871794871796,4165.641025641026,4318.461538461539,4814.358974358975,3786.1538461538466,4221.538461538462,4260.512820512821,4095.8974358974365,4382.564102564103,4078.9743589743593,4260.000000000001,4291.282051282052,4386.666666666667,4375.384615384616,1682.0,1684.0,518.111,491.70379638671875,0.0,0.0,0.0,0.0
516361,71.0,0.0,478.0,4448.205128205129,4159.48717948718,4316.923076923077,4811.282051282052,3784.615384615385,4220.000000000001,4263.076923076924,4089.23076923077,4380.000000000001,4079.48717948718,4264.615384615385,4291.794871794872,4390.256410256411,4375.384615384616,1681.0,1685.0,518.12,491.70379638671875,0.0,0.0,0.0,0.0
516382,72.0,0.0,417.0,4449.2307692307695,4163.589743589744,4316.923076923077,4816.410256410257,3784.615384615385,4215.8974358974365,4264.102564102564,4087.1794871794878,4377.948717948719,4077.435897435898,4269.74358974359,4291.794871794872,4388.717948717949,4376.410256410257,1683.0,1685.0,518.127,491.82891845703125,0.0,0.0,0.0,0.0
516382,73.0,0.0,421.0,4456.410256410257,4170.769230769231,4325.641025641026,4826.153846153847,3788.205128205129,4214.358974358975,4264.102564102564,4096.923076923077,4382.051282051282,4079.48717948718,4269.74358974359,4291.794871794872,4391.794871794872,4377.435897435898,1681.0,1684.0,518.136,491.82891845703125,0.0,0.0,0.0,0.0
516382,74.0,0.0,487.0,4449.743589743591,4170.256410256411,4326.153846153847,4825.128205128206,3789.2307692307695,4217.948717948719,4266.666666666667,4097.435897435898,4380.512820512821,4079.48717948718,4260.000000000001,4288.717948717949,4388.717948717949,4367.6923076923085,1681.0,1685.0,518.143,491.82891845703125,0.0,0.0,0.0,0.0
516382,75.0,0.0,446.0,4437.948717948719,4162.564102564103,4310.256410256411,4814.871794871796,3787.1794871794878,4220.512820512821,4264.102564102564,4084.1025641025644,4368.717948717949,4073.8461538461543,4250.256410256411,4284.615384615385,4375.8974358974365,4354.358974358975,1681.0,1683.0,518.151,491.82891845703125,0.0,0.0,0.0,0.0
516477,76.0,0.0,455.0,4441.538461538462,4161.538461538462,4306.666666666667,4811.794871794872,3788.717948717949,4220.000000000001,4253.846153846154,4075.3846153846157,4360.000000000001,4070.7692307692314,4248.717948717949,4284.615384615385,4372.307692307693,4357.435897435898,1681.0,1684.0,518.158,491.8601989746094,0.0,0.0,0.0,0.0
516477,77.0,0.0,184.0,4452.307692307693,4166.666666666667,4323.076923076924,4822.564102564103,3790.7692307692314,4219.48717948718,4257.435897435898,4084.615384615385,4366.666666666667,4075.3846153846157,4258.974358974359,4289.74358974359,4382.564102564103,4370.769230769231,1680.0,1683.0,518.167,491.8601989746094,0.0,0.0,0.0,0.0
516477,78.0,0.0,487.0,4455.384615384616,4169.74358974359,4331.282051282052,4827.179487179488,3791.7948717948725,4218.974358974359,4269.2307692307695,4102.051282051282,4382.564102564103,4082.564102564103,4271.794871794872,4292.307692307693,4390.256410256411,4375.384615384616,1680.0,1684.0,518.175,491.8601989746094,0.0,0.0,0.0,0.0
516478,79.0,0.0,446.0,4453.333333333334,4165.641025641026,4327.179487179487,4817.948717948719,3790.7692307692314,4220.512820512821,4270.256410256411,4114.358974358975,4390.256410256411,4081.0256410256416,4271.794871794872,4291.794871794872,4389.743589743591,4371.794871794872,1680.0,1683.0,518.182,491.8601989746094,0.0,0.0,0.0,0.0
516478,80.0,0.0,455.0,4455.384615384616,4165.641025641026,4329.2307692307695,4817.435897435898,3791.2820512820517,4223.589743589744,4270.256410256411,4107.6923076923085,4382.051282051282,4077.9487179487187,4267.179487179487,4291.794871794872,4388.717948717949,4372.307692307693,1680.0,1683.0,518.189,491.8601989746094,0.0,0.0,0.0,0.0
516478,81.0,0.0,184.0,4465.128205128206,4171.282051282052,4338.461538461539,4829.743589743591,3797.435897435898,4224.102564102564,4272.820512820514,4088.205128205129,4373.846153846154,4082.564102564103,4273.846153846154,4295.384615384616,4393.846153846154,4378.974358974359,1681.0,1683.0,518.198,491.8601989746094,0.0,0.0,0.0,0.0
516478,82.0,0.0,487.0,4468.205128205129,4170.256410256411,4341.538461538462,4832.307692307693,3798.9743589743593,4222.564102564103,4269.2307692307695,4090.7692307692314,4379.48717948718,4086.1538461538466,4278.974358974359,4297.948717948719,4398.974358974359,4384.102564102564,1680.0,1684.0,518.205,491.8601989746094,0.0,0.0,0.0,0.0
516478,83.0,0.0,446.0,4460.512820512821,4167.6923076923085,4334.871794871796,4825.641025641026,3790.7692307692314,4220.512820512821,4265.641025641026,4098.974358974359,4381.538461538462,4082.0512820512827,4270.256410256411,4295.8974358974365,4394.871794871796,4379.48717948718,1682.0,1684.0,518.213,491.8601989746094,0.0,0.0,0.0,0.0
516478,84.0,0.0,455.0,4454.358974358975,4167.179487179487,4328.717948717949,4822.051282051282,3787.692307692308,4221.025641025642,4268.205128205129,4087.1794871794878,4371.282051282052,4078.9743589743593,4265.641025641026,4291.794871794872,4387.179487179487,4369.743589743591,1680.0,1684.0,518.221,491.8601989746094,0.0,0.0,0.0,0.0
516478,85.0,0.0,184.0,4454.358974358975,4166.153846153847,4323.076923076924,4820.000000000001,3794.8717948717954,4220.000000000001,4266.666666666667,4088.205128205129,4371.794871794872,4078.461538461539,4268.205128205129,4288.717948717949,4387.6923076923085,4365.641025641026,1682.0,1685.0,518.228,491.8601989746094,0.0,0.0,0.0,0.0
516478,86.0,0.0,487.0,4454.358974358975,4166.153846153847,4318.974358974359,4821.025641025642,3793.8461538461543,4218.974358974359,4264.615384615385,4104.615384615385,4381.538461538462,4078.461538461539,4270.256410256411,4290.256410256411,4392.820512820514,4369.743589743591,1682.0,1684.0,518.237,491.8601989746094,0.0,0.0,0.0,0.0
516478,87.0,0.0,446.0,4456.923076923077,4169.2307692307695,4323.589743589744,4827.6923076923085,3785.6410256410263,4214.871794871796,4264.615384615385,4101.025641025642,4383.076923076924,4083.589743589744,4272.820512820514,4293.846153846154,4397.435897435898,4378.461538461539,1681.0,1685.0,518.244,491.8601989746094,0.0,0.0,0.0,0.0
516605,88.0,0.0,455.0,4462.564102564103,4170.769230769231,4330.256410256411,4829.2307692307695,3787.692307692308,4213.333333333334,4263.076923076924,4087.1794871794878,4375.8974358974365,4085.1282051282055,4273.333333333334,4293.846153846154,4397.948717948719,4383.076923076924,1682.0,1684.0,518.253,491.95404052734375,0.0,0.0,0.0,0.0
516605,89.0,0.0,184.0,4461.538461538462,4168.205128205129,4326.666666666667,4826.666666666667,3790.2564102564106,4217.948717948719,4265.641025641026,4085.1282051282055,4371.794871794872,4078.9743589743593,4266.153846153847,4291.794871794872,4393.846153846154,4381.538461538462,1682.0,1685.0,518.26,491.95404052734375,0.0,0.0,0.0,0.0
516605,90.0,0.0,487.0,4465.128205128206,4168.205128205129,4326.153846153847,4828.717948717949,3787.1794871794878,4217.948717948719,4268.717948717949,4089.23076923077,4378.974358974359,4078.9743589743593,4267.179487179487,4292.820512820514,4397.948717948719,4383.589743589744,1682.0,1685.0,518.268,491.95404052734375,0.0,0.0,0.0,0.0
516606,91.0,0.0,446.0,4471.282051282052,4169.2307692307695,4334.358974358975,4832.307692307693,3790.7692307692314,4212.820512820514,4267.179487179487,4094.8717948717954,4388.717948717949,4086.666666666667,4281.025641025642,4295.8974358974365,4406.153846153847,4390.769230769231,1682.0,1685.0,518.275,491.95404052734375,0.0,0.0,0.0,0.0
516606,92.0,0.0,455.0,4465.128205128206,4170.769230769231,4332.307692307693,4830.256410256411,3797.435897435898,4221.538461538462,4270.256410256411,4102.051282051282,4388.717948717949,4090.2564102564106,4282.564102564103,4294.871794871796,4402.051282051282,4390.256410256411,1683.0,1685.0,518.284,491.95404052734375,0.0,0.0,0.0,0.0
516606,93.0,0.0,184.0,4463.589743589744,4175.384615384616,4330.769230769231,4832.307692307693,3793.8461538461543,4229.2307692307695,4273.333333333334,4103.589743589744,4383.076923076924,4088.717948717949,4273.846153846154,4293.333333333334,4396.410256410257,4387.179487179487,1683.0,1685.0,518.291,491.95404052734375,0.0,0.0,0.0,0.0
516606,94.0,0.0,487.0,4476.410256410257,4177.948717948719,4342.564102564103,4841.538461538462,3787.1794871794878,4213.846153846154,4270.256410256411,4103.589743589744,4381.538461538462,4086.1538461538466,4273.846153846154,4299.48717948718,4402.564102564103,4391.794871794872,1682.0,1685.0,518.299,491.95404052734375,0.0,0.0,0.0,0.0
516606,95.0,0.0,446.0,4478.974358974359,4173.846153846154,4346.153846153847,4840.000000000001,3788.205128205129,4200.512820512821,4268.717948717949,4099.48717948718,4382.051282051282,4084.1025641025644,4275.8974358974365,4301.538461538462,4406.153846153847,4395.384615384616,1682.0,1686.0,518.307,491.95404052734375,0.0,0.0,0.0,0.0
516607,96.0,0.0,455.0,4466.666666666667,4169.74358974359,4338.461538461539,4828.717948717949,3789.7435897435903,4212.307692307693,4270.256410256411,4087.692307692308,4374.871794871796,4083.076923076924,4271.282051282052,4293.333333333334,4401.538461538462,4390.256410256411,1682.0,1685.0,518.314,491.95404052734375,0.0,0.0,0.0,0.0
516607,97.0,0.0,184.0,4459.48717948718,4169.2307692307695,4332.307692307693,4826.153846153847,3787.692307692308,4222.564102564103,4265.641025641026,4080.5128205128212,4364.102564102564,4080.5128205128212,4263.589743589744,4287.179487179487,4397.435897435898,4385.128205128206,1682.0,1685.0,518.322,491.95404052734375,0.0,0.0,0.0,0.0
516607,98.0,0.0,487.0,4456.410256410257,4167.6923076923085,4324.615384615385,4828.717948717949,3786.666666666667,4217.948717948719,4258.974358974359,4083.589743589744,4358.974358974359,4077.435897435898,4255.8974358974365,4289.2307692307695,4390.256410256411,4382.564102564103,1681.0,1684.0,518.33,491.95404052734375,0.0,0.0,0.0,0.0
516608,99.0,0.0,446.0,4458.974358974359,4167.179487179487,4323.076923076924,4826.666666666667,3787.692307692308,4216.410256410257,4263.589743589744,4091.7948717948725,4364.615384615385,4080.0000000000005,4259.48717948718,4292.307692307693,4390.769230769231,4384.102564102564,1681.0,1685.0,518.338,491.95404052734375,0.0,0.0,0.0,0.0
516608,100.0,0.0,455.0,4469.2307692307695,4170.769230769231,4335.384615384616,4830.769230769231,3788.717948717949,4218.974358974359,4271.282051282052,4094.8717948717954,4375.384615384616,4083.076923076924,4270.769230769231,4293.333333333334,4405.641025641026,4395.384615384616,1681.0,1684.0,518.346,491.95404052734375,0.0,0.0,0.0,0.0
516608,101.0,0.0,184.0,4470.769230769231,4172.820512820514,4340.512820512821,4837.948717948719,3789.2307692307695,4214.358974358975,4268.205128205129,4090.7692307692314,4378.974358974359,4083.589743589744,4273.846153846154,4296.410256410257,4414.358974358975,4402.564102564103,1680.0,1685.0,518.353,491.95404052734375,0.0,0.0,0.0,0.0
516609,102.0,0.0,487.0,4466.666666666667,4172.820512820514,4333.846153846154,4837.435897435898,3791.2820512820517,4210.769230769231,4263.589743589744,4091.7948717948725,4378.461538461539,4085.6410256410263,4269.74358974359,4296.923076923077,4406.666666666667,4397.435897435898,1682.0,1684.0,518.361,491.95404052734375,0.0,0.0,0.0,0.0
516609,103.0,0.0,446.0,4467.179487179487,4172.307692307693,4331.282051282052,4831.794871794872,3789.7435897435903,4209.74358974359,4265.128205128206,4095.3846153846157,4377.435897435898,4085.1282051282055,4264.102564102564,4291.282051282052,4400.512820512821,4391.282051282052,1680.0,1684.0,518.37,491.95404052734375,0.0,0.0,0.0,0.0
516853,104.0,0.0,455.0,4463.589743589744,4169.74358974359,4328.205128205129,4827.6923076923085,3784.615384615385,4205.128205128206,4261.538461538462,4082.564102564103,4368.717948717949,4078.461538461539,4254.358974358975,4287.179487179487,4394.871794871796,4385.128205128206,1682.0,1685.0,518.377,492.0791320800781,0.0,0.0,0.0,0.0
516853,105.0,0.0,184.0,4456.923076923077,4167.179487179487,4322.564102564103,4826.666666666667,3783.076923076924,4208.205128205129,4255.384615384616,4071.2820512820517,4357.435897435898,4072.820512820513,4242.051282051282,4288.717948717949,4385.641025641026,4378.974358974359,1681.0,1684.0,518.385,492.0791320800781,0.0,0.0,0.0,0.0
516853,106.0,0.0,487.0,4454.871794871796,4167.6923076923085,4320.512820512821,4827.6923076923085,3783.589743589744,4208.717948717949,4257.435897435898,4080.5128205128212,4360.512820512821,4073.333333333334,4241.538461538462,4289.2307692307695,4387.179487179487,4377.948717948719,1681.0,1686.0,518.393,492.0791320800781,0.0,0.0,0.0,0.0
516853,107.0,0.0,446.0,4453.333333333334,4168.205128205129,4317.948717948719,4823.589743589744,3783.589743589744,4205.641025641026,4258.461538461539,4084.1025641025644,4363.589743589744,4072.307692307693,4249.2307692307695,4287.6923076923085,4390.256410256411,4379.48717948718,1681.0,1684.0,518.4,492.0791320800781,0.0,0.0,0.0,0.0
516853,108.0,0.0,455.0,4452.307692307693,4168.205128205129,4312.307692307693,4815.384615384616,3785.1282051282055,4213.333333333334,4258.974358974359,4081.538461538462,4359.48717948718,4070.2564102564106,4246.153846153847,4288.205128205129,4385.641025641026,4377.948717948719,1681.0,1684.0,518.408,492.0791320800781,0.0,0.0,0.0,0.0
516854,109.0,0.0,184.0,4453.333333333334,4165.641025641026,4313.333333333334,4813.846153846154,3784.615384615385,4211.282051282052,4264.102564102564,4087.692307692308,4363.589743589744,4071.7948717948725,4237.948717948719,4289.2307692307695,4383.589743589744,4374.358974358975,1681.0,1684.0,518.416,492.0791320800781,0.0,0.0,0.0,0.0
516854,110.0,0.0,487.0,4449.2307692307695,4162.564102564103,4311.794871794872,4816.410256410257,3782.0512820512827,4192.820512820514,4266.153846153847,4091.2820512820517,4367.179487179487,4073.8461538461543,4235.8974358974365,4288.717948717949,4381.538461538462,4370.769230769231,1681.0,1684.0,518.424,492.0791320800781,0.0,0.0,0.0,0.0
516854,111.0,0.0,446.0,4444.615384615385,4162.051282051282,4307.6923076923085,4814.871794871796,3782.0512820512827,4188.717948717949,4262.564102564103,4086.1538461538466,4361.025641025642,4071.7948717948725,4237.435897435898,4287.6923076923085,4376.410256410257,4368.205128205129,1682.0,1684.0,518.433,492.0791320800781,0.0,0.0,0.0,0.0
516854,112.0,0.0,455.0,4451.794871794872,4163.076923076924,4311.282051282052,4813.333333333334,3783.076923076924,4203.589743589744,4256.923076923077,4081.538461538462,4356.923076923077,4070.7692307692314,4238.974358974359,4290.256410256411,4378.461538461539,4371.794871794872,1681.0,1684.0,518.439,492.0791320800781,0.0,0.0,0.0,0.0
516854,113.0,0.0,184.0,4457.948717948719,4165.128205128206,4312.820512820514,4815.8974358974365,3782.564102564103,4208.205128205129,4255.8974358974365,4079.48717948718,4356.410256410257,4071.2820512820517,4243.589743589744,4295.384615384616,4382.564102564103,4374.358974358975,1682.0,1684.0,518.448,492.0791320800781,0.0,0.0,0.0,0.0
516855,114.0,0.0,487.0,4455.8974358974365,4168.205128205129,4312.307692307693,4819.48717948718,3783.589743589744,4204.615384615385,4255.384615384616,4082.0512820512827,4357.435897435898,4070.7692307692314,4245.641025641026,4295.8974358974365,4382.051282051282,4372.820512820514,1681.0,1683.0,518.456,492.0791320800781,0.0,0.0,0.0,0.0
516855,115.0,0.0,446.0,4452.820512820514,4168.205128205129,4311.794871794872,4819.48717948718,3783.076923076924,4207.179487179487,4254.358974358975,4086.1538461538466,4360.000000000001,4072.307692307693,4244.615384615385,4291.794871794872,4380.512820512821,4371.282051282052,1682.0,1684.0,518.464,492.0791320800781,0.0,0.0,0.0,0.0
516855,116.0,0.0,455.0,4452.820512820514,4166.666666666667,4307.6923076923085,4817.948717948719,3776.9230769230776,4211.282051282052,4253.333333333334,4081.0256410256416,4355.384615384616,4070.7692307692314,4240.000000000001,4288.205128205129,4376.410256410257,4369.2307692307695,1682.0,1683.0,518.472,492.0791320800781,0.0,0.0,0.0,0.0
