timestamp,cnt,inerpolated,raw_cq,af3,f7,f3,fc5,t7,p7,o1,o2,p8,t8,fc6,f4,f8,af4,gyrox,gyroy,epoc_timestamp,epoc_es_timestamp,func_id,func_value,marker,sync_signal
1056605,48.0,0.0,0.0,4460.000000000001,4168.205128205129,4303.589743589744,4817.948717948719,3797.9487179487182,4235.384615384616,4246.153846153847,4076.410256410257,4372.307692307693,4083.589743589744,4255.384615384616,4290.769230769231,4374.871794871796,4357.948717948719,1681.0,1684.0,1058.102,1019.0867309570312,0.0,0.0,0.0,0.0
1056605,49.0,0.0,0.0,4470.769230769231,4168.717948717949,4309.743589743591,4826.153846153847,3797.9487179487182,4217.948717948719,4244.102564102564,4097.948717948719,4387.179487179487,4093.8461538461543,4263.076923076924,4296.923076923077,4388.205128205129,4371.794871794872,1683.0,1683.0,1058.111,1019.0867309570312,0.0,0.0,0.0,0.0
1056605,50.0,0.0,0.0,4481.538461538462,4170.769230769231,4320.512820512821,4830.256410256411,3797.9487179487182,4212.820512820514,4247.6923076923085,4099.48717948718,4391.794871794872,4101.025641025642,4273.846153846154,4303.076923076924,4407.179487179487,4387.6923076923085,1682.0,1682.0,1058.118,1019.0867309570312,0.0,0.0,0.0,0.0
1056606,51.0,0.0,0.0,4483.076923076924,4172.307692307693,4321.538461538462,4825.641025641026,3797.9487179487182,4217.948717948719,4252.307692307693,4097.948717948719,4389.743589743591,4100.000000000001,4275.384615384616,4305.128205128206,4408.717948717949,4387.6923076923085,1683.0,1683.0,1058.126,1019.0867309570312,0.0,0.0,0.0,0.0
1056606,52.0,0.0,0.0,4478.974358974359,4171.282051282052,4317.435897435898,4828.205128205129,3800.512820512821,4219.48717948718,4253.846153846154,4108.205128205129,4395.384615384616,4101.025641025642,4271.282051282052,4303.589743589744,4405.641025641026,4383.589743589744,1683.0,1683.0,1058.134,1019.0867309570312,0.0,0.0,0.0,0.0
1056606,53.0,0.0,0.0,4476.410256410257,4170.769230769231,4317.435897435898,4830.256410256411,3801.0256410256416,4222.564102564103,4250.769230769231,4102.051282051282,4391.794871794872,4099.48717948718,4274.358974358975,4301.538461538462,4409.743589743591,4386.666666666667,1684.0,1683.0,1058.141,1019.0867309570312,0.0,0.0,0.0,0.0
1056606,54.0,0.0,0.0,4473.846153846154,4171.282051282052,4322.564102564103,4824.615384615386,3800.512820512821,4226.666666666667,4250.256410256411,4092.820512820513,4386.666666666667,4096.923076923077,4281.538461538462,4302.051282051282,4411.794871794872,4390.769230769231,1683.0,1682.0,1058.15,1019.0867309570312,0.0,0.0,0.0,0.0
1056606,55.0,0.0,0.0,4473.333333333334,4171.282051282052,4324.102564102564,4823.589743589744,3801.538461538462,4223.076923076924,4250.769230769231,4105.128205128206,4394.358974358975,4102.051282051282,4279.48717948718,4305.128205128206,4408.205128205129,4388.205128205129,1684.0,1683.0,1058.158,1019.0867309570312,0.0,0.0,0.0,0.0
1056607,56.0,0.0,0.0,4477.948717948719,4172.820512820514,4321.025641025642,4826.666666666667,3802.564102564103,4222.051282051282,4248.205128205129,4110.769230769231,4396.923076923077,4103.589743589744,4276.923076923077,4306.153846153847,4405.128205128206,4385.641025641026,1685.0,1682.0,1058.165,1019.0867309570312,0.0,0.0,0.0,0.0
1056607,57.0,0.0,0.0,4482.051282051282,4173.846153846154,4322.564102564103,4830.256410256411,3801.538461538462,4225.128205128206,4242.564102564103,4092.307692307693,4384.615384615385,4096.410256410257,4284.102564102564,4305.641025641026,4409.2307692307695,4392.307692307693,1685.0,1683.0,1058.173,1019.0867309570312,0.0,0.0,0.0,0.0
1056607,58.0,0.0,0.0,4483.589743589744,4177.948717948719,4329.2307692307695,4834.871794871796,3800.0000000000005,4216.923076923077,4242.051282051282,4082.0512820512827,4382.564102564103,4101.538461538462,4292.820512820514,4308.205128205129,4420.512820512821,4404.102564102564,1685.0,1681.0,1058.181,1019.0867309570312,0.0,0.0,0.0,0.0
1056607,59.0,0.0,0.0,4486.153846153847,4182.564102564103,4334.358974358975,4835.384615384616,3798.461538461539,4207.6923076923085,4249.2307692307695,4102.051282051282,4398.974358974359,4111.794871794872,4297.435897435898,4313.333333333334,4431.794871794872,4406.153846153847,1685.0,1681.0,1058.189,1019.0867309570312,0.0,0.0,0.0,0.0
1056608,60.0,0.0,0.0,4486.666666666667,4180.512820512821,4332.307692307693,4831.794871794872,3801.538461538462,4215.8974358974365,4255.384615384616,4112.307692307693,4403.076923076924,4107.179487179487,4297.435897435898,4312.820512820514,4433.846153846154,4401.538461538462,1685.0,1681.0,1058.197,1019.0867309570312,0.0,0.0,0.0,0.0
1056608,61.0,0.0,0.0,4486.153846153847,4174.358974358975,4330.769230769231,4830.256410256411,3805.6410256410263,4227.6923076923085,4257.948717948719,4104.102564102564,4396.410256410257,4104.615384615385,4296.410256410257,4309.2307692307695,4430.769230769231,4404.102564102564,1685.0,1680.0,1058.205,1019.0867309570312,0.0,0.0,0.0,0.0
1056608,62.0,0.0,0.0,4484.615384615385,4172.307692307693,4332.307692307693,4831.282051282052,3805.1282051282055,4229.2307692307695,4258.974358974359,4114.358974358975,4403.589743589744,4110.769230769231,4297.435897435898,4308.717948717949,4432.307692307693,4409.2307692307695,1685.0,1681.0,1058.213,1019.0867309570312,0.0,0.0,0.0,0.0
1056608,63.0,0.0,0.0,4478.461538461539,4171.794871794872,4327.179487179487,4828.717948717949,3802.564102564103,4230.256410256411,4256.410256410257,4110.256410256411,4398.461538461539,4107.179487179487,4290.769230769231,4308.205128205129,4425.128205128206,4402.051282051282,1685.0,1681.0,1058.22,1019.0867309570312,0.0,0.0,0.0,0.0
1056608,64.0,0.0,474.0,4475.384615384616,4169.74358974359,4317.435897435898,4823.076923076924,3800.0000000000005,4229.74358974359,4250.769230769231,4086.1538461538466,4378.461538461539,4098.974358974359,4282.051282051282,4304.102564102564,4412.307692307693,4391.794871794872,1684.0,1682.0,1058.228,1019.0867309570312,0.0,0.0,0.0,0.0
1056608,65.0,0.0,269.0,4480.000000000001,4168.205128205129,4320.512820512821,4822.051282051282,3798.461538461539,4222.564102564103,4250.769230769231,4098.461538461539,4384.615384615385,4101.538461538462,4288.205128205129,4302.051282051282,4416.410256410257,4396.923076923077,1684.0,1682.0,1058.235,1019.0867309570312,0.0,0.0,0.0,0.0
1056608,66.0,0.0,450.0,4483.076923076924,4171.794871794872,4331.794871794872,4826.153846153847,3798.9743589743593,4220.000000000001,4255.384615384616,4118.461538461539,4397.435897435898,4108.717948717949,4297.435897435898,4305.641025641026,4427.6923076923085,4404.615384615385,1684.0,1683.0,1058.244,1019.0867309570312,0.0,0.0,0.0,0.0
1056609,67.0,0.0,356.0,4481.538461538462,4177.435897435898,4334.871794871796,4831.282051282052,3800.0000000000005,4225.128205128206,4254.871794871796,4100.512820512821,4386.666666666667,4106.666666666667,4296.410256410257,4307.6923076923085,4424.615384615385,4399.48717948718,1684.0,1682.0,1058.251,1019.0867309570312,0.0,0.0,0.0,0.0
1056609,68.0,0.0,456.0,4481.025641025642,4175.384615384616,4331.794871794872,4829.2307692307695,3799.48717948718,4225.128205128206,4252.820512820514,4102.564102564103,4386.666666666667,4104.102564102564,4299.48717948718,4306.666666666667,4417.948717948719,4395.8974358974365,1683.0,1685.0,1058.26,1019.0867309570312,0.0,0.0,0.0,0.0
1056609,69.0,0.0,548.0,4482.051282051282,4174.358974358975,4331.794871794872,4827.6923076923085,3798.461538461539,4222.564102564103,4251.282051282052,4116.923076923077,4393.333333333334,4106.666666666667,4303.589743589744,4307.179487179487,4422.564102564103,4398.974358974359,1685.0,1683.0,1058.266,1019.0867309570312,0.0,0.0,0.0,0.0
1056609,70.0,0.0,533.0,4484.615384615385,4178.974358974359,4335.384615384616,4829.2307692307695,3800.512820512821,4223.076923076924,4251.794871794872,4095.3846153846157,4378.974358974359,4107.6923076923085,4303.589743589744,4309.743589743591,4428.717948717949,4400.000000000001,1683.0,1683.0,1058.274,1019.0867309570312,0.0,0.0,0.0,0.0
1056609,71.0,0.0,478.0,4486.666666666667,4178.461538461539,4338.974358974359,4830.256410256411,3802.564102564103,4224.615384615385,4256.410256410257,4084.615384615385,4372.307692307693,4107.179487179487,4309.2307692307695,4311.282051282052,4432.307692307693,4402.051282051282,1684.0,1684.0,1058.282,1019.0867309570312,0.0,0.0,0.0,0.0
1056609,72.0,0.0,421.0,4482.564102564103,4175.384615384616,4336.410256410257,4830.769230769231,3802.0512820512827,4221.538461538462,4256.923076923077,4103.076923076924,4384.102564102564,4104.615384615385,4310.256410256411,4307.6923076923085,4430.256410256411,4403.589743589744,1684.0,1683.0,1058.29,1019.0867309570312,0.0,0.0,0.0,0.0
1056609,73.0,0.0,458.0,4478.974358974359,4173.333333333334,4328.717948717949,4828.717948717949,3798.461538461539,4216.410256410257,4250.769230769231,4108.205128205129,4388.717948717949,4102.051282051282,4300.512820512821,4304.102564102564,4421.025641025642,4393.846153846154,1685.0,1683.0,1058.298,1019.0867309570312,0.0,0.0,0.0,0.0
1056609,74.0,0.0,487.0,4480.000000000001,4171.794871794872,4329.2307692307695,4826.666666666667,3797.9487179487182,4216.923076923077,4249.2307692307695,4097.435897435898,4383.589743589744,4104.102564102564,4294.871794871796,4304.615384615385,4418.974358974359,4386.153846153847,1685.0,1682.0,1058.306,1019.0867309570312,0.0,0.0,0.0,0.0
1056609,75.0,0.0,438.0,4478.974358974359,4170.769230769231,4334.871794871796,4828.717948717949,3799.48717948718,4221.025641025642,4253.333333333334,4096.410256410257,4385.128205128206,4106.153846153847,4299.48717948718,4306.666666666667,4427.6923076923085,4393.333333333334,1684.0,1682.0,1058.313,1019.0867309570312,0.0,0.0,0.0,0.0
1056610,76.0,0.0,448.0,4479.48717948718,4172.820512820514,4338.461538461539,4832.820512820514,3800.0000000000005,4220.512820512821,4255.384615384616,4100.000000000001,4390.256410256411,4107.179487179487,4307.6923076923085,4308.205128205129,4434.358974358975,4400.000000000001,1685.0,1680.0,1058.321,1019.0867309570312,0.0,0.0,0.0,0.0
1056610,77.0,0.0,245.0,4476.923076923077,4175.384615384616,4334.358974358975,4830.769230769231,3797.435897435898,4223.589743589744,4255.8974358974365,4095.3846153846157,4386.153846153847,4105.641025641026,4305.641025641026,4307.6923076923085,4428.205128205129,4393.846153846154,1685.0,1680.0,1058.329,1019.0867309570312,0.0,0.0,0.0,0.0
1056610,78.0,0.0,487.0,4471.282051282052,4178.974358974359,4328.717948717949,4829.2307692307695,3802.0512820512827,4231.282051282052,4256.410256410257,4089.7435897435903,4376.923076923077,4103.589743589744,4295.8974358974365,4303.589743589744,4415.8974358974365,4385.128205128206,1684.0,1679.0,1058.337,1019.0867309570312,0.0,0.0,0.0,0.0
1056610,79.0,0.0,438.0,4477.948717948719,4181.538461538462,4333.333333333334,4833.846153846154,3809.7435897435903,4229.74358974359,4256.923076923077,4096.410256410257,4381.538461538462,4106.153846153847,4299.48717948718,4305.641025641026,4422.051282051282,4387.6923076923085,1685.0,1680.0,1058.346,1019.0867309570312,0.0,0.0,0.0,0.0
1056981,80.0,0.0,448.0,4488.717948717949,4183.076923076924,4340.000000000001,4834.871794871796,3806.666666666667,4228.717948717949,4262.051282051282,4115.384615384616,4396.923076923077,4112.820512820514,4309.2307692307695,4308.205128205129,4438.461538461539,4394.358974358975,1684.0,1680.0,1058.353,1019.3369140625,0.0,0.0,0.0,0.0
1056982,81.0,0.0,245.0,4485.641025641026,4184.615384615385,4334.358974358975,4836.410256410257,3807.1794871794878,4234.358974358975,4266.153846153847,4117.948717948719,4398.461538461539,4110.769230769231,4304.615384615385,4303.076923076924,4432.307692307693,4391.282051282052,1685.0,1680.0,1058.361,1019.3369140625,0.0,0.0,0.0,0.0
1056982,82.0,0.0,487.0,4481.538461538462,4182.564102564103,4333.333333333334,4835.8974358974365,3813.333333333334,4239.48717948718,4265.128205128206,4104.615384615385,4390.256410256411,4107.179487179487,4302.564102564103,4300.512820512821,4423.589743589744,4388.205128205129,1685.0,1680.0,1058.368,1019.3369140625,0.0,0.0,0.0,0.0
1056982,83.0,0.0,438.0,4487.6923076923085,4184.615384615385,4344.615384615385,4837.435897435898,3815.8974358974365,4239.48717948718,4265.128205128206,4103.076923076924,4394.871794871796,4115.384615384616,4312.820512820514,4306.153846153847,4433.846153846154,4398.461538461539,1685.0,1681.0,1058.376,1019.3369140625,0.0,0.0,0.0,0.0
1056982,84.0,0.0,448.0,4486.666666666667,4184.102564102564,4346.153846153847,4838.974358974359,3814.358974358975,4233.333333333334,4268.717948717949,4115.8974358974365,4401.538461538462,4118.974358974359,4313.846153846154,4307.6923076923085,4432.820512820514,4400.000000000001,1685.0,1681.0,1058.384,1019.3369140625,0.0,0.0,0.0,0.0
1056983,85.0,0.0,245.0,4476.923076923077,4172.307692307693,4333.333333333334,4831.794871794872,3809.7435897435903,4230.769230769231,4265.641025641026,4105.128205128206,4390.256410256411,4106.153846153847,4302.051282051282,4301.538461538462,4415.384615384616,4386.666666666667,1685.0,1683.0,1058.393,1019.3369140625,0.0,0.0,0.0,0.0
1056983,86.0,0.0,487.0,4483.076923076924,4172.307692307693,4332.307692307693,4828.717948717949,3802.0512820512827,4230.256410256411,4256.923076923077,4091.2820512820517,4379.48717948718,4103.076923076924,4303.589743589744,4303.589743589744,4421.025641025642,4390.256410256411,1686.0,1682.0,1058.399,1019.3369140625,0.0,0.0,0.0,0.0
1056983,87.0,0.0,438.0,4494.871794871796,4185.641025641026,4347.179487179487,4837.435897435898,3799.48717948718,4221.538461538462,4258.974358974359,4110.769230769231,4397.435897435898,4118.461538461539,4322.564102564103,4312.307692307693,4444.102564102564,4410.256410256411,1684.0,1682.0,1058.407,1019.3369140625,0.0,0.0,0.0,0.0
1056983,88.0,0.0,448.0,4489.2307692307695,4184.102564102564,4348.205128205129,4837.435897435898,3803.589743589744,4211.282051282052,4264.615384615385,4124.102564102564,4409.743589743591,4121.538461538462,4330.769230769231,4311.794871794872,4444.102564102564,4411.282051282052,1686.0,1680.0,1058.415,1019.3369140625,0.0,0.0,0.0,0.0
1056984,89.0,0.0,245.0,4475.8974358974365,4171.794871794872,4334.358974358975,4826.666666666667,3800.512820512821,4216.410256410257,4260.000000000001,4114.871794871796,4399.48717948718,4107.179487179487,4316.923076923077,4305.128205128206,4429.2307692307695,4396.923076923077,1684.0,1681.0,1058.423,1019.3369140625,0.0,0.0,0.0,0.0
1056984,90.0,0.0,487.0,4475.8974358974365,4168.717948717949,4329.743589743591,4826.666666666667,3797.9487179487182,4228.205128205129,4253.846153846154,4108.205128205129,4393.333333333334,4104.102564102564,4307.6923076923085,4302.051282051282,4426.153846153847,4393.846153846154,1685.0,1681.0,1058.431,1019.3369140625,0.0,0.0,0.0,0.0
1056984,91.0,0.0,438.0,4480.000000000001,4172.307692307693,4337.435897435898,4829.743589743591,3799.48717948718,4226.666666666667,4257.948717948719,4103.076923076924,4396.923076923077,4109.74358974359,4315.8974358974365,4303.076923076924,4430.769230769231,4398.974358974359,1685.0,1680.0,1058.439,1019.3369140625,0.0,0.0,0.0,0.0
1056985,92.0,0.0,448.0,4478.461538461539,4175.384615384616,4342.051282051282,4827.6923076923085,3800.512820512821,4226.153846153847,4267.179487179487,4100.000000000001,4399.48717948718,4109.74358974359,4322.051282051282,4305.128205128206,4431.794871794872,4401.538461538462,1684.0,1681.0,1058.447,1019.3369140625,0.0,0.0,0.0,0.0
1056985,93.0,0.0,245.0,4480.512820512821,4175.384615384616,4342.564102564103,4830.256410256411,3800.512820512821,4230.769230769231,4267.6923076923085,4110.769230769231,4401.025641025642,4110.256410256411,4317.948717948719,4307.6923076923085,4430.769230769231,4400.000000000001,1685.0,1680.0,1058.454,1019.3369140625,0.0,0.0,0.0,0.0
1056985,94.0,0.0,487.0,4486.666666666667,4177.435897435898,4343.076923076924,4833.846153846154,3800.512820512821,4230.256410256411,4262.051282051282,4116.923076923077,4400.000000000001,4114.358974358975,4318.461538461539,4307.6923076923085,4432.307692307693,4400.000000000001,1685.0,1680.0,1058.463,1019.3369140625,0.0,0.0,0.0,0.0
1056986,95.0,0.0,438.0,4488.717948717949,4180.512820512821,4342.564102564103,4832.307692307693,3800.512820512821,4222.051282051282,4259.48717948718,4110.769230769231,4396.923076923077,4111.282051282052,4324.102564102564,4304.615384615385,4433.333333333334,4403.076923076924,1685.0,1680.0,1058.47,1019.3369140625,0.0,0.0,0.0,0.0
1056986,96.0,0.0,448.0,4482.564102564103,4176.410256410257,4341.025641025642,4828.717948717949,3798.9743589743593,4218.461538461539,4260.000000000001,4108.717948717949,4395.8974358974365,4107.6923076923085,4318.974358974359,4302.564102564103,4431.794871794872,4401.538461538462,1685.0,1681.0,1058.479,1019.3369140625,0.0,0.0,0.0,0.0
1056986,97.0,0.0,245.0,4477.435897435898,4171.794871794872,4338.461538461539,4828.205128205129,3798.9743589743593,4225.641025641026,4260.000000000001,4109.2307692307695,4397.948717948719,4109.74358974359,4312.820512820514,4305.641025641026,4433.333333333334,4400.512820512821,1686.0,1680.0,1058.485,1019.3369140625,0.0,0.0,0.0,0.0
1056987,98.0,0.0,487.0,4478.461538461539,4173.846153846154,4340.000000000001,4830.256410256411,3799.48717948718,4230.769230769231,4259.48717948718,4107.179487179487,4396.410256410257,4111.794871794872,4314.871794871796,4310.256410256411,4434.871794871796,4402.564102564103,1684.0,1681.0,1058.494,1019.3369140625,0.0,0.0,0.0,0.0
1056987,99.0,0.0,438.0,4487.6923076923085,4180.512820512821,4344.615384615385,4835.384615384616,3798.9743589743593,4227.6923076923085,4258.974358974359,4105.128205128206,4393.333333333334,4110.256410256411,4318.461538461539,4310.256410256411,4436.410256410257,4405.128205128206,1686.0,1680.0,1058.501,1019.3369140625,0.0,0.0,0.0,0.0
1056987,100.0,0.0,448.0,4495.384615384616,4182.564102564103,4345.641025641026,4836.923076923077,3799.48717948718,4226.153846153847,4260.000000000001,4112.820512820514,4401.025641025642,4111.794871794872,4323.076923076924,4310.256410256411,4442.051282051282,4407.6923076923085,1685.0,1680.0,1058.509,1019.3369140625,0.0,0.0,0.0,0.0
1056987,101.0,0.0,245.0,4486.153846153847,4175.384615384616,4338.974358974359,4831.794871794872,3800.0000000000005,4229.2307692307695,4258.974358974359,4118.461538461539,4406.666666666667,4114.871794871796,4322.051282051282,4309.743589743591,4439.48717948718,4404.102564102564,1686.0,1682.0,1058.517,1019.3369140625,0.0,0.0,0.0,0.0
1056987,102.0,0.0,487.0,4476.410256410257,4171.282051282052,4332.820512820514,4826.153846153847,3798.461538461539,4228.205128205129,4255.8974358974365,4106.153846153847,4392.307692307693,4109.74358974359,4312.820512820514,4305.641025641026,4430.256410256411,4398.461538461539,1686.0,1681.0,1058.525,1019.3369140625,0.0,0.0,0.0,0.0
1056988,103.0,0.0,438.0,4484.615384615385,4176.410256410257,4335.384615384616,4829.743589743591,3794.8717948717954,4222.051282051282,4255.8974358974365,4105.128205128206,4388.205128205129,4105.641025641026,4314.358974358975,4303.589743589744,4434.358974358975,4400.512820512821,1686.0,1684.0,1058.533,1019.3369140625,0.0,0.0,0.0,0.0
1056988,104.0,0.0,448.0,4485.641025641026,4176.923076923077,4334.358974358975,4832.820512820514,3793.333333333334,4216.923076923077,4256.410256410257,4119.48717948718,4400.000000000001,4106.666666666667,4318.974358974359,4301.538461538462,4432.820512820514,4397.435897435898,1687.0,1684.0,1058.555,1019.3369140625,0.0,0.0,0.0,0.0
1056988,105.0,0.0,245.0,4474.358974358975,4169.2307692307695,4326.153846153847,4825.128205128206,3790.7692307692314,4216.923076923077,4252.307692307693,4111.794871794872,4393.333333333334,4104.102564102564,4310.769230769231,4297.948717948719,4417.948717948719,4385.641025641026,1686.0,1684.0,1058.556,1019.3369140625,0.0,0.0,0.0,0.0
1056988,106.0,0.0,487.0,4474.871794871796,4167.6923076923085,4327.179487179487,4821.025641025642,3789.7435897435903,4222.564102564103,4252.307692307693,4097.948717948719,4383.076923076924,4102.564102564103,4309.2307692307695,4299.48717948718,4418.461538461539,4383.589743589744,1687.0,1683.0,1058.556,1019.3369140625,0.0,0.0,0.0,0.0
1056988,107.0,0.0,438.0,4485.128205128206,4177.435897435898,4338.461538461539,4829.743589743591,3795.3846153846157,4225.128205128206,4257.435897435898,4108.717948717949,4397.435897435898,4108.205128205129,4321.538461538462,4306.666666666667,4434.358974358975,4391.794871794872,1687.0,1684.0,1058.564,1019.3369140625,0.0,0.0,0.0,0.0
1056988,108.0,0.0,448.0,4486.153846153847,4182.564102564103,4342.564102564103,4836.410256410257,3798.461538461539,4225.128205128206,4259.48717948718,4121.025641025642,4411.794871794872,4110.256410256411,4326.666666666667,4309.2307692307695,4437.435897435898,4397.435897435898,1687.0,1683.0,1058.571,1019.3369140625,0.0,0.0,0.0,0.0
1056988,109.0,0.0,245.0,4477.435897435898,4175.384615384616,4335.384615384616,4829.743589743591,3796.410256410257,4223.076923076924,4258.974358974359,4112.820512820514,4400.000000000001,4106.153846153847,4322.051282051282,4302.564102564103,4427.6923076923085,4391.794871794872,1686.0,1683.0,1058.58,1019.3369140625,0.0,0.0,0.0,0.0
1056989,110.0,0.0,487.0,4473.846153846154,4168.205128205129,4330.256410256411,4824.615384615386,3793.8461538461543,4217.435897435898,4256.410256410257,4103.076923076924,4387.6923076923085,4104.615384615385,4322.564102564103,4297.948717948719,4422.051282051282,4387.179487179487,1688.0,1683.0,1058.587,1019.3369140625,0.0,0.0,0.0,0.0
1056989,111.0,0.0,438.0,4480.000000000001,4172.820512820514,4335.384615384616,4829.743589743591,3793.8461538461543,4216.410256410257,4253.846153846154,4106.666666666667,4395.384615384616,4106.666666666667,4327.6923076923085,4301.538461538462,4426.666666666667,4394.871794871796,1687.0,1683.0,1058.596,1019.3369140625,0.0,0.0,0.0,0.0
1056989,112.0,0.0,448.0,4485.641025641026,4178.461538461539,4341.538461538462,4833.846153846154,3794.8717948717954,4227.179487179487,4257.435897435898,4105.641025641026,4400.512820512821,4105.128205128206,4327.6923076923085,4305.128205128206,4431.794871794872,4398.974358974359,1688.0,1683.0,1058.603,1019.3369140625,0.0,0.0,0.0,0.0
1056990,113.0,0.0,245.0,4481.538461538462,4178.974358974359,4340.512820512821,4831.794871794872,3797.9487179487182,4234.871794871796,4261.025641025642,4095.3846153846157,4391.794871794872,4102.564102564103,4326.666666666667,4304.102564102564,4430.256410256411,4392.820512820514,1687.0,1682.0,1058.612,1019.3369140625,0.0,0.0,0.0,0.0
1056990,114.0,0.0,487.0,4484.102564102564,4183.589743589744,4343.076923076924,4835.8974358974365,3800.0000000000005,4228.717948717949,4261.025641025642,4103.076923076924,4397.435897435898,4111.794871794872,4333.846153846154,4303.076923076924,4435.8974358974365,4395.8974358974365,1686.0,1684.0,1058.618,1019.3369140625,0.0,0.0,0.0,0.0
1056990,115.0,0.0,438.0,4495.8974358974365,4186.153846153847,4351.794871794872,4839.48717948718,3800.0000000000005,4228.205128205129,4264.102564102564,4118.461538461539,4412.820512820514,4122.564102564103,4340.000000000001,4307.179487179487,4448.205128205129,4408.717948717949,1686.0,1682.0,1058.626,1019.3369140625,0.0,0.0,0.0,0.0
1056991,116.0,0.0,448.0,4495.384615384616,4184.102564102564,4354.871794871796,4836.923076923077,3802.564102564103,4233.846153846154,4267.6923076923085,4115.384615384616,4406.153846153847,4121.025641025642,4336.923076923077,4307.6923076923085,4448.205128205129,4408.717948717949,1686.0,1683.0,1058.634,1019.3369140625,0.0,0.0,0.0,0.0
1056991,117.0,0.0,245.0,4486.153846153847,4184.615384615385,4354.358974358975,4837.435897435898,3804.1025641025644,4230.256410256411,4268.205128205129,4112.820512820514,4401.538461538462,4115.384615384616,4333.333333333334,4306.153846153847,4442.564102564103,4403.076923076924,1686.0,1682.0,1058.642,1019.3369140625,0.0,0.0,0.0,0.0
1056991,118.0,0.0,487.0,4482.564102564103,4183.076923076924,4349.743589743591,4835.384615384616,3803.076923076924,4227.179487179487,4270.256410256411,4123.589743589744,4412.820512820514,4114.871794871796,4332.307692307693,4306.153846153847,4440.000000000001,4402.051282051282,1685.0,1683.0,1058.65,1019.3369140625,0.0,0.0,0.0,0.0
1056991,119.0,0.0,438.0,4483.076923076924,4178.461538461539,4340.512820512821,4831.282051282052,3802.0512820512827,4231.794871794872,4272.307692307693,4124.102564102564,4410.256410256411,4114.871794871796,4324.102564102564,4306.153846153847,4432.307692307693,4400.000000000001,1686.0,1682.0,1058.659,1019.3369140625,0.0,0.0,0.0,0.0
1056992,120.0,0.0,448.0,4483.076923076924,4176.923076923077,4341.025641025642,4832.307692307693,3801.538461538462,4233.846153846154,4271.794871794872,4115.8974358974365,4399.48717948718,4110.769230769231,4318.974358974359,4305.641025641026,4428.717948717949,4398.974358974359,1685.0,1683.0,1058.665,1019.3369140625,0.0,0.0,0.0,0.0
1056992,121.0,0.0,245.0,4484.615384615385,4182.051282051282,4350.256410256411,4834.871794871796,3802.0512820512827,4232.820512820514,4270.256410256411,4112.307692307693,4400.000000000001,4113.333333333334,4327.6923076923085,4305.641025641026,4436.410256410257,4402.051282051282,1685.0,1682.0,1058.673,1019.3369140625,0.0,0.0,0.0,0.0
1056992,122.0,0.0,487.0,4483.589743589744,4184.615384615385,4350.769230769231,4835.8974358974365,3803.589743589744,4241.538461538462,4269.74358974359,4113.333333333334,4403.589743589744,4116.923076923077,4333.333333333334,4304.615384615385,4437.948717948719,4402.051282051282,1685.0,1682.0,1058.681,1019.3369140625,0.0,0.0,0.0,0.0
1056993,123.0,0.0,438.0,4488.205128205129,4184.102564102564,4345.641025641026,4836.923076923077,3804.1025641025644,4245.128205128206,4272.820512820514,4116.410256410257,4405.641025641026,4119.48717948718,4333.846153846154,4306.666666666667,4436.410256410257,4406.153846153847,1684.0,1683.0,1058.689,1019.3369140625,0.0,0.0,0.0,0.0
1056993,124.0,0.0,448.0,4497.435897435898,4185.641025641026,4350.769230769231,4840.000000000001,3801.0256410256416,4232.820512820514,4272.820512820514,4116.410256410257,4408.205128205129,4120.512820512821,4340.512820512821,4310.769230769231,4443.589743589744,4417.435897435898,1684.0,1682.0,1058.697,1019.3369140625,0.0,0.0,0.0,0.0
1056993,125.0,0.0,245.0,4491.282051282052,4183.076923076924,4354.358974358975,4839.48717948718,3798.461538461539,4223.076923076924,4263.589743589744,4109.2307692307695,4403.589743589744,4113.846153846154,4337.435897435898,4307.6923076923085,4440.512820512821,4412.307692307693,1683.0,1683.0,1058.704,1019.3369140625,0.0,0.0,0.0,0.0
1056993,126.0,0.0,487.0,4481.025641025642,4178.461538461539,4343.589743589744,4833.846153846154,3798.9743589743593,4228.205128205129,4260.000000000001,4108.205128205129,4398.461538461539,4108.205128205129,4323.589743589744,4302.564102564103,4426.153846153847,4396.923076923077,1683.0,1682.0,1058.713,1019.3369140625,0.0,0.0,0.0,0.0
1056993,127.0,0.0,438.0,4485.641025641026,4184.102564102564,4334.871794871796,4834.358974358975,3801.0256410256416,4233.333333333334,4266.153846153847,4117.435897435898,4405.128205128206,4113.333333333334,4323.076923076924,4302.564102564103,4424.102564102564,4401.025641025642,1682.0,1683.0,1058.72,1019.3369140625,0.0,0.0,0.0,0.0
1057099,128.0,0.0,448.0,4484.615384615385,4181.538461538462,4334.358974358975,4836.923076923077,3801.0256410256416,4237.435897435898,4269.2307692307695,4123.076923076924,4409.2307692307695,4113.333333333334,4326.666666666667,4299.48717948718,4425.641025641026,4403.076923076924,1682.0,1682.0,1058.729,1019.7122802734375,0.0,0.0,0.0,0.0
1057099,0.0,0.0,474.0,4476.923076923077,4172.820512820514,4331.282051282052,4831.794871794872,3801.0256410256416,4242.051282051282,4266.666666666667,4118.974358974359,4401.025641025642,4107.6923076923085,4320.512820512821,4297.948717948719,4421.025641025642,4392.820512820514,1681.0,1682.0,1058.736,1019.7122802734375,0.0,0.0,0.0,0.0
1057100,1.0,0.0,269.0,4483.589743589744,4180.000000000001,4334.871794871796,4830.769230769231,3800.512820512821,4234.871794871796,4264.615384615385,4117.948717948719,4401.025641025642,4113.333333333334,4326.153846153847,4306.153846153847,4427.6923076923085,4398.461538461539,1681.0,1683.0,1058.745,1019.7122802734375,0.0,0.0,0.0,0.0
1057100,2.0,0.0,450.0,4489.2307692307695,4185.641025641026,4342.564102564103,4837.435897435898,3793.8461538461543,4220.512820512821,4260.512820512821,4118.461538461539,4407.6923076923085,4114.871794871796,4337.435897435898,4308.205128205129,4437.435897435898,4408.205128205129,1680.0,1682.0,1058.751,1019.7122802734375,0.0,0.0,0.0,0.0
1057100,3.0,0.0,356.0,4481.025641025642,4173.846153846154,4336.410256410257,4830.769230769231,3788.717948717949,4219.48717948718,4257.435897435898,4106.153846153847,4400.000000000001,4103.589743589744,4327.179487179487,4300.000000000001,4428.205128205129,4399.48717948718,1681.0,1683.0,1058.759,1019.7122802734375,0.0,0.0,0.0,0.0
1057101,4.0,0.0,456.0,4477.435897435898,4167.179487179487,4329.2307692307695,4822.564102564103,3792.307692307693,4224.615384615385,4261.025641025642,4099.48717948718,4391.794871794872,4103.589743589744,4320.000000000001,4300.512820512821,4423.076923076924,4396.410256410257,1679.0,1683.0,1058.767,1019.7122802734375,0.0,0.0,0.0,0.0
1057101,5.0,0.0,548.0,4479.48717948718,4171.794871794872,4333.333333333334,4830.256410256411,3795.3846153846157,4221.025641025642,4264.102564102564,4109.74358974359,4398.461538461539,4110.256410256411,4330.769230769231,4306.153846153847,4434.358974358975,4406.666666666667,1680.0,1682.0,1058.776,1019.7122802734375,0.0,0.0,0.0,0.0
1057102,6.0,0.0,533.0,4473.333333333334,4171.794871794872,4331.282051282052,4829.2307692307695,3790.2564102564106,4220.000000000001,4261.025641025642,4112.307692307693,4398.974358974359,4107.179487179487,4330.769230769231,4300.512820512821,4430.769230769231,4403.076923076924,1679.0,1682.0,1058.783,1019.7122802734375,0.0,0.0,0.0,0.0
1057102,7.0,0.0,478.0,4468.717948717949,4167.6923076923085,4324.102564102564,4817.435897435898,3785.6410256410263,4228.205128205129,4257.948717948719,4104.615384615385,4390.256410256411,4103.589743589744,4315.8974358974365,4294.358974358975,4416.923076923077,4392.307692307693,1680.0,1682.0,1058.79,1019.7122802734375,0.0,0.0,0.0,0.0
1057102,8.0,0.0,421.0,4476.923076923077,4169.74358974359,4326.666666666667,4817.948717948719,3791.2820512820517,4233.846153846154,4261.025641025642,4110.256410256411,4397.948717948719,4110.256410256411,4319.48717948718,4302.051282051282,4424.615384615385,4399.48717948718,1679.0,1682.0,1058.798,1019.7122802734375,0.0,0.0,0.0,0.0
1057102,9.0,0.0,458.0,4489.2307692307695,4180.000000000001,4337.435897435898,4829.743589743591,3797.435897435898,4233.846153846154,4266.153846153847,4117.435897435898,4411.794871794872,4120.000000000001,4335.384615384616,4311.282051282052,4443.589743589744,4415.384615384616,1681.0,1683.0,1058.806,1019.7122802734375,0.0,0.0,0.0,0.0
1057103,10.0,0.0,487.0,4492.820512820514,4182.564102564103,4342.564102564103,4833.846153846154,3793.8461538461543,4232.307692307693,4267.179487179487,4117.948717948719,4414.871794871796,4122.051282051282,4335.8974358974365,4309.743589743591,4445.641025641026,4418.461538461539,1680.0,1683.0,1058.814,1019.7122802734375,0.0,0.0,0.0,0.0
1057103,11.0,0.0,438.0,4490.769230769231,4178.974358974359,4342.051282051282,4831.282051282052,3792.820512820513,4230.769230769231,4269.2307692307695,4131.794871794872,4417.435897435898,4116.410256410257,4326.666666666667,4306.153846153847,4437.948717948719,4411.282051282052,1681.0,1684.0,1058.822,1019.7122802734375,0.0,0.0,0.0,0.0
1057103,12.0,0.0,448.0,4491.282051282052,4183.589743589744,4344.615384615385,4834.871794871796,3797.9487179487182,4230.256410256411,4269.74358974359,4138.974358974359,4417.435897435898,4114.871794871796,4324.102564102564,4306.666666666667,4435.8974358974365,4407.6923076923085,1680.0,1683.0,1058.831,1019.7122802734375,0.0,0.0,0.0,0.0
1057103,13.0,0.0,245.0,4490.256410256411,4184.102564102564,4345.128205128206,4833.333333333334,3796.9230769230776,4227.6923076923085,4262.564102564103,4118.461538461539,4407.6923076923085,4113.333333333334,4321.538461538462,4304.102564102564,4430.256410256411,4405.128205128206,1682.0,1684.0,1058.838,1019.7122802734375,0.0,0.0,0.0,0.0
1057103,14.0,0.0,487.0,4486.153846153847,4171.794871794872,4339.48717948718,4827.179487179488,3789.7435897435903,4225.128205128206,4257.435897435898,4102.564102564103,4399.48717948718,4108.205128205129,4316.923076923077,4300.512820512821,4421.538461538462,4400.512820512821,1682.0,1681.0,1058.846,1019.7122802734375,0.0,0.0,0.0,0.0
1057228,15.0,0.0,438.0,4485.128205128206,4168.205128205129,4335.384615384616,4828.717948717949,3787.692307692308,4226.153846153847,4258.974358974359,4109.2307692307695,4400.512820512821,4106.153846153847,4315.8974358974365,4302.051282051282,4423.076923076924,4398.974358974359,1681.0,1682.0,1058.853,1019.8373413085938,0.0,0.0,0.0,0.0
1057228,16.0,0.0,0.0,4486.153846153847,4172.820512820514,4335.384615384616,4830.769230769231,3789.7435897435903,4227.179487179487,4260.512820512821,4112.820512820514,4400.000000000001,4108.205128205129,4314.871794871796,4302.564102564103,4426.153846153847,4395.8974358974365,1682.0,1680.0,1058.863,1019.8373413085938,0.0,0.0,0.0,0.0
1057228,17.0,0.0,0.0,4481.025641025642,4170.769230769231,4331.794871794872,4824.615384615386,3786.1538461538466,4230.256410256411,4258.461538461539,4107.6923076923085,4395.384615384616,4107.179487179487,4311.282051282052,4300.000000000001,4422.051282051282,4393.333333333334,1682.0,1680.0,1058.869,1019.8373413085938,0.0,0.0,0.0,0.0
1057228,18.0,0.0,0.0,4476.923076923077,4169.2307692307695,4329.743589743591,4823.589743589744,3787.1794871794878,4229.74358974359,4259.48717948718,4104.615384615385,4392.820512820514,4103.076923076924,4312.820512820514,4302.051282051282,4422.051282051282,4397.435897435898,1683.0,1681.0,1058.879,1019.8373413085938,0.0,0.0,0.0,0.0
1057228,19.0,0.0,0.0,4480.512820512821,4171.794871794872,4332.307692307693,4826.666666666667,3794.358974358975,4225.128205128206,4260.000000000001,4103.589743589744,4396.923076923077,4102.051282051282,4314.358974358975,4305.641025641026,4426.153846153847,4398.974358974359,1682.0,1680.0,1058.884,1019.8373413085938,0.0,0.0,0.0,0.0
1057229,20.0,0.0,0.0,4481.538461538462,4177.435897435898,4332.820512820514,4825.641025641026,3790.2564102564106,4223.589743589744,4257.435897435898,4105.128205128206,4400.512820512821,4103.589743589744,4313.333333333334,4303.589743589744,4425.641025641026,4396.410256410257,1683.0,1680.0,1058.893,1019.8373413085938,0.0,0.0,0.0,0.0
1057229,21.0,0.0,0.0,4486.666666666667,4184.615384615385,4333.333333333334,4833.846153846154,3784.615384615385,4223.589743589744,4259.48717948718,4109.74358974359,4400.512820512821,4105.641025641026,4316.923076923077,4305.641025641026,4428.717948717949,4400.000000000001,1682.0,1681.0,1058.901,1019.8373413085938,0.0,0.0,0.0,0.0
1057229,22.0,0.0,0.0,4492.820512820514,4186.153846153847,4337.435897435898,4841.025641025642,3795.3846153846157,4225.128205128206,4264.615384615385,4116.410256410257,4408.717948717949,4111.794871794872,4322.564102564103,4308.717948717949,4435.8974358974365,4406.666666666667,1683.0,1681.0,1058.908,1019.8373413085938,0.0,0.0,0.0,0.0
1057229,23.0,0.0,0.0,4490.256410256411,4184.102564102564,4336.410256410257,4836.923076923077,3804.615384615385,4232.820512820514,4267.179487179487,4117.948717948719,4414.358974358975,4114.358974358975,4321.025641025642,4305.128205128206,4435.8974358974365,4410.256410256411,1682.0,1681.0,1058.916,1019.8373413085938,0.0,0.0,0.0,0.0
1057229,24.0,0.0,0.0,4489.743589743591,4182.564102564103,4334.358974358975,4835.384615384616,3800.0000000000005,4235.8974358974365,4269.74358974359,4117.435897435898,4407.6923076923085,4109.74358974359,4321.025641025642,4305.128205128206,4432.820512820514,4411.794871794872,1683.0,1682.0,1058.923,1019.8373413085938,0.0,0.0,0.0,0.0
1057229,25.0,0.0,0.0,4494.358974358975,4182.564102564103,4340.512820512821,4836.923076923077,3795.8974358974365,4234.358974358975,4271.794871794872,4114.358974358975,4401.025641025642,4109.74358974359,4325.128205128206,4311.794871794872,4432.820512820514,4413.333333333334,1683.0,1680.0,1058.931,1019.8373413085938,0.0,0.0,0.0,0.0
1057229,26.0,0.0,0.0,4490.256410256411,4184.102564102564,4341.538461538462,4838.461538461539,3795.3846153846157,4237.435897435898,4266.666666666667,4111.794871794872,4398.974358974359,4113.846153846154,4323.076923076924,4309.743589743591,4429.743589743591,4412.307692307693,1682.0,1681.0,1058.939,1019.8373413085938,0.0,0.0,0.0,0.0
1057229,27.0,0.0,0.0,4480.512820512821,4183.076923076924,4332.307692307693,4835.384615384616,3793.8461538461543,4236.923076923077,4262.051282051282,4117.435897435898,4402.564102564103,4110.256410256411,4320.000000000001,4303.589743589744,4424.102564102564,4412.307692307693,1684.0,1681.0,1058.947,1019.8373413085938,0.0,0.0,0.0,0.0
1057230,28.0,0.0,0.0,4482.564102564103,4180.000000000001,4332.307692307693,4832.820512820514,3791.7948717948725,4232.820512820514,4263.076923076924,4118.974358974359,4407.179487179487,4110.256410256411,4320.000000000001,4303.589743589744,4425.641025641026,4411.794871794872,1682.0,1680.0,1058.955,1019.8373413085938,0.0,0.0,0.0,0.0
1057230,29.0,0.0,0.0,4492.820512820514,4181.025641025642,4340.512820512821,4835.8974358974365,3788.717948717949,4235.384615384616,4266.666666666667,4117.948717948719,4411.282051282052,4115.8974358974365,4324.615384615385,4306.666666666667,4432.820512820514,4410.769230769231,1683.0,1681.0,1058.963,1019.8373413085938,0.0,0.0,0.0,0.0
1057230,30.0,0.0,0.0,4493.333333333334,4184.615384615385,4340.512820512821,4838.461538461539,3789.2307692307695,4234.358974358975,4270.256410256411,4130.769230769231,4418.461538461539,4118.461538461539,4332.820512820514,4306.153846153847,4438.461538461539,4414.358974358975,1682.0,1681.0,1058.97,1019.8373413085938,0.0,0.0,0.0,0.0
1057346,31.0,0.0,0.0,4488.205128205129,4183.076923076924,4335.384615384616,4836.410256410257,3791.7948717948725,4225.641025641026,4267.6923076923085,4128.205128205129,4414.871794871796,4115.384615384616,4334.358974358975,4303.076923076924,4440.000000000001,4414.871794871796,1683.0,1681.0,1058.978,1019.9624633789062,0.0,0.0,0.0,0.0
1057346,32.0,0.0,0.0,4486.666666666667,4180.000000000001,4333.846153846154,4832.820512820514,3789.2307692307695,4225.128205128206,4263.076923076924,4108.205128205129,4406.153846153847,4110.769230769231,4329.743589743591,4303.076923076924,4437.948717948719,4413.333333333334,1683.0,1682.0,1058.986,1019.9624633789062,0.0,0.0,0.0,0.0
1057346,33.0,0.0,0.0,4487.6923076923085,4182.051282051282,4337.948717948719,4833.333333333334,3786.666666666667,4231.794871794872,4264.102564102564,4114.358974358975,4410.769230769231,4112.820512820514,4329.2307692307695,4306.153846153847,4437.435897435898,4414.358974358975,1683.0,1682.0,1058.995,1019.9624633789062,0.0,0.0,0.0,0.0
1057346,34.0,0.0,0.0,4489.743589743591,4186.153846153847,4343.076923076924,4836.410256410257,3788.717948717949,4236.410256410257,4267.6923076923085,4126.153846153847,4415.384615384616,4115.8974358974365,4329.2307692307695,4307.6923076923085,4441.025641025642,4417.948717948719,1683.0,1683.0,1059.002,1019.9624633789062,0.0,0.0,0.0,0.0
1057346,35.0,0.0,0.0,4493.846153846154,4185.641025641026,4343.589743589744,4837.948717948719,3792.307692307693,4240.512820512821,4270.256410256411,4118.974358974359,4412.820512820514,4116.410256410257,4325.641025641026,4305.128205128206,4442.051282051282,4420.000000000001,1682.0,1683.0,1059.009,1019.9624633789062,0.0,0.0,0.0,0.0
1057346,36.0,0.0,0.0,4490.256410256411,4183.589743589744,4338.461538461539,4837.435897435898,3796.410256410257,4237.948717948719,4272.820512820514,4119.48717948718,4418.461538461539,4115.8974358974365,4322.051282051282,4303.589743589744,4436.410256410257,4419.48717948718,1683.0,1682.0,1059.018,1019.9624633789062,0.0,0.0,0.0,0.0
1057347,37.0,0.0,0.0,4482.051282051282,4183.589743589744,4336.923076923077,4837.948717948719,3795.8974358974365,4233.846153846154,4271.794871794872,4121.538461538462,4418.974358974359,4111.794871794872,4324.102564102564,4305.641025641026,4431.794871794872,4416.410256410257,1681.0,1683.0,1059.025,1019.9624633789062,0.0,0.0,0.0,0.0
1057347,38.0,0.0,0.0,4484.615384615385,4182.051282051282,4337.435897435898,4837.435897435898,3789.7435897435903,4230.769230769231,4267.179487179487,4114.358974358975,4410.769230769231,4107.6923076923085,4326.153846153847,4303.589743589744,4430.769230769231,4414.871794871796,1683.0,1682.0,1059.033,1019.9624633789062,0.0,0.0,0.0,0.0
1057347,39.0,0.0,0.0,4489.2307692307695,4180.512820512821,4335.8974358974365,4833.846153846154,3787.692307692308,4227.179487179487,4266.153846153847,4118.461538461539,4414.358974358975,4113.333333333334,4327.179487179487,4303.076923076924,4431.282051282052,4420.000000000001,1681.0,1682.0,1059.041,1019.9624633789062,0.0,0.0,0.0,0.0
1057347,40.0,0.0,0.0,4487.179487179488,4183.589743589744,4334.358974358975,4835.8974358974365,3787.692307692308,4230.256410256411,4269.74358974359,4120.512820512821,4415.8974358974365,4114.871794871796,4327.6923076923085,4307.179487179487,4429.743589743591,4420.512820512821,1682.0,1683.0,1059.048,1019.9624633789062,0.0,0.0,0.0,0.0
1057347,41.0,0.0,0.0,4482.051282051282,4180.512820512821,4329.743589743591,4832.820512820514,3787.692307692308,4240.512820512821,4272.307692307693,4111.794871794872,4403.076923076924,4104.615384615385,4317.948717948719,4304.102564102564,4419.48717948718,4407.6923076923085,1682.0,1683.0,1059.056,1019.9624633789062,0.0,0.0,0.0,0.0
1057347,42.0,0.0,0.0,4478.461538461539,4169.74358974359,4321.025641025642,4824.102564102564,3791.7948717948725,4247.6923076923085,4272.307692307693,4111.794871794872,4398.974358974359,4102.051282051282,4304.615384615385,4297.948717948719,4407.6923076923085,4397.435897435898,1681.0,1684.0,1059.064,1019.9624633789062,0.0,0.0,0.0,0.0
1057348,43.0,0.0,0.0,4478.461538461539,4172.820512820514,4320.512820512821,4826.153846153847,3792.307692307693,4245.641025641026,4273.846153846154,4112.307692307693,4403.076923076924,4104.102564102564,4308.717948717949,4301.538461538462,4409.743589743591,4400.512820512821,1681.0,1683.0,1059.072,1019.9624633789062,0.0,0.0,0.0,0.0
1057348,44.0,0.0,0.0,4484.615384615385,4184.615384615385,4331.282051282052,4836.410256410257,3789.7435897435903,4236.923076923077,4278.461538461539,4119.48717948718,4413.333333333334,4109.74358974359,4322.051282051282,4309.2307692307695,4423.589743589744,4408.717948717949,1680.0,1684.0,1059.081,1019.9624633789062,0.0,0.0,0.0,0.0
1057348,45.0,0.0,0.0,4490.769230769231,4187.179487179487,4338.461538461539,4839.48717948718,3793.8461538461543,4231.794871794872,4278.461538461539,4133.846153846154,4423.076923076924,4120.512820512821,4327.6923076923085,4310.769230769231,4436.923076923077,4415.384615384616,1680.0,1683.0,1059.089,1019.9624633789062,0.0,0.0,0.0,0.0
1057348,46.0,0.0,0.0,4488.717948717949,4183.589743589744,4334.871794871796,4837.435897435898,3792.820512820513,4236.410256410257,4270.769230769231,4120.000000000001,4409.2307692307695,4116.923076923077,4326.153846153847,4307.179487179487,4437.948717948719,4417.948717948719,1680.0,1684.0,1059.096,1019.9624633789062,0.0,0.0,0.0,0.0
1057600,47.0,0.0,0.0,4485.128205128206,4183.589743589744,4331.794871794872,4835.8974358974365,3788.717948717949,4243.076923076924,4267.179487179487,4098.974358974359,4395.8974358974365,4103.589743589744,4324.102564102564,4306.153846153847,4430.256410256411,4414.871794871796,1681.0,1682.0,1059.103,1020.0875854492188,0.0,0.0,0.0,0.0
1057601,48.0,0.0,0.0,4486.666666666667,4184.102564102564,4336.923076923077,4836.923076923077,3793.333333333334,4241.538461538462,4272.820512820514,4114.358974358975,4411.282051282052,4109.2307692307695,4324.615384615385,4308.205128205129,4427.6923076923085,4414.358974358975,1680.0,1682.0,1059.112,1020.0875854492188,0.0,0.0,0.0,0.0
1057601,49.0,0.0,0.0,4490.256410256411,4184.615384615385,4336.923076923077,4840.000000000001,3795.8974358974365,4236.410256410257,4274.358974358975,4131.282051282052,4421.538461538462,4122.051282051282,4325.128205128206,4309.2307692307695,4434.358974358975,4415.8974358974365,1681.0,1682.0,1059.119,1020.0875854492188,0.0,0.0,0.0,0.0
1057601,50.0,0.0,0.0,4493.333333333334,4184.615384615385,4332.820512820514,4840.512820512821,3791.2820512820517,4237.435897435898,4271.282051282052,4116.923076923077,4411.794871794872,4116.410256410257,4326.153846153847,4307.179487179487,4438.461538461539,4414.871794871796,1680.0,1683.0,1059.128,1020.0875854492188,0.0,0.0,0.0,0.0
1057602,51.0,0.0,0.0,4493.846153846154,4183.589743589744,4334.871794871796,4837.948717948719,3791.7948717948725,4241.538461538462,4274.358974358975,4107.179487179487,4409.2307692307695,4111.282051282052,4330.256410256411,4306.666666666667,4434.358974358975,4416.923076923077,1681.0,1684.0,1059.135,1020.0875854492188,0.0,0.0,0.0,0.0
1057602,52.0,0.0,0.0,4491.282051282052,4184.615384615385,4337.435897435898,4837.435897435898,3795.3846153846157,4237.435897435898,4276.410256410257,4117.435897435898,4412.820512820514,4117.948717948719,4334.358974358975,4310.256410256411,4435.8974358974365,4421.538461538462,1680.0,1683.0,1059.142,1020.0875854492188,0.0,0.0,0.0,0.0
1057602,53.0,0.0,0.0,4490.256410256411,4184.615384615385,4337.435897435898,4843.076923076924,3793.333333333334,4230.256410256411,4271.794871794872,4124.102564102564,4412.820512820514,4121.025641025642,4334.358974358975,4314.358974358975,4444.615384615385,4423.589743589744,1680.0,1685.0,1059.15,1020.0875854492188,0.0,0.0,0.0,0.0
1057602,54.0,0.0,0.0,4494.871794871796,4184.615384615385,4340.000000000001,4846.153846153847,3792.820512820513,4230.769230769231,4268.205128205129,4126.666666666667,4418.974358974359,4118.461538461539,4336.410256410257,4311.794871794872,4447.6923076923085,4425.641025641026,1681.0,1684.0,1059.158,1020.0875854492188,0.0,0.0,0.0,0.0
1057602,55.0,0.0,0.0,4494.871794871796,4186.153846153847,4343.076923076924,4843.589743589744,3793.8461538461543,4232.307692307693,4270.769230769231,4128.205128205129,4420.512820512821,4118.461538461539,4337.948717948719,4307.6923076923085,4445.641025641026,4426.666666666667,1680.0,1685.0,1059.167,1020.0875854492188,0.0,0.0,0.0,0.0
1057603,56.0,0.0,0.0,4486.666666666667,4185.128205128206,4336.410256410257,4839.48717948718,3791.7948717948725,4233.333333333334,4268.717948717949,4113.846153846154,4404.102564102564,4114.871794871796,4326.153846153847,4305.641025641026,4437.948717948719,4417.948717948719,1681.0,1685.0,1059.174,1020.0875854492188,0.0,0.0,0.0,0.0
1057603,57.0,0.0,0.0,4485.641025641026,4184.102564102564,4328.717948717949,4837.948717948719,3789.2307692307695,4235.384615384616,4261.538461538462,4101.025641025642,4393.846153846154,4108.205128205129,4317.435897435898,4305.641025641026,4430.256410256411,4408.205128205129,1681.0,1686.0,1059.181,1020.0875854492188,0.0,0.0,0.0,0.0
1057603,58.0,0.0,0.0,4493.846153846154,4187.6923076923085,4334.358974358975,4845.641025641026,3788.717948717949,4236.410256410257,4265.128205128206,4113.333333333334,4405.128205128206,4112.307692307693,4323.076923076924,4306.666666666667,4433.333333333334,4412.820512820514,1681.0,1686.0,1059.189,1020.0875854492188,0.0,0.0,0.0,0.0
1057603,59.0,0.0,0.0,4491.282051282052,4188.717948717949,4338.974358974359,4849.743589743591,3789.2307692307695,4232.820512820514,4270.769230769231,4118.461538461539,4410.256410256411,4115.8974358974365,4327.179487179487,4306.153846153847,4435.384615384616,4419.48717948718,1680.0,1687.0,1059.197,1020.0875854492188,0.0,0.0,0.0,0.0
1057603,60.0,0.0,0.0,4483.076923076924,4183.589743589744,4332.820512820514,4843.589743589744,3786.666666666667,4229.74358974359,4265.128205128206,4106.153846153847,4400.000000000001,4107.179487179487,4320.512820512821,4303.076923076924,4427.179487179487,4412.820512820514,1681.0,1687.0,1059.205,1020.0875854492188,0.0,0.0,0.0,0.0
1057603,61.0,0.0,0.0,4487.6923076923085,4184.615384615385,4331.282051282052,4843.076923076924,3788.205128205129,4231.282051282052,4258.974358974359,4102.564102564103,4400.000000000001,4106.666666666667,4320.512820512821,4304.102564102564,4425.128205128206,4408.205128205129,1680.0,1688.0,1059.214,1020.0875854492188,0.0,0.0,0.0,0.0
1057604,62.0,0.0,0.0,4496.410256410257,4189.2307692307695,4338.974358974359,4850.256410256411,3789.7435897435903,4230.256410256411,4260.000000000001,4108.205128205129,4413.333333333334,4115.8974358974365,4332.307692307693,4308.717948717949,4435.384615384616,4417.948717948719,1680.0,1687.0,1059.221,1020.0875854492188,0.0,0.0,0.0,0.0
1057604,63.0,0.0,0.0,4494.358974358975,4186.666666666667,4336.923076923077,4851.794871794872,3786.1538461538466,4227.179487179487,4260.512820512821,4118.974358974359,4422.051282051282,4117.948717948719,4335.8974358974365,4310.769230769231,4438.461538461539,4423.076923076924,1680.0,1687.0,1059.229,1020.0875854492188,0.0,0.0,0.0,0.0
1057604,64.0,0.0,474.0,4489.2307692307695,4185.128205128206,4330.256410256411,4846.153846153847,3787.1794871794878,4232.820512820514,4261.538461538462,4126.153846153847,4418.461538461539,4112.307692307693,4327.179487179487,4308.717948717949,4434.358974358975,4414.871794871796,1680.0,1685.0,1059.236,1020.0875854492188,0.0,0.0,0.0,0.0
1057604,65.0,0.0,269.0,4487.179487179488,4187.179487179487,4332.820512820514,4843.589743589744,3794.8717948717954,4246.153846153847,4268.205128205129,4112.307692307693,4408.205128205129,4107.6923076923085,4325.641025641026,4306.666666666667,4435.8974358974365,4410.769230769231,1679.0,1685.0,1059.245,1020.0875854492188,0.0,0.0,0.0,0.0
1057605,66.0,0.0,450.0,4485.641025641026,4188.205128205129,4339.48717948718,4847.179487179488,3800.512820512821,4248.205128205129,4275.8974358974365,4102.051282051282,4405.641025641026,4109.2307692307695,4328.205128205129,4306.153846153847,4437.435897435898,4414.871794871796,1680.0,1683.0,1059.252,1020.0875854492188,0.0,0.0,0.0,0.0
1057605,67.0,0.0,356.0,4488.717948717949,4186.666666666667,4338.461538461539,4847.6923076923085,3798.461538461539,4243.076923076924,4277.948717948719,4119.48717948718,4414.358974358975,4114.358974358975,4322.564102564103,4306.666666666667,4433.846153846154,4413.846153846154,1678.0,1684.0,1059.261,1020.0875854492188,0.0,0.0,0.0,0.0
1057605,68.0,0.0,456.0,4493.333333333334,4184.615384615385,4332.307692307693,4843.076923076924,3796.9230769230776,4245.128205128206,4277.948717948719,4130.256410256411,4419.48717948718,4118.461538461539,4321.538461538462,4306.153846153847,4437.435897435898,4409.743589743591,1680.0,1683.0,1059.267,1020.0875854492188,0.0,0.0,0.0,0.0
1057605,69.0,0.0,548.0,4490.256410256411,4185.128205128206,4332.820512820514,4844.102564102564,3801.0256410256416,4247.179487179487,4281.025641025642,4121.025641025642,4416.410256410257,4115.384615384616,4326.153846153847,4304.615384615385,4442.051282051282,4408.205128205129,1678.0,1683.0,1059.275,1020.0875854492188,0.0,0.0,0.0,0.0
1057605,70.0,0.0,533.0,4487.179487179488,4187.179487179487,4336.410256410257,4846.666666666667,3801.0256410256416,4243.589743589744,4278.461538461539,4112.820512820514,4409.2307692307695,4111.282051282052,4320.000000000001,4304.615384615385,4435.384615384616,4405.641025641026,1679.0,1685.0,1059.283,1020.0875854492188,0.0,0.0,0.0,0.0
1057605,71.0,0.0,478.0,4487.6923076923085,4185.128205128206,4331.282051282052,4841.025641025642,3795.3846153846157,4241.538461538462,4269.2307692307695,4110.256410256411,4407.6923076923085,4108.205128205129,4311.794871794872,4304.615384615385,4429.2307692307695,4398.974358974359,1679.0,1683.0,1059.291,1020.0875854492188,0.0,0.0,0.0,0.0
1057606,72.0,0.0,421.0,4483.589743589744,4181.025641025642,4324.615384615385,4836.923076923077,3795.3846153846157,4242.564102564103,4271.282051282052,4120.000000000001,4417.948717948719,4108.205128205129,4313.333333333334,4304.102564102564,4429.2307692307695,4394.358974358975,1679.0,1685.0,1059.299,1020.0875854492188,0.0,0.0,0.0,0.0
1057606,73.0,0.0,458.0,4477.948717948719,4181.538461538462,4325.641025641026,4838.461538461539,3798.9743589743593,4244.102564102564,4276.923076923077,4127.6923076923085,4422.564102564103,4108.717948717949,4314.358974358975,4304.615384615385,4427.6923076923085,4392.820512820514,1680.0,1684.0,1059.307,1020.0875854492188,0.0,0.0,0.0,0.0
1057606,74.0,0.0,487.0,4482.564102564103,4184.102564102564,4328.205128205129,4840.512820512821,3796.9230769230776,4244.102564102564,4271.282051282052,4105.128205128206,4404.102564102564,4107.179487179487,4311.282051282052,4304.102564102564,4426.153846153847,4392.820512820514,1680.0,1685.0,1059.314,1020.0875854492188,0.0,0.0,0.0,0.0
1057606,75.0,0.0,438.0,4488.717948717949,4186.153846153847,4331.282051282052,4844.615384615386,3795.3846153846157,4240.512820512821,4271.282051282052,4091.7948717948725,4399.48717948718,4110.769230769231,4317.435897435898,4306.153846153847,4433.846153846154,4398.974358974359,1680.0,1685.0,1059.322,1020.0875854492188,0.0,0.0,0.0,0.0
1057606,76.0,0.0,448.0,4488.205128205129,4185.641025641026,4334.358974358975,4843.589743589744,3796.9230769230776,4235.384615384616,4277.948717948719,4121.025641025642,4422.051282051282,4114.871794871796,4328.205128205129,4306.666666666667,4441.538461538462,4404.102564102564,1680.0,1685.0,1059.33,1020.0875854492188,0.0,0.0,0.0,0.0
1057606,77.0,0.0,245.0,4482.051282051282,4183.589743589744,4327.179487179487,4837.435897435898,3796.9230769230776,4231.794871794872,4271.794871794872,4132.820512820514,4426.153846153847,4111.282051282052,4323.076923076924,4303.589743589744,4433.846153846154,4396.923076923077,1681.0,1685.0,1059.338,1020.0875854492188,0.0,0.0,0.0,0.0
1057606,78.0,0.0,487.0,4479.48717948718,4184.102564102564,4323.076923076924,4839.48717948718,3796.410256410257,4235.8974358974365,4266.153846153847,4110.769230769231,4410.769230769231,4107.179487179487,4314.358974358975,4303.589743589744,4426.666666666667,4392.820512820514,1680.0,1686.0,1059.347,1020.0875854492188,0.0,0.0,0.0,0.0
1057851,79.0,0.0,438.0,4487.6923076923085,4186.666666666667,4334.871794871796,4847.6923076923085,3796.9230769230776,4237.948717948719,4270.256410256411,4110.256410256411,4413.333333333334,4111.282051282052,4323.076923076924,4309.743589743591,4438.461538461539,4404.615384615385,1682.0,1685.0,1059.353,1020.3377685546875,0.0,0.0,0.0,0.0
1057851,80.0,0.0,448.0,4494.871794871796,4187.6923076923085,4341.025641025642,4846.153846153847,3795.3846153846157,4234.358974358975,4272.820512820514,4121.538461538462,4422.564102564103,4115.8974358974365,4332.820512820514,4312.307692307693,4446.666666666667,4411.794871794872,1681.0,1685.0,1059.362,1020.3377685546875,0.0,0.0,0.0,0.0
1057851,81.0,0.0,245.0,4489.743589743591,4186.153846153847,4334.358974358975,4842.051282051283,3797.435897435898,4235.384615384616,4273.846153846154,4111.794871794872,4414.871794871796,4112.820512820514,4326.666666666667,4311.282051282052,4438.461538461539,4405.641025641026,1681.0,1686.0,1059.37,1020.3377685546875,0.0,0.0,0.0,0.0
1057852,82.0,0.0,487.0,4487.179487179488,4183.589743589744,4333.846153846154,4844.102564102564,3801.538461538462,4238.461538461539,4274.358974358975,4099.48717948718,4406.666666666667,4112.307692307693,4319.48717948718,4308.205128205129,4434.871794871796,4407.179487179487,1681.0,1685.0,1059.377,1020.3377685546875,0.0,0.0,0.0,0.0
1057852,83.0,0.0,438.0,4493.846153846154,4184.615384615385,4341.025641025642,4845.641025641026,3800.0000000000005,4235.8974358974365,4274.358974358975,4111.794871794872,4416.410256410257,4117.435897435898,4321.538461538462,4308.205128205129,4442.051282051282,4412.307692307693,1681.0,1687.0,1059.385,1020.3377685546875,0.0,0.0,0.0,0.0
1057852,84.0,0.0,448.0,4493.846153846154,4186.153846153847,4343.076923076924,4845.641025641026,3797.9487179487182,4234.358974358975,4273.846153846154,4128.205128205129,4426.153846153847,4116.923076923077,4325.128205128206,4310.769230769231,4445.641025641026,4407.179487179487,1682.0,1686.0,1059.394,1020.3377685546875,0.0,0.0,0.0,0.0
1057852,85.0,0.0,245.0,4482.564102564103,4184.102564102564,4334.871794871796,4842.051282051283,3796.410256410257,4232.820512820514,4271.282051282052,4117.948717948719,4417.948717948719,4107.179487179487,4317.948717948719,4304.615384615385,4437.948717948719,4396.410256410257,1681.0,1687.0,1059.4,1020.3377685546875,0.0,0.0,0.0,0.0
1057853,86.0,0.0,487.0,4481.538461538462,4183.076923076924,4326.153846153847,4842.564102564103,3796.9230769230776,4233.333333333334,4267.179487179487,4100.000000000001,4406.153846153847,4103.589743589744,4308.717948717949,4299.48717948718,4433.333333333334,4393.333333333334,1682.0,1687.0,1059.408,1020.3377685546875,0.0,0.0,0.0,0.0
1057853,87.0,0.0,438.0,4491.794871794872,4185.128205128206,4328.717948717949,4846.666666666667,3799.48717948718,4239.48717948718,4269.74358974359,4113.333333333334,4413.846153846154,4113.333333333334,4314.358974358975,4305.128205128206,4441.025641025642,4399.48717948718,1682.0,1687.0,1059.416,1020.3377685546875,0.0,0.0,0.0,0.0
1057853,88.0,0.0,448.0,4489.743589743591,4186.153846153847,4333.846153846154,4844.615384615386,3801.0256410256416,4239.48717948718,4273.846153846154,4137.948717948719,4428.717948717949,4116.410256410257,4318.461538461539,4307.6923076923085,4441.538461538462,4403.076923076924,1682.0,1686.0,1059.424,1020.3377685546875,0.0,0.0,0.0,0.0
1057853,89.0,0.0,245.0,4481.025641025642,4185.128205128206,4330.769230769231,4842.564102564103,3798.9743589743593,4231.282051282052,4271.794871794872,4128.717948717949,4425.128205128206,4109.74358974359,4313.333333333334,4305.128205128206,4433.333333333334,4399.48717948718,1681.0,1687.0,1059.433,1020.3377685546875,0.0,0.0,0.0,0.0
1057853,90.0,0.0,487.0,4484.615384615385,4184.102564102564,4329.2307692307695,4846.153846153847,3795.8974358974365,4231.282051282052,4271.794871794872,4111.282051282052,4412.820512820514,4108.205128205129,4315.384615384616,4305.641025641026,4431.794871794872,4395.8974358974365,1682.0,1686.0,1059.44,1020.3377685546875,0.0,0.0,0.0,0.0
1057854,91.0,0.0,438.0,4486.153846153847,4183.589743589744,4331.794871794872,4841.025641025642,3796.410256410257,4236.923076923077,4273.846153846154,4109.2307692307695,4408.205128205129,4109.2307692307695,4317.435897435898,4303.076923076924,4430.256410256411,4394.871794871796,1682.0,1686.0,1059.448,1020.3377685546875,0.0,0.0,0.0,0.0
1057854,92.0,0.0,448.0,4483.589743589744,4185.128205128206,4330.769230769231,4838.461538461539,3800.0000000000005,4233.846153846154,4274.871794871796,4108.717948717949,4409.2307692307695,4109.2307692307695,4317.948717948719,4299.48717948718,4427.179487179487,4395.384615384616,1682.0,1687.0,1059.455,1020.3377685546875,0.0,0.0,0.0,0.0
1057854,93.0,0.0,245.0,4491.794871794872,4186.666666666667,4331.282051282052,4845.641025641026,3801.0256410256416,4235.8974358974365,4277.435897435898,4110.769230769231,4412.307692307693,4114.358974358975,4326.153846153847,4305.641025641026,4434.871794871796,4399.48717948718,1682.0,1685.0,1059.463,1020.3377685546875,0.0,0.0,0.0,0.0
1057854,94.0,0.0,487.0,4495.384615384616,4185.128205128206,4331.282051282052,4842.564102564103,3799.48717948718,4244.615384615385,4277.948717948719,4121.025641025642,4417.435897435898,4115.384615384616,4327.6923076923085,4309.743589743591,4441.025641025642,4400.000000000001,1681.0,1686.0,1059.471,1020.3377685546875,0.0,0.0,0.0,0.0
1057854,95.0,0.0,438.0,4485.641025641026,4187.179487179487,4329.743589743591,4838.461538461539,3801.0256410256416,4241.025641025642,4274.871794871796,4121.025641025642,4416.923076923077,4108.205128205129,4322.051282051282,4305.641025641026,4438.974358974359,4398.461538461539,1682.0,1685.0,1059.479,1020.3377685546875,0.0,0.0,0.0,0.0
1057854,96.0,0.0,448.0,4482.051282051282,4185.641025641026,4328.205128205129,4840.000000000001,3796.9230769230776,4230.256410256411,4270.769230769231,4108.205128205129,4410.256410256411,4105.641025641026,4322.564102564103,4302.564102564103,4431.282051282052,4397.435897435898,1681.0,1685.0,1059.486,1020.3377685546875,0.0,0.0,0.0,0.0
1057854,97.0,0.0,245.0,4483.589743589744,4176.410256410257,4324.102564102564,4832.820512820514,3787.692307692308,4225.641025641026,4263.076923076924,4107.179487179487,4407.179487179487,4106.153846153847,4315.8974358974365,4303.076923076924,4421.538461538462,4392.307692307693,1683.0,1685.0,1059.495,1020.3377685546875,0.0,0.0,0.0,0.0
1057855,98.0,0.0,487.0,4482.564102564103,4175.384615384616,4324.102564102564,4829.2307692307695,3786.666666666667,4226.153846153847,4258.461538461539,4102.564102564103,4403.076923076924,4103.076923076924,4309.2307692307695,4303.076923076924,4423.589743589744,4392.307692307693,1681.0,1686.0,1059.502,1020.3377685546875,0.0,0.0,0.0,0.0
1057855,99.0,0.0,438.0,4487.6923076923085,4185.128205128206,4333.846153846154,4841.025641025642,3789.2307692307695,4224.102564102564,4264.615384615385,4091.7948717948725,4399.48717948718,4106.666666666667,4317.948717948719,4306.666666666667,4436.923076923077,4400.512820512821,1683.0,1686.0,1059.511,1020.3377685546875,0.0,0.0,0.0,0.0
1057855,100.0,0.0,448.0,4498.461538461539,4187.179487179487,4343.589743589744,4848.205128205129,3791.7948717948725,4222.564102564103,4269.2307692307695,4098.974358974359,4407.179487179487,4112.820512820514,4328.205128205129,4310.769230769231,4441.538461538462,4405.128205128206,1682.0,1686.0,1059.518,1020.3377685546875,0.0,0.0,0.0,0.0
1057855,101.0,0.0,245.0,4497.948717948719,4184.615384615385,4343.076923076924,4842.051282051283,3794.358974358975,4223.589743589744,4267.6923076923085,4112.307692307693,4413.846153846154,4111.282051282052,4327.6923076923085,4308.717948717949,4436.923076923077,4403.076923076924,1682.0,1687.0,1059.525,1020.3377685546875,0.0,0.0,0.0,0.0
1057855,102.0,0.0,487.0,4488.205128205129,4182.564102564103,4332.820512820514,4836.923076923077,3792.820512820513,4226.666666666667,4268.717948717949,4108.205128205129,4404.102564102564,4107.6923076923085,4320.512820512821,4303.076923076924,4429.2307692307695,4399.48717948718,1682.0,1686.0,1059.533,1020.3377685546875,0.0,0.0,0.0,0.0
1057855,103.0,0.0,438.0,4481.538461538462,4174.358974358975,4320.512820512821,4834.358974358975,3788.717948717949,4226.666666666667,4266.666666666667,4099.48717948718,4395.8974358974365,4103.589743589744,4314.358974358975,4303.076923076924,4420.512820512821,4394.358974358975,1683.0,1686.0,1059.541,1020.3377685546875,0.0,0.0,0.0,0.0
1057855,104.0,0.0,448.0,4481.538461538462,4173.333333333334,4320.000000000001,4831.794871794872,3786.1538461538466,4221.538461538462,4263.076923076924,4107.6923076923085,4402.564102564103,4102.051282051282,4316.923076923077,4304.615384615385,4421.025641025642,4393.846153846154,1683.0,1684.0,1059.549,1020.3377685546875,0.0,0.0,0.0,0.0
1057855,105.0,0.0,245.0,4483.076923076924,4182.051282051282,4328.205128205129,4836.410256410257,3789.2307692307695,4220.512820512821,4266.153846153847,4109.74358974359,4406.153846153847,4105.641025641026,4323.076923076924,4304.102564102564,4428.717948717949,4399.48717948718,1681.0,1685.0,1059.557,1020.3377685546875,0.0,0.0,0.0,0.0
1057855,106.0,0.0,487.0,4485.641025641026,4184.615384615385,4329.2307692307695,4840.512820512821,3792.307692307693,4225.128205128206,4266.153846153847,4094.8717948717954,4400.512820512821,4106.666666666667,4322.051282051282,4304.615384615385,4428.205128205129,4398.974358974359,1683.0,1684.0,1059.565,1020.3377685546875,0.0,0.0,0.0,0.0
1057856,107.0,0.0,438.0,4484.615384615385,4181.025641025642,4321.538461538462,4835.384615384616,3789.2307692307695,4226.153846153847,4259.48717948718,4084.615384615385,4394.358974358975,4100.512820512821,4315.384615384616,4304.615384615385,4417.435897435898,4392.307692307693,1681.0,1684.0,1059.572,1020.3377685546875,0.0,0.0,0.0,0.0
1057856,108.0,0.0,448.0,4486.666666666667,4181.538461538462,4318.974358974359,4834.871794871796,3785.1282051282055,4220.000000000001,4258.974358974359,4094.358974358975,4396.923076923077,4100.000000000001,4309.743589743591,4304.102564102564,4414.871794871796,4389.2307692307695,1682.0,1684.0,1059.58,1020.3377685546875,0.0,0.0,0.0,0.0
1057856,109.0,0.0,245.0,4494.358974358975,4185.128205128206,4326.153846153847,4840.000000000001,3785.6410256410263,4211.794871794872,4263.076923076924,4112.307692307693,4411.282051282052,4108.205128205129,4312.307692307693,4306.153846153847,4425.128205128206,4397.435897435898,1681.0,1683.0,1059.588,1020.3377685546875,0.0,0.0,0.0,0.0
1057856,110.0,0.0,487.0,4491.794871794872,4184.102564102564,4328.717948717949,4838.974358974359,3787.692307692308,4213.333333333334,4260.512820512821,4101.538461538462,4410.769230769231,4106.666666666667,4317.435897435898,4305.641025641026,4427.179487179487,4398.461538461539,1682.0,1684.0,1059.596,1020.3377685546875,0.0,0.0,0.0,0.0
1057981,111.0,0.0,438.0,4481.538461538462,4180.000000000001,4322.564102564103,4832.820512820514,3789.7435897435903,4223.589743589744,4255.384615384616,4083.589743589744,4396.410256410257,4098.461538461539,4312.307692307693,4304.102564102564,4416.410256410257,4384.615384615385,1682.0,1683.0,1059.604,1020.5880126953125,0.0,0.0,0.0,0.0
1057981,112.0,0.0,448.0,4481.538461538462,4179.48717948718,4321.025641025642,4830.769230769231,3789.2307692307695,4226.153846153847,4258.461538461539,4104.615384615385,4406.666666666667,4105.641025641026,4309.743589743591,4306.153846153847,4416.410256410257,4381.538461538462,1682.0,1684.0,1059.613,1020.5880126953125,0.0,0.0,0.0,0.0
1057981,113.0,0.0,245.0,4491.794871794872,4185.128205128206,4331.282051282052,4837.435897435898,3788.717948717949,4219.48717948718,4263.589743589744,4128.205128205129,4423.589743589744,4117.435897435898,4322.564102564103,4310.769230769231,4428.205128205129,4395.8974358974365,1682.0,1683.0,1059.619,1020.5880126953125,0.0,0.0,0.0,0.0
1057981,114.0,0.0,487.0,4495.8974358974365,4186.666666666667,4336.410256410257,4842.051282051283,3795.3846153846157,4223.076923076924,4266.153846153847,4103.076923076924,4409.2307692307695,4112.307692307693,4327.179487179487,4310.769230769231,4429.743589743591,4398.974358974359,1683.0,1684.0,1059.628,1020.5880126953125,0.0,0.0,0.0,0.0
1057982,115.0,0.0,438.0,4488.205128205129,4181.538461538462,4325.128205128206,4839.48717948718,3797.9487179487182,4231.794871794872,4264.102564102564,4077.9487179487187,4389.2307692307695,4100.512820512821,4313.846153846154,4305.641025641026,4416.923076923077,4384.102564102564,1682.0,1684.0,1059.635,1020.5880126953125,0.0,0.0,0.0,0.0
1057982,116.0,0.0,448.0,4483.589743589744,4178.461538461539,4316.923076923077,4835.384615384616,3793.8461538461543,4226.666666666667,4261.025641025642,4102.564102564103,4401.538461538462,4103.076923076924,4309.2307692307695,4304.615384615385,4411.282051282052,4382.051282051282,1682.0,1684.0,1059.644,1020.5880126953125,0.0,0.0,0.0,0.0
1057982,117.0,0.0,245.0,4487.6923076923085,4181.025641025642,4323.076923076924,4834.358974358975,3791.2820512820517,4219.48717948718,4262.564102564103,4124.615384615385,4420.000000000001,4110.769230769231,4318.974358974359,4310.256410256411,4424.102564102564,4393.333333333334,1682.0,1683.0,1059.651,1020.5880126953125,0.0,0.0,0.0,0.0
1057982,118.0,0.0,487.0,4490.769230769231,4183.589743589744,4328.717948717949,4837.435897435898,3789.7435897435903,4222.564102564103,4264.102564102564,4111.282051282052,4414.358974358975,4109.2307692307695,4321.025641025642,4311.282051282052,4432.307692307693,4396.923076923077,1682.0,1684.0,1059.658,1020.5880126953125,0.0,0.0,0.0,0.0
1057983,119.0,0.0,438.0,4487.6923076923085,4184.615384615385,4329.743589743591,4840.000000000001,3788.717948717949,4226.153846153847,4262.051282051282,4097.435897435898,4400.000000000001,4102.564102564103,4314.871794871796,4308.205128205129,4424.102564102564,4388.717948717949,1682.0,1683.0,1059.666,1020.5880126953125,0.0,0.0,0.0,0.0
1057983,120.0,0.0,448.0,4485.128205128206,4180.512820512821,4329.2307692307695,4837.435897435898,3790.7692307692314,4225.128205128206,4261.025641025642,4096.410256410257,4396.410256410257,4101.025641025642,4308.717948717949,4305.641025641026,4413.333333333334,4381.538461538462,1682.0,1683.0,1059.674,1020.5880126953125,0.0,0.0,0.0,0.0
1057984,121.0,0.0,245.0,4488.205128205129,4175.384615384616,4326.153846153847,4832.820512820514,3789.7435897435903,4223.589743589744,4260.512820512821,4094.358974358975,4402.051282051282,4102.564102564103,4307.179487179487,4305.641025641026,4414.871794871796,4383.076923076924,1681.0,1683.0,1059.682,1020.5880126953125,0.0,0.0,0.0,0.0
1057984,122.0,0.0,487.0,4493.846153846154,4177.948717948719,4323.076923076924,4834.871794871796,3785.6410256410263,4221.538461538462,4254.871794871796,4083.589743589744,4400.000000000001,4101.025641025642,4314.358974358975,4307.179487179487,4420.512820512821,4385.128205128206,1681.0,1684.0,1059.69,1020.5880126953125,0.0,0.0,0.0,0.0
1057984,123.0,0.0,438.0,4495.384615384616,4184.102564102564,4324.615384615385,4837.435897435898,3788.205128205129,4223.076923076924,4250.769230769231,4081.0256410256416,4392.307692307693,4098.974358974359,4320.512820512821,4305.641025641026,4420.512820512821,4384.615384615385,1682.0,1682.0,1059.698,1020.5880126953125,0.0,0.0,0.0,0.0
1057984,124.0,0.0,448.0,4494.871794871796,4184.615384615385,4328.717948717949,4840.000000000001,3795.8974358974365,4230.769230769231,4257.948717948719,4094.8717948717954,4395.8974358974365,4104.102564102564,4320.512820512821,4306.153846153847,4421.538461538462,4388.205128205129,1681.0,1684.0,1059.705,1020.5880126953125,0.0,0.0,0.0,0.0
1057985,125.0,0.0,245.0,4494.871794871796,4183.589743589744,4333.333333333334,4846.666666666667,3797.9487179487182,4229.74358974359,4268.205128205129,4109.2307692307695,4411.794871794872,4108.717948717949,4322.051282051282,4310.256410256411,4427.6923076923085,4394.871794871796,1682.0,1684.0,1059.714,1020.5880126953125,0.0,0.0,0.0,0.0
1057985,126.0,0.0,487.0,4488.205128205129,4184.615384615385,4330.256410256411,4845.641025641026,3793.8461538461543,4222.051282051282,4267.6923076923085,4119.48717948718,4421.025641025642,4107.6923076923085,4324.102564102564,4307.179487179487,4428.717948717949,4393.333333333334,1681.0,1684.0,1059.721,1020.5880126953125,0.0,0.0,0.0,0.0
1058102,127.0,0.0,438.0,4478.974358974359,4182.564102564103,4319.48717948718,4836.410256410257,3789.7435897435903,4223.076923076924,4259.48717948718,4117.948717948719,4412.307692307693,4106.153846153847,4316.923076923077,4300.512820512821,4418.974358974359,4383.076923076924,1682.0,1685.0,1059.73,1020.713134765625,0.0,0.0,0.0,0.0
1058102,128.0,0.0,448.0,4483.589743589744,4181.025641025642,4318.974358974359,4835.384615384616,3789.2307692307695,4229.74358974359,4260.000000000001,4097.948717948719,4401.538461538462,4104.615384615385,4310.256410256411,4304.102564102564,4413.333333333334,4382.051282051282,1681.0,1684.0,1059.737,1020.713134765625,0.0,0.0,0.0,0.0
1058102,0.0,0.0,474.0,4493.846153846154,4182.564102564103,4328.717948717949,4841.025641025642,3794.358974358975,4233.846153846154,4270.256410256411,4092.820512820513,4406.153846153847,4104.615384615385,4317.435897435898,4311.794871794872,4421.538461538462,4391.794871794872,1681.0,1685.0,1059.745,1020.713134765625,0.0,0.0,0.0,0.0
1058103,1.0,0.0,269.0,4492.820512820514,4183.589743589744,4329.743589743591,4839.48717948718,3802.0512820512827,4236.923076923077,4276.923076923077,4111.794871794872,4415.384615384616,4108.717948717949,4320.512820512821,4310.256410256411,4423.589743589744,4396.923076923077,1681.0,1685.0,1059.752,1020.713134765625,0.0,0.0,0.0,0.0
1058103,2.0,0.0,450.0,4486.666666666667,4183.589743589744,4327.179487179487,4836.923076923077,3801.0256410256416,4235.8974358974365,4275.8974358974365,4112.307692307693,4410.769230769231,4109.2307692307695,4312.307692307693,4306.153846153847,4417.948717948719,4392.820512820514,1682.0,1685.0,1059.761,1020.713134765625,0.0,0.0,0.0,0.0
1058103,3.0,0.0,356.0,4486.153846153847,4182.564102564103,4329.2307692307695,4841.025641025642,3797.435897435898,4232.820512820514,4272.820512820514,4095.8974358974365,4398.974358974359,4105.128205128206,4308.717948717949,4307.6923076923085,4416.410256410257,4388.717948717949,1682.0,1684.0,1059.768,1020.713134765625,0.0,0.0,0.0,0.0
1058103,4.0,0.0,456.0,4487.179487179488,4183.589743589744,4326.153846153847,4843.076923076924,3800.512820512821,4231.794871794872,4269.2307692307695,4093.8461538461543,4396.923076923077,4102.564102564103,4304.615384615385,4308.717948717949,4413.333333333334,4387.179487179487,1682.0,1686.0,1059.776,1020.713134765625,0.0,0.0,0.0,0.0
1058103,5.0,0.0,548.0,4490.769230769231,4185.128205128206,4326.666666666667,4841.538461538462,3799.48717948718,4226.666666666667,4266.666666666667,4097.435897435898,4401.025641025642,4104.615384615385,4300.512820512821,4309.2307692307695,4412.820512820514,4394.358974358975,1681.0,1685.0,1059.784,1020.713134765625,0.0,0.0,0.0,0.0
1058103,6.0,0.0,533.0,4492.307692307693,4184.102564102564,4333.846153846154,4846.153846153847,3795.8974358974365,4223.076923076924,4263.589743589744,4099.48717948718,4401.025641025642,4105.641025641026,4307.179487179487,4312.820512820514,4419.48717948718,4403.076923076924,1680.0,1686.0,1059.791,1020.713134765625,0.0,0.0,0.0,0.0
1058103,7.0,0.0,478.0,4489.743589743591,4183.589743589744,4334.358974358975,4845.128205128206,3798.461538461539,4227.179487179487,4260.512820512821,4105.641025641026,4398.974358974359,4105.641025641026,4315.8974358974365,4313.333333333334,4422.564102564103,4402.564102564103,1682.0,1685.0,1059.801,1020.713134765625,0.0,0.0,0.0,0.0
1058104,8.0,0.0,421.0,4492.820512820514,4184.102564102564,4329.2307692307695,4841.025641025642,3796.410256410257,4227.6923076923085,4263.076923076924,4116.410256410257,4409.2307692307695,4105.128205128206,4317.948717948719,4312.820512820514,4422.564102564103,4404.102564102564,1680.0,1685.0,1059.807,1020.713134765625,0.0,0.0,0.0,0.0
1058104,9.0,0.0,458.0,4498.461538461539,4185.128205128206,4335.384615384616,4845.128205128206,3791.7948717948725,4222.051282051282,4267.179487179487,4116.923076923077,4419.48717948718,4107.6923076923085,4321.025641025642,4315.384615384616,4430.769230769231,4412.307692307693,1682.0,1686.0,1059.815,1020.713134765625,0.0,0.0,0.0,0.0
1058104,10.0,0.0,487.0,4493.333333333334,4184.102564102564,4341.538461538462,4846.666666666667,3795.8974358974365,4224.615384615385,4263.076923076924,4103.076923076924,4408.717948717949,4108.205128205129,4322.051282051282,4313.846153846154,4435.8974358974365,4410.769230769231,1681.0,1685.0,1059.823,1020.713134765625,0.0,0.0,0.0,0.0
1058104,11.0,0.0,438.0,4486.666666666667,4182.051282051282,4331.282051282052,4838.461538461539,3796.9230769230776,4227.6923076923085,4259.48717948718,4092.307692307693,4395.8974358974365,4102.564102564103,4312.307692307693,4307.6923076923085,4427.179487179487,4400.000000000001,1681.0,1686.0,1059.831,1020.713134765625,0.0,0.0,0.0,0.0
1058105,12.0,0.0,448.0,4486.153846153847,4181.538461538462,4324.615384615385,4837.948717948719,3791.7948717948725,4222.051282051282,4261.025641025642,4095.8974358974365,4400.000000000001,4100.512820512821,4306.666666666667,4306.666666666667,4420.000000000001,4396.923076923077,1681.0,1684.0,1059.839,1020.713134765625,0.0,0.0,0.0,0.0
1058105,13.0,0.0,245.0,4486.666666666667,4182.051282051282,4328.205128205129,4843.076923076924,3793.8461538461543,4223.076923076924,4260.512820512821,4101.538461538462,4404.615384615385,4104.102564102564,4308.205128205129,4308.717948717949,4422.051282051282,4400.000000000001,1681.0,1684.0,1059.847,1020.713134765625,0.0,0.0,0.0,0.0
1058231,14.0,0.0,487.0,4486.153846153847,4181.538461538462,4325.128205128206,4841.538461538462,3796.410256410257,4231.282051282052,4258.461538461539,4098.461538461539,4400.000000000001,4104.102564102564,4301.538461538462,4305.641025641026,4422.051282051282,4398.461538461539,1682.0,1684.0,1059.854,1020.8381958007812,0.0,0.0,0.0,0.0
1058231,15.0,0.0,438.0,4490.256410256411,4181.538461538462,4323.076923076924,4838.974358974359,3794.8717948717954,4231.282051282052,4258.974358974359,4102.564102564103,4398.461538461539,4104.615384615385,4298.974358974359,4306.153846153847,4420.000000000001,4396.410256410257,1682.0,1684.0,1059.863,1020.8381958007812,0.0,0.0,0.0,0.0
1058231,16.0,0.0,0.0,4493.333333333334,4182.051282051282,4329.743589743591,4836.923076923077,3796.410256410257,4224.102564102564,4261.025641025642,4103.589743589744,4402.051282051282,4108.205128205129,4304.102564102564,4310.769230769231,4423.589743589744,4400.512820512821,1683.0,1683.0,1059.87,1020.8381958007812,0.0,0.0,0.0,0.0
1058231,17.0,0.0,0.0,4490.769230769231,4181.538461538462,4330.256410256411,4838.974358974359,3797.9487179487182,4220.000000000001,4265.641025641026,4096.923076923077,4403.589743589744,4107.6923076923085,4308.205128205129,4310.769230769231,4428.717948717949,4404.102564102564,1682.0,1684.0,1059.878,1020.8381958007812,0.0,0.0,0.0,0.0
1058231,18.0,0.0,0.0,4492.307692307693,4182.564102564103,4327.6923076923085,4842.564102564103,3793.333333333334,4215.8974358974365,4266.666666666667,4100.512820512821,4403.076923076924,4106.153846153847,4314.871794871796,4310.769230769231,4432.820512820514,4406.153846153847,1683.0,1683.0,1059.885,1020.8381958007812,0.0,0.0,0.0,0.0
1058232,19.0,0.0,0.0,4497.948717948719,4184.102564102564,4333.846153846154,4841.025641025642,3790.2564102564106,4218.461538461539,4262.051282051282,4104.102564102564,4400.512820512821,4107.179487179487,4321.538461538462,4311.794871794872,4435.8974358974365,4408.717948717949,1681.0,1683.0,1059.893,1020.8381958007812,0.0,0.0,0.0,0.0
1058233,20.0,0.0,0.0,4495.384615384616,4183.076923076924,4335.384615384616,4837.948717948719,3791.7948717948725,4222.564102564103,4256.923076923077,4095.8974358974365,4400.000000000001,4107.179487179487,4316.410256410257,4309.743589743591,4429.743589743591,4407.6923076923085,1683.0,1683.0,1059.901,1020.8381958007812,0.0,0.0,0.0,0.0
1058234,21.0,0.0,0.0,4489.743589743591,4184.102564102564,4328.205128205129,4837.948717948719,3791.7948717948725,4217.948717948719,4256.923076923077,4092.820512820513,4400.000000000001,4104.615384615385,4308.717948717949,4308.717948717949,4425.641025641026,4404.615384615385,1682.0,1683.0,1059.909,1020.8381958007812,0.0,0.0,0.0,0.0
1058234,22.0,0.0,0.0,4489.2307692307695,4181.025641025642,4326.153846153847,4837.948717948719,3791.2820512820517,4214.871794871796,4258.974358974359,4102.564102564103,4401.538461538462,4104.102564102564,4308.205128205129,4309.743589743591,4428.205128205129,4401.538461538462,1682.0,1684.0,1059.917,1020.8381958007812,0.0,0.0,0.0,0.0
1058234,23.0,0.0,0.0,4485.641025641026,4172.820512820514,4320.000000000001,4832.307692307693,3791.7948717948725,4224.615384615385,4260.000000000001,4100.000000000001,4400.000000000001,4101.025641025642,4306.666666666667,4306.666666666667,4421.025641025642,4392.820512820514,1682.0,1683.0,1059.924,1020.8381958007812,0.0,0.0,0.0,0.0
1058234,24.0,0.0,0.0,4484.615384615385,4171.794871794872,4317.435897435898,4831.282051282052,3795.8974358974365,4228.205128205129,4263.589743589744,4091.2820512820517,4396.410256410257,4102.051282051282,4306.666666666667,4306.153846153847,4411.794871794872,4388.205128205129,1682.0,1685.0,1059.932,1020.8381958007812,0.0,0.0,0.0,0.0
1058235,25.0,0.0,0.0,4488.717948717949,4179.48717948718,4325.641025641026,4836.923076923077,3797.435897435898,4218.974358974359,4266.666666666667,4094.358974358975,4401.025641025642,4106.153846153847,4308.717948717949,4313.333333333334,4420.000000000001,4397.948717948719,1682.0,1683.0,1059.94,1020.8381958007812,0.0,0.0,0.0,0.0
1058235,26.0,0.0,0.0,4488.717948717949,4181.538461538462,4327.6923076923085,4840.512820512821,3794.8717948717954,4218.461538461539,4264.615384615385,4102.051282051282,4408.205128205129,4105.128205128206,4307.179487179487,4312.307692307693,4430.256410256411,4404.615384615385,1682.0,1685.0,1059.948,1020.8381958007812,0.0,0.0,0.0,0.0
1058235,27.0,0.0,0.0,4483.589743589744,4173.333333333334,4318.974358974359,4834.871794871796,3794.8717948717954,4228.205128205129,4261.538461538462,4102.564102564103,4403.076923076924,4102.564102564103,4303.589743589744,4304.615384615385,4421.025641025642,4397.435897435898,1683.0,1684.0,1059.956,1020.8381958007812,0.0,0.0,0.0,0.0
1058235,28.0,0.0,0.0,4480.512820512821,4169.74358974359,4315.8974358974365,4828.717948717949,3792.307692307693,4229.74358974359,4261.538461538462,4094.358974358975,4392.820512820514,4102.051282051282,4298.461538461539,4304.615384615385,4410.769230769231,4391.794871794872,1682.0,1686.0,1059.963,1020.8381958007812,0.0,0.0,0.0,0.0
1058236,29.0,0.0,0.0,4485.128205128206,4171.282051282052,4319.48717948718,4832.820512820514,3786.666666666667,4221.538461538462,4257.948717948719,4096.410256410257,4394.871794871796,4101.025641025642,4299.48717948718,4309.2307692307695,4416.923076923077,4395.8974358974365,1682.0,1685.0,1059.971,1020.8381958007812,0.0,0.0,0.0,0.0
1058353,30.0,0.0,0.0,4490.256410256411,4171.282051282052,4318.974358974359,4831.794871794872,3788.205128205129,4215.384615384616,4254.871794871796,4104.102564102564,4404.102564102564,4103.589743589744,4307.179487179487,4311.282051282052,4424.615384615385,4397.948717948719,1682.0,1685.0,1059.98,1020.9633178710938,0.0,0.0,0.0,0.0
1058353,31.0,0.0,0.0,4486.666666666667,4169.74358974359,4317.948717948719,4826.666666666667,3793.8461538461543,4215.8974358974365,4261.538461538462,4111.282051282052,4407.6923076923085,4107.179487179487,4309.2307692307695,4309.743589743591,4421.025641025642,4395.384615384616,1682.0,1686.0,1059.987,1020.9633178710938,0.0,0.0,0.0,0.0
1058353,32.0,0.0,0.0,4476.410256410257,4167.179487179487,4311.282051282052,4826.666666666667,3791.2820512820517,4219.48717948718,4263.589743589744,4106.153846153847,4398.461538461539,4101.538461538462,4299.48717948718,4303.589743589744,4408.717948717949,4387.179487179487,1682.0,1685.0,1059.996,1020.9633178710938,0.0,0.0,0.0,0.0
1058354,33.0,0.0,0.0,4474.871794871796,4169.2307692307695,4304.102564102564,4826.666666666667,3785.6410256410263,4226.153846153847,4255.8974358974365,4084.615384615385,4388.205128205129,4092.307692307693,4293.333333333334,4300.512820512821,4405.128205128206,4382.564102564103,1681.0,1686.0,1060.003,1020.9633178710938,0.0,0.0,0.0,0.0
1058354,34.0,0.0,0.0,4481.538461538462,4170.769230769231,4310.256410256411,4827.179487179488,3786.666666666667,4229.2307692307695,4254.871794871796,4084.1025641025644,4394.358974358975,4094.8717948717954,4304.102564102564,4307.179487179487,4417.948717948719,4389.743589743591,1682.0,1684.0,1060.01,1020.9633178710938,0.0,0.0,0.0,0.0
1058354,35.0,0.0,0.0,4485.641025641026,4169.74358974359,4321.538461538462,4834.358974358975,3789.2307692307695,4216.923076923077,4258.461538461539,4105.641025641026,4404.615384615385,4104.615384615385,4316.410256410257,4313.333333333334,4430.256410256411,4400.512820512821,1681.0,1684.0,1060.018,1020.9633178710938,0.0,0.0,0.0,0.0
1058354,36.0,0.0,0.0,4497.435897435898,4178.461538461539,4331.282051282052,4843.076923076924,3789.7435897435903,4206.666666666667,4262.051282051282,4114.358974358975,4411.282051282052,4112.307692307693,4324.615384615385,4317.435897435898,4442.051282051282,4414.358974358975,1681.0,1684.0,1060.026,1020.9633178710938,0.0,0.0,0.0,0.0
1058354,37.0,0.0,0.0,4506.153846153847,4185.641025641026,4333.333333333334,4841.538461538462,3792.307692307693,4220.000000000001,4264.615384615385,4103.076923076924,4409.743589743591,4111.794871794872,4326.666666666667,4316.923076923077,4451.282051282052,4420.512820512821,1681.0,1685.0,1060.034,1020.9633178710938,0.0,0.0,0.0,0.0
1058355,38.0,0.0,0.0,4494.871794871796,4174.871794871796,4324.102564102564,4836.410256410257,3795.3846153846157,4234.358974358975,4262.051282051282,4101.025641025642,4404.615384615385,4106.666666666667,4319.48717948718,4311.282051282052,4442.051282051282,4411.794871794872,1681.0,1685.0,1060.042,1020.9633178710938,0.0,0.0,0.0,0.0
1058355,39.0,0.0,0.0,4487.6923076923085,4172.820512820514,4320.512820512821,4835.384615384616,3795.3846153846157,4227.179487179487,4262.564102564103,4119.48717948718,4412.307692307693,4107.179487179487,4313.846153846154,4308.717948717949,4432.820512820514,4407.179487179487,1681.0,1685.0,1060.049,1020.9633178710938,0.0,0.0,0.0,0.0
1058355,40.0,0.0,0.0,4493.846153846154,4182.051282051282,4327.6923076923085,4838.974358974359,3794.8717948717954,4214.871794871796,4267.179487179487,4120.000000000001,4417.948717948719,4109.2307692307695,4310.256410256411,4309.743589743591,4434.871794871796,4410.769230769231,1681.0,1685.0,1060.057,1020.9633178710938,0.0,0.0,0.0,0.0
1058355,41.0,0.0,0.0,4489.743589743591,4176.923076923077,4323.589743589744,4837.435897435898,3794.8717948717954,4223.076923076924,4266.666666666667,4093.8461538461543,4403.589743589744,4100.512820512821,4296.410256410257,4306.153846153847,4424.615384615385,4400.512820512821,1681.0,1686.0,1060.065,1020.9633178710938,0.0,0.0,0.0,0.0
1058355,42.0,0.0,0.0,4481.538461538462,4168.205128205129,4312.307692307693,4831.282051282052,3795.3846153846157,4236.923076923077,4261.538461538462,4081.0256410256416,4391.794871794872,4092.820512820513,4286.153846153847,4302.564102564103,4408.205128205129,4383.076923076924,1682.0,1684.0,1060.073,1020.9633178710938,0.0,0.0,0.0,0.0
1058355,43.0,0.0,0.0,4483.589743589744,4171.794871794872,4316.410256410257,4831.282051282052,3794.8717948717954,4229.2307692307695,4265.128205128206,4097.948717948719,4400.000000000001,4101.538461538462,4298.461538461539,4307.179487179487,4415.8974358974365,4388.205128205129,1681.0,1685.0,1060.081,1020.9633178710938,0.0,0.0,0.0,0.0
1058355,44.0,0.0,0.0,4484.615384615385,4171.794871794872,4320.000000000001,4835.384615384616,3793.8461538461543,4218.461538461539,4266.153846153847,4101.538461538462,4406.153846153847,4107.179487179487,4310.769230769231,4311.794871794872,4429.2307692307695,4398.974358974359,1681.0,1684.0,1060.089,1020.9633178710938,0.0,0.0,0.0,0.0
1058355,45.0,0.0,0.0,4479.48717948718,4168.205128205129,4312.820512820514,4831.282051282052,3788.717948717949,4219.48717948718,4256.410256410257,4092.307692307693,4402.564102564103,4101.025641025642,4302.564102564103,4308.717948717949,4422.051282051282,4394.358974358975,1681.0,1685.0,1060.097,1020.9633178710938,0.0,0.0,0.0,0.0
1058479,46.0,0.0,0.0,4481.538461538462,4169.74358974359,4309.743589743591,4823.076923076924,3783.076923076924,4217.435897435898,4253.846153846154,4102.051282051282,4403.589743589744,4097.435897435898,4295.8974358974365,4306.153846153847,4417.435897435898,4392.307692307693,1682.0,1685.0,1060.104,1021.0884399414062,0.0,0.0,0.0,0.0
1058479,47.0,0.0,0.0,4488.205128205129,4169.74358974359,4311.282051282052,4826.153846153847,3784.615384615385,4209.74358974359,4257.435897435898,4106.666666666667,4406.153846153847,4100.000000000001,4300.512820512821,4309.2307692307695,4424.102564102564,4397.435897435898,1681.0,1686.0,1060.114,1021.0884399414062,0.0,0.0,0.0,0.0
1058479,48.0,0.0,0.0,4487.179487179488,4169.74358974359,4311.282051282052,4829.743589743591,3789.2307692307695,4213.333333333334,4255.384615384616,4096.923076923077,4399.48717948718,4097.948717948719,4297.435897435898,4307.6923076923085,4420.512820512821,4391.282051282052,1682.0,1685.0,1060.12,1021.0884399414062,0.0,0.0,0.0,0.0
1058479,49.0,0.0,0.0,4476.923076923077,4169.2307692307695,4309.743589743591,4823.589743589744,3787.1794871794878,4223.076923076924,4252.820512820514,4088.205128205129,4389.2307692307695,4089.7435897435903,4286.153846153847,4301.538461538462,4404.102564102564,4380.000000000001,1681.0,1685.0,1060.129,1021.0884399414062,0.0,0.0,0.0,0.0
1058479,50.0,0.0,0.0,4477.948717948719,4166.666666666667,4312.820512820514,4823.076923076924,3784.615384615385,4222.564102564103,4255.8974358974365,4083.076923076924,4387.179487179487,4091.2820512820517,4286.666666666667,4303.589743589744,4406.666666666667,4386.153846153847,1681.0,1687.0,1060.135,1021.0884399414062,0.0,0.0,0.0,0.0
1058480,51.0,0.0,0.0,4492.307692307693,4173.333333333334,4321.538461538462,4829.743589743591,3792.307692307693,4220.000000000001,4262.051282051282,4083.589743589744,4392.307692307693,4100.512820512821,4295.8974358974365,4312.307692307693,4424.615384615385,4400.512820512821,1682.0,1686.0,1060.144,1021.0884399414062,0.0,0.0,0.0,0.0
1058480,52.0,0.0,0.0,4493.846153846154,4181.538461538462,4325.641025641026,4832.820512820514,3797.435897435898,4223.076923076924,4267.6923076923085,4095.3846153846157,4397.435897435898,4104.102564102564,4300.000000000001,4312.820512820514,4431.282051282052,4401.538461538462,1681.0,1688.0,1060.151,1021.0884399414062,0.0,0.0,0.0,0.0
1058480,53.0,0.0,0.0,4488.717948717949,4174.871794871796,4324.102564102564,4833.846153846154,3794.358974358975,4225.641025641026,4266.666666666667,4108.205128205129,4403.589743589744,4102.564102564103,4300.512820512821,4308.205128205129,4427.179487179487,4398.461538461539,1682.0,1687.0,1060.159,1021.0884399414062,0.0,0.0,0.0,0.0
1058480,54.0,0.0,0.0,4491.794871794872,4171.794871794872,4325.641025641026,4833.846153846154,3795.3846153846157,4227.179487179487,4262.051282051282,4101.538461538462,4406.153846153847,4105.641025641026,4303.076923076924,4308.717948717949,4431.282051282052,4400.512820512821,1682.0,1689.0,1060.167,1021.0884399414062,0.0,0.0,0.0,0.0
1058480,55.0,0.0,0.0,4490.256410256411,4178.974358974359,4329.2307692307695,4834.871794871796,3797.9487179487182,4233.333333333334,4264.102564102564,4090.7692307692314,4403.076923076924,4106.153846153847,4302.564102564103,4309.2307692307695,4434.871794871796,4400.512820512821,1682.0,1688.0,1060.175,1021.0884399414062,0.0,0.0,0.0,0.0
1058480,56.0,0.0,0.0,4486.153846153847,4178.974358974359,4326.666666666667,4837.435897435898,3796.410256410257,4239.48717948718,4265.641025641026,4100.000000000001,4405.641025641026,4104.102564102564,4301.538461538462,4307.179487179487,4429.743589743591,4398.974358974359,1682.0,1688.0,1060.182,1021.0884399414062,0.0,0.0,0.0,0.0
1058480,57.0,0.0,0.0,4488.717948717949,4173.846153846154,4326.153846153847,4836.410256410257,3792.307692307693,4230.256410256411,4261.025641025642,4116.410256410257,4412.820512820514,4107.179487179487,4306.153846153847,4312.307692307693,4430.256410256411,4402.564102564103,1681.0,1687.0,1060.19,1021.0884399414062,0.0,0.0,0.0,0.0
1058481,58.0,0.0,0.0,4489.2307692307695,4173.846153846154,4328.205128205129,4835.384615384616,3793.333333333334,4219.48717948718,4260.512820512821,4108.717948717949,4406.666666666667,4106.666666666667,4305.641025641026,4312.820512820514,4432.307692307693,4403.589743589744,1680.0,1686.0,1060.198,1021.0884399414062,0.0,0.0,0.0,0.0
1058481,59.0,0.0,0.0,4484.102564102564,4174.358974358975,4324.615384615385,4835.8974358974365,3795.8974358974365,4224.102564102564,4269.2307692307695,4098.461538461539,4398.461538461539,4104.102564102564,4300.512820512821,4307.6923076923085,4426.666666666667,4396.923076923077,1681.0,1684.0,1060.206,1021.0884399414062,0.0,0.0,0.0,0.0
1058481,60.0,0.0,0.0,4486.153846153847,4172.820512820514,4322.051282051282,4833.333333333334,3794.8717948717954,4232.307692307693,4273.333333333334,4114.358974358975,4408.205128205129,4106.153846153847,4303.076923076924,4311.282051282052,4426.666666666667,4394.871794871796,1680.0,1683.0,1060.214,1021.0884399414062,0.0,0.0,0.0,0.0
1058481,61.0,0.0,0.0,4487.179487179488,4174.871794871796,4321.538461538462,4831.282051282052,3793.8461538461543,4230.769230769231,4268.205128205129,4114.871794871796,4409.743589743591,4107.6923076923085,4309.2307692307695,4315.8974358974365,4430.256410256411,4396.923076923077,1680.0,1684.0,1060.222,1021.0884399414062,0.0,0.0,0.0,0.0
1058605,62.0,0.0,0.0,4482.564102564103,4175.384615384616,4321.538461538462,4834.871794871796,3798.461538461539,4229.74358974359,4262.564102564103,4084.1025641025644,4393.333333333334,4105.641025641026,4306.153846153847,4312.307692307693,4428.717948717949,4396.410256410257,1681.0,1683.0,1060.229,1021.2135620117188,0.0,0.0,0.0,0.0
1058606,63.0,0.0,0.0,4486.153846153847,4175.384615384616,4321.538461538462,4834.358974358975,3801.0256410256416,4231.794871794872,4266.666666666667,4081.538461538462,4396.410256410257,4105.128205128206,4302.051282051282,4308.717948717949,4429.2307692307695,4396.410256410257,1679.0,1684.0,1060.237,1021.2135620117188,0.0,0.0,0.0,0.0
1058607,64.0,0.0,474.0,4493.846153846154,4175.384615384616,4325.128205128206,4830.256410256411,3796.9230769230776,4230.769230769231,4272.307692307693,4114.358974358975,4417.948717948719,4108.205128205129,4304.102564102564,4312.820512820514,4433.846153846154,4400.000000000001,1681.0,1684.0,1060.245,1021.2135620117188,0.0,0.0,0.0,0.0
1058607,65.0,0.0,269.0,4490.769230769231,4171.794871794872,4324.615384615385,4831.794871794872,3800.512820512821,4234.871794871796,4270.769230769231,4117.435897435898,4417.435897435898,4108.205128205129,4302.564102564103,4312.820512820514,4431.794871794872,4397.948717948719,1680.0,1685.0,1060.253,1021.2135620117188,0.0,0.0,0.0,0.0
1058607,66.0,0.0,450.0,4485.641025641026,4170.256410256411,4318.461538461539,4834.358974358975,3803.589743589744,4240.512820512821,4267.179487179487,4094.358974358975,4402.564102564103,4106.153846153847,4297.435897435898,4308.717948717949,4425.641025641026,4392.307692307693,1681.0,1686.0,1060.261,1021.2135620117188,0.0,0.0,0.0,0.0
1058608,67.0,0.0,356.0,4493.846153846154,4176.923076923077,4322.564102564103,4834.871794871796,3800.512820512821,4235.384615384616,4268.205128205129,4103.589743589744,4412.307692307693,4107.6923076923085,4304.615384615385,4311.794871794872,4432.820512820514,4395.384615384616,1680.0,1685.0,1060.268,1021.2135620117188,0.0,0.0,0.0,0.0
1058608,68.0,0.0,456.0,4502.051282051282,4185.128205128206,4330.769230769231,4839.48717948718,3800.0000000000005,4227.6923076923085,4269.74358974359,4124.102564102564,4427.179487179487,4110.769230769231,4314.358974358975,4316.410256410257,4444.615384615385,4401.538461538462,1681.0,1685.0,1060.276,1021.2135620117188,0.0,0.0,0.0,0.0
1058609,69.0,0.0,548.0,4498.461538461539,4184.102564102564,4328.205128205129,4842.051282051283,3799.48717948718,4230.256410256411,4263.076923076924,4111.282051282052,4417.948717948719,4108.205128205129,4307.6923076923085,4310.769230769231,4442.564102564103,4398.974358974359,1681.0,1685.0,1060.284,1021.2135620117188,0.0,0.0,0.0,0.0
1058609,70.0,0.0,533.0,4493.333333333334,4181.538461538462,4323.076923076924,4839.48717948718,3798.461538461539,4234.871794871796,4257.435897435898,4097.435897435898,4407.6923076923085,4106.153846153847,4301.025641025642,4306.666666666667,4436.923076923077,4395.384615384616,1682.0,1685.0,1060.351,1021.2135620117188,0.0,0.0,0.0,0.0
1058609,71.0,0.0,478.0,4493.846153846154,4183.589743589744,4328.205128205129,4837.435897435898,3798.9743589743593,4231.794871794872,4262.051282051282,4108.717948717949,4412.820512820514,4107.6923076923085,4307.179487179487,4311.794871794872,4440.512820512821,4399.48717948718,1682.0,1684.0,1060.352,1021.2135620117188,0.0,0.0,0.0,0.0
1058610,72.0,0.0,421.0,4494.358974358975,4182.051282051282,4332.820512820514,4836.410256410257,3797.9487179487182,4227.6923076923085,4263.589743589744,4114.871794871796,4417.435897435898,4107.179487179487,4309.743589743591,4313.333333333334,4441.025641025642,4401.538461538462,1682.0,1686.0,1060.352,1021.2135620117188,0.0,0.0,0.0,0.0
1058610,73.0,0.0,458.0,4495.384615384616,4182.051282051282,4332.820512820514,4838.974358974359,3796.410256410257,4227.179487179487,4263.076923076924,4107.6923076923085,4410.769230769231,4106.666666666667,4304.615384615385,4312.307692307693,4432.820512820514,4397.948717948719,1683.0,1685.0,1060.352,1021.2135620117188,0.0,0.0,0.0,0.0
1058611,74.0,0.0,487.0,4495.384615384616,4185.641025641026,4334.358974358975,4841.538461538462,3797.9487179487182,4230.769230769231,4269.2307692307695,4104.102564102564,4401.538461538462,4104.615384615385,4302.051282051282,4313.846153846154,4430.769230769231,4397.948717948719,1682.0,1687.0,1060.352,1021.2135620117188,0.0,0.0,0.0,0.0
1058611,75.0,0.0,438.0,4488.717948717949,4178.461538461539,4330.256410256411,4836.410256410257,3800.512820512821,4232.307692307693,4273.333333333334,4107.6923076923085,4397.435897435898,4102.564102564103,4296.923076923077,4309.2307692307695,4429.2307692307695,4396.410256410257,1683.0,1685.0,1060.352,1021.2135620117188,0.0,0.0,0.0,0.0
1058611,76.0,0.0,448.0,4485.641025641026,4173.333333333334,4329.743589743591,4832.820512820514,3801.538461538462,4227.6923076923085,4271.282051282052,4114.871794871796,4404.615384615385,4106.666666666667,4292.820512820514,4307.6923076923085,4425.128205128206,4393.333333333334,1682.0,1686.0,1060.352,1021.2135620117188,0.0,0.0,0.0,0.0
1058611,77.0,0.0,245.0,4492.820512820514,4180.512820512821,4334.871794871796,4838.461538461539,3800.0000000000005,4225.128205128206,4271.282051282052,4110.256410256411,4408.205128205129,4107.6923076923085,4298.461538461539,4312.820512820514,4428.717948717949,4397.948717948719,1683.0,1686.0,1060.352,1021.2135620117188,0.0,0.0,0.0,0.0
1058611,78.0,0.0,487.0,4491.282051282052,4178.974358974359,4326.666666666667,4837.435897435898,3795.3846153846157,4227.179487179487,4267.179487179487,4094.358974358975,4401.538461538462,4103.076923076924,4296.923076923077,4308.205128205129,4425.641025641026,4395.8974358974365,1682.0,1686.0,1060.357,1021.315185546875,0.0,0.0,0.0,0.0
1058612,79.0,0.0,438.0,4481.538461538462,4169.2307692307695,4315.8974358974365,4826.153846153847,3795.3846153846157,4231.282051282052,4259.48717948718,4094.8717948717954,4399.48717948718,4098.461538461539,4283.076923076924,4302.051282051282,4415.384615384616,4382.051282051282,1683.0,1687.0,1060.364,1021.315185546875,0.0,0.0,0.0,0.0
1058612,80.0,0.0,448.0,4483.076923076924,4169.74358974359,4322.564102564103,4826.666666666667,3796.410256410257,4229.2307692307695,4258.974358974359,4098.974358974359,4402.564102564103,4097.435897435898,4280.512820512821,4308.205128205129,4418.461538461539,4382.564102564103,1683.0,1687.0,1060.372,1021.315185546875,0.0,0.0,0.0,0.0
1058612,81.0,0.0,245.0,4485.641025641026,4173.333333333334,4328.717948717949,4832.820512820514,3793.8461538461543,4222.051282051282,4261.025641025642,4093.333333333334,4400.512820512821,4100.512820512821,4290.769230769231,4313.333333333334,4426.153846153847,4394.871794871796,1682.0,1687.0,1060.38,1021.315185546875,0.0,0.0,0.0,0.0
1058708,82.0,0.0,487.0,4483.589743589744,4172.307692307693,4323.589743589744,4833.333333333334,3792.820512820513,4221.538461538462,4259.48717948718,4102.564102564103,4403.076923076924,4104.615384615385,4299.48717948718,4310.256410256411,4427.179487179487,4395.8974358974365,1682.0,1686.0,1060.387,1021.315185546875,0.0,0.0,0.0,0.0
1058708,83.0,0.0,438.0,4487.6923076923085,4174.358974358975,4325.641025641026,4831.794871794872,3794.8717948717954,4224.102564102564,4262.564102564103,4119.48717948718,4412.820512820514,4109.2307692307695,4301.025641025642,4309.743589743591,4430.256410256411,4395.384615384616,1682.0,1687.0,1060.395,1021.315185546875,0.0,0.0,0.0,0.0
1058708,84.0,0.0,448.0,4494.871794871796,4178.461538461539,4331.282051282052,4833.333333333334,3797.9487179487182,4225.641025641026,4268.205128205129,4113.846153846154,4408.717948717949,4108.205128205129,4294.871794871796,4311.794871794872,4430.256410256411,4396.923076923077,1682.0,1685.0,1060.403,1021.315185546875,0.0,0.0,0.0,0.0
1058709,85.0,0.0,245.0,4491.282051282052,4177.948717948719,4327.6923076923085,4835.384615384616,3798.461538461539,4231.282051282052,4263.589743589744,4097.435897435898,4398.974358974359,4101.538461538462,4287.179487179487,4308.205128205129,4422.051282051282,4388.717948717949,1681.0,1685.0,1060.41,1021.315185546875,0.0,0.0,0.0,0.0
1058709,86.0,0.0,487.0,4489.2307692307695,4176.410256410257,4327.179487179487,4836.923076923077,3795.8974358974365,4231.794871794872,4258.974358974359,4105.641025641026,4406.153846153847,4102.564102564103,4289.74358974359,4307.179487179487,4422.051282051282,4384.615384615385,1682.0,1684.0,1060.418,1021.315185546875,0.0,0.0,0.0,0.0
1058710,87.0,0.0,438.0,4494.358974358975,4173.846153846154,4327.179487179487,4837.948717948719,3794.358974358975,4227.179487179487,4266.153846153847,4117.435897435898,4413.846153846154,4105.128205128206,4294.871794871796,4308.205128205129,4428.717948717949,4391.794871794872,1680.0,1685.0,1060.426,1021.315185546875,0.0,0.0,0.0,0.0
1058711,88.0,0.0,448.0,4492.307692307693,4173.846153846154,4323.589743589744,4834.358974358975,3799.48717948718,4233.333333333334,4272.307692307693,4103.076923076924,4402.564102564103,4098.974358974359,4288.717948717949,4305.128205128206,4427.179487179487,4392.307692307693,1681.0,1686.0,1060.434,1021.315185546875,0.0,0.0,0.0,0.0
1058711,89.0,0.0,245.0,4487.179487179488,4172.820512820514,4320.512820512821,4832.307692307693,3803.076923076924,4239.48717948718,4266.666666666667,4081.0256410256416,4386.666666666667,4091.7948717948725,4283.589743589744,4302.051282051282,4421.025641025642,4386.153846153847,1681.0,1685.0,1060.441,1021.315185546875,0.0,0.0,0.0,0.0
1058711,90.0,0.0,487.0,4486.153846153847,4170.769230769231,4316.410256410257,4833.333333333334,3796.9230769230776,4231.282051282052,4262.564102564103,4080.5128205128212,4383.589743589744,4093.333333333334,4282.051282051282,4301.538461538462,4416.923076923077,4382.564102564103,1681.0,1686.0,1060.449,1021.315185546875,0.0,0.0,0.0,0.0
1058712,91.0,0.0,438.0,4488.205128205129,4171.282051282052,4318.974358974359,4832.820512820514,3793.8461538461543,4224.102564102564,4267.6923076923085,4098.461538461539,4393.846153846154,4101.538461538462,4281.538461538462,4303.589743589744,4416.923076923077,4385.128205128206,1681.0,1686.0,1060.457,1021.315185546875,0.0,0.0,0.0,0.0
1058712,92.0,0.0,448.0,4489.743589743591,4172.820512820514,4326.666666666667,4832.820512820514,3796.410256410257,4225.641025641026,4269.74358974359,4111.794871794872,4403.589743589744,4103.589743589744,4287.6923076923085,4308.717948717949,4422.051282051282,4392.307692307693,1682.0,1686.0,1060.465,1021.315185546875,0.0,0.0,0.0,0.0
1058712,93.0,0.0,245.0,4487.179487179488,4171.282051282052,4320.000000000001,4831.282051282052,3791.7948717948725,4224.102564102564,4265.128205128206,4116.923076923077,4403.076923076924,4097.948717948719,4288.717948717949,4310.256410256411,4417.435897435898,4389.743589743591,1682.0,1685.0,1060.473,1021.315185546875,0.0,0.0,0.0,0.0
1058951,94.0,0.0,487.0,4483.589743589744,4169.2307692307695,4307.6923076923085,4825.641025641026,3786.1538461538466,4221.025641025642,4259.48717948718,4106.666666666667,4392.820512820514,4097.435897435898,4282.051282051282,4307.179487179487,4410.256410256411,4381.538461538462,1682.0,1686.0,1060.481,1021.4403076171875,0.0,0.0,0.0,0.0
1058951,95.0,0.0,438.0,4490.769230769231,4169.2307692307695,4315.8974358974365,4825.128205128206,3788.717948717949,4219.48717948718,4258.974358974359,4092.820512820513,4388.717948717949,4102.051282051282,4285.128205128206,4310.769230769231,4420.512820512821,4390.256410256411,1682.0,1684.0,1060.488,1021.4403076171875,0.0,0.0,0.0,0.0
1058951,96.0,0.0,448.0,4502.051282051282,4174.871794871796,4329.743589743591,4834.358974358975,3793.333333333334,4221.538461538462,4265.641025641026,4103.076923076924,4402.051282051282,4101.538461538462,4295.8974358974365,4316.410256410257,4433.846153846154,4409.2307692307695,1682.0,1684.0,1060.496,1021.4403076171875,0.0,0.0,0.0,0.0
1058951,97.0,0.0,245.0,4501.538461538462,4181.538461538462,4332.820512820514,4841.025641025642,3797.435897435898,4224.615384615385,4272.820512820514,4118.461538461539,4415.384615384616,4105.128205128206,4303.076923076924,4316.923076923077,4442.564102564103,4414.871794871796,1681.0,1684.0,1060.504,1021.4403076171875,0.0,0.0,0.0,0.0
1058952,98.0,0.0,487.0,4503.589743589744,4187.179487179487,4335.384615384616,4843.076923076924,3800.0000000000005,4229.2307692307695,4273.846153846154,4109.2307692307695,4408.205128205129,4111.794871794872,4308.205128205129,4314.871794871796,4450.256410256411,4411.282051282052,1682.0,1684.0,1060.512,1021.4403076171875,0.0,0.0,0.0,0.0
1058952,99.0,0.0,438.0,4500.000000000001,4181.538461538462,4330.256410256411,4842.564102564103,3798.9743589743593,4238.974358974359,4268.205128205129,4089.23076923077,4389.743589743591,4103.589743589744,4300.000000000001,4309.743589743591,4440.512820512821,4402.051282051282,1682.0,1683.0,1060.52,1021.4403076171875,0.0,0.0,0.0,0.0
1058952,100.0,0.0,448.0,4487.179487179488,4170.256410256411,4320.000000000001,4835.8974358974365,3796.410256410257,4237.948717948719,4265.128205128206,4092.307692307693,4387.6923076923085,4096.410256410257,4285.641025641026,4306.153846153847,4425.128205128206,4393.333333333334,1682.0,1684.0,1060.527,1021.4403076171875,0.0,0.0,0.0,0.0
1058953,101.0,0.0,245.0,4488.205128205129,4171.794871794872,4322.564102564103,4833.846153846154,3795.3846153846157,4223.076923076924,4265.128205128206,4102.051282051282,4397.948717948719,4103.589743589744,4290.256410256411,4308.205128205129,4430.769230769231,4394.871794871796,1683.0,1684.0,1060.535,1021.4403076171875,0.0,0.0,0.0,0.0
1058953,102.0,0.0,487.0,4498.461538461539,4182.564102564103,4329.743589743591,4838.461538461539,3793.333333333334,4222.051282051282,4262.051282051282,4095.8974358974365,4400.512820512821,4105.641025641026,4298.974358974359,4311.794871794872,4440.000000000001,4400.512820512821,1683.0,1685.0,1060.543,1021.4403076171875,0.0,0.0,0.0,0.0
1058953,103.0,0.0,438.0,4494.358974358975,4183.589743589744,4328.717948717949,4838.461538461539,3791.7948717948725,4230.256410256411,4257.435897435898,4091.7948717948725,4398.461538461539,4101.025641025642,4294.358974358975,4311.794871794872,4435.8974358974365,4400.000000000001,1682.0,1684.0,1060.551,1021.4403076171875,0.0,0.0,0.0,0.0
1058954,104.0,0.0,448.0,4487.6923076923085,4175.384615384616,4325.128205128206,4836.923076923077,3793.333333333334,4225.128205128206,4260.000000000001,4096.923076923077,4398.974358974359,4100.512820512821,4290.769230769231,4309.2307692307695,4433.333333333334,4398.461538461539,1681.0,1685.0,1060.559,1021.4403076171875,0.0,0.0,0.0,0.0
1058954,105.0,0.0,245.0,4493.846153846154,4174.358974358975,4325.128205128206,4838.974358974359,3796.410256410257,4218.461538461539,4269.74358974359,4107.179487179487,4407.179487179487,4105.641025641026,4300.512820512821,4310.256410256411,4436.923076923077,4403.589743589744,1683.0,1684.0,1060.567,1021.4403076171875,0.0,0.0,0.0,0.0
1058954,106.0,0.0,487.0,4494.871794871796,4174.871794871796,4326.666666666667,4836.923076923077,3796.410256410257,4219.48717948718,4273.846153846154,4115.8974358974365,4417.435897435898,4108.717948717949,4306.666666666667,4311.794871794872,4437.948717948719,4405.128205128206,1681.0,1684.0,1060.574,1021.4403076171875,0.0,0.0,0.0,0.0
1058954,107.0,0.0,438.0,4486.153846153847,4171.794871794872,4325.128205128206,4832.820512820514,3795.3846153846157,4222.564102564103,4266.153846153847,4104.615384615385,4407.179487179487,4102.564102564103,4296.923076923077,4307.179487179487,4429.743589743591,4397.948717948719,1681.0,1684.0,1060.582,1021.4403076171875,0.0,0.0,0.0,0.0
1058954,108.0,0.0,448.0,4480.512820512821,4169.2307692307695,4315.384615384616,4834.358974358975,3796.9230769230776,4230.769230769231,4265.128205128206,4089.23076923077,4387.179487179487,4094.358974358975,4287.6923076923085,4301.538461538462,4419.48717948718,4388.717948717949,1681.0,1683.0,1060.59,1021.4403076171875,0.0,0.0,0.0,0.0
1058955,109.0,0.0,245.0,4481.025641025642,4169.74358974359,4309.2307692307695,4829.743589743591,3795.8974358974365,4234.358974358975,4271.282051282052,4101.025641025642,4390.769230769231,4096.923076923077,4287.6923076923085,4301.538461538462,4415.8974358974365,4385.641025641026,1681.0,1684.0,1060.597,1021.4403076171875,0.0,0.0,0.0,0.0
1058955,110.0,0.0,487.0,4481.025641025642,4170.256410256411,4314.358974358975,4825.128205128206,3792.820512820513,4226.666666666667,4265.128205128206,4112.307692307693,4404.102564102564,4102.564102564103,4290.769230769231,4307.6923076923085,4417.948717948719,4388.205128205129,1681.0,1683.0,1060.605,1021.4403076171875,0.0,0.0,0.0,0.0
1058955,111.0,0.0,438.0,4477.948717948719,4169.74358974359,4312.820512820514,4829.743589743591,3792.820512820513,4223.076923076924,4255.8974358974365,4089.23076923077,4394.871794871796,4095.3846153846157,4288.205128205129,4308.717948717949,4414.871794871796,4385.641025641026,1681.0,1684.0,1060.613,1021.4403076171875,0.0,0.0,0.0,0.0
1058955,112.0,0.0,448.0,4475.384615384616,4169.74358974359,4304.102564102564,4828.205128205129,3790.7692307692314,4224.615384615385,4260.512820512821,4078.461538461539,4387.179487179487,4088.717948717949,4285.128205128206,4306.153846153847,4409.743589743591,4379.48717948718,1681.0,1684.0,1060.62,1021.4403076171875,0.0,0.0,0.0,0.0
1058955,113.0,0.0,245.0,4479.48717948718,4169.74358974359,4307.179487179487,4825.641025641026,3787.692307692308,4221.025641025642,4265.641025641026,4104.615384615385,4403.076923076924,4096.923076923077,4289.74358974359,4309.743589743591,4419.48717948718,4384.615384615385,1681.0,1685.0,1060.628,1021.4403076171875,0.0,0.0,0.0,0.0
1058956,114.0,0.0,487.0,4487.6923076923085,4171.282051282052,4317.948717948719,4829.743589743591,3790.2564102564106,4217.435897435898,4262.564102564103,4122.051282051282,4414.871794871796,4104.615384615385,4293.333333333334,4312.307692307693,4432.307692307693,4394.871794871796,1681.0,1685.0,1060.636,1021.4403076171875,0.0,0.0,0.0,0.0
1058956,115.0,0.0,438.0,4488.717948717949,4171.794871794872,4320.512820512821,4830.256410256411,3794.358974358975,4222.564102564103,4268.717948717949,4109.74358974359,4406.153846153847,4100.000000000001,4286.153846153847,4307.179487179487,4426.153846153847,4394.871794871796,1680.0,1687.0,1060.644,1021.4403076171875,0.0,0.0,0.0,0.0
1058956,116.0,0.0,448.0,4485.641025641026,4169.74358974359,4317.948717948719,4827.6923076923085,3791.7948717948725,4227.6923076923085,4273.333333333334,4096.923076923077,4392.820512820514,4093.8461538461543,4280.512820512821,4305.128205128206,4413.846153846154,4386.666666666667,1682.0,1686.0,1060.652,1021.4403076171875,0.0,0.0,0.0,0.0
1058956,117.0,0.0,245.0,4482.564102564103,4168.205128205129,4316.923076923077,4828.717948717949,3787.1794871794878,4223.589743589744,4266.153846153847,4104.102564102564,4391.794871794872,4093.8461538461543,4281.538461538462,4308.717948717949,4412.307692307693,4382.564102564103,1680.0,1687.0,1060.659,1021.4403076171875,0.0,0.0,0.0,0.0
1058956,118.0,0.0,487.0,4479.48717948718,4167.6923076923085,4314.358974358975,4827.179487179488,3789.2307692307695,4219.48717948718,4264.102564102564,4112.820512820514,4398.461538461539,4095.3846153846157,4280.512820512821,4307.6923076923085,4411.282051282052,4381.025641025642,1681.0,1687.0,1060.667,1021.4403076171875,0.0,0.0,0.0,0.0
1058956,119.0,0.0,438.0,4478.461538461539,4167.179487179487,4312.820512820514,4823.589743589744,3790.7692307692314,4221.538461538462,4262.051282051282,4096.410256410257,4392.307692307693,4091.7948717948725,4277.435897435898,4304.102564102564,4409.2307692307695,4379.48717948718,1681.0,1686.0,1060.675,1021.4403076171875,0.0,0.0,0.0,0.0
1058956,120.0,0.0,448.0,4484.615384615385,4169.74358974359,4315.8974358974365,4828.205128205129,3786.666666666667,4220.000000000001,4254.358974358975,4074.358974358975,4381.538461538462,4090.2564102564106,4285.641025641026,4307.179487179487,4416.410256410257,4384.615384615385,1681.0,1687.0,1060.683,1021.4403076171875,0.0,0.0,0.0,0.0
1058957,121.0,0.0,245.0,4490.769230769231,4173.846153846154,4324.102564102564,4834.358974358975,3785.6410256410263,4210.256410256411,4250.769230769231,4079.48717948718,4387.6923076923085,4094.358974358975,4295.8974358974365,4312.820512820514,4425.128205128206,4396.410256410257,1682.0,1686.0,1060.691,1021.4403076171875,0.0,0.0,0.0,0.0
1058957,122.0,0.0,487.0,4489.2307692307695,4173.333333333334,4327.179487179487,4836.923076923077,3788.205128205129,4205.641025641026,4252.820512820514,4092.820512820513,4398.974358974359,4097.948717948719,4295.384615384616,4311.282051282052,4424.615384615385,4397.435897435898,1682.0,1687.0,1060.699,1021.4403076171875,0.0,0.0,0.0,0.0
1058957,123.0,0.0,438.0,4486.153846153847,4169.74358974359,4320.512820512821,4833.333333333334,3787.1794871794878,4216.410256410257,4253.846153846154,4090.2564102564106,4397.948717948719,4092.820512820513,4288.717948717949,4305.641025641026,4418.461538461539,4387.179487179487,1682.0,1687.0,1060.706,1021.4403076171875,0.0,0.0,0.0,0.0
1058957,124.0,0.0,448.0,4486.153846153847,4169.74358974359,4317.948717948719,4829.743589743591,3787.1794871794878,4224.102564102564,4255.384615384616,4089.23076923077,4395.8974358974365,4091.7948717948725,4283.076923076924,4306.666666666667,4415.384615384616,4386.666666666667,1682.0,1688.0,1060.714,1021.4403076171875,0.0,0.0,0.0,0.0
1058957,125.0,0.0,245.0,4491.794871794872,4171.794871794872,4325.128205128206,4832.820512820514,3793.333333333334,4219.48717948718,4258.974358974359,4102.564102564103,4402.564102564103,4098.974358974359,4284.615384615385,4312.820512820514,4420.512820512821,4398.974358974359,1682.0,1687.0,1060.722,1021.4403076171875,0.0,0.0,0.0,0.0
1059086,126.0,0.0,487.0,4495.8974358974365,4171.282051282052,4326.666666666667,4834.871794871796,3795.8974358974365,4219.48717948718,4262.051282051282,4107.179487179487,4405.641025641026,4101.025641025642,4291.282051282052,4312.307692307693,4424.615384615385,4401.538461538462,1681.0,1688.0,1060.73,1021.6904907226562,0.0,0.0,0.0,0.0
1059087,127.0,0.0,438.0,4488.717948717949,4170.256410256411,4317.435897435898,4830.256410256411,3791.7948717948725,4222.051282051282,4263.589743589744,4101.025641025642,4401.025641025642,4095.8974358974365,4289.74358974359,4305.641025641026,4417.435897435898,4388.717948717949,1682.0,1687.0,1060.738,1021.6904907226562,0.0,0.0,0.0,0.0
1059087,128.0,0.0,448.0,4479.48717948718,4168.717948717949,4310.769230769231,4825.128205128206,3791.2820512820517,4219.48717948718,4260.512820512821,4100.000000000001,4400.512820512821,4092.307692307693,4281.025641025642,4304.615384615385,4412.307692307693,4383.589743589744,1681.0,1687.0,1060.745,1021.6904907226562,0.0,0.0,0.0,0.0
1059087,0.0,0.0,474.0,4482.564102564103,4168.205128205129,4313.846153846154,4825.128205128206,3792.820512820513,4216.410256410257,4258.461538461539,4101.538461538462,4404.102564102564,4092.307692307693,4282.564102564103,4307.6923076923085,4418.974358974359,4390.256410256411,1681.0,1687.0,1060.753,1021.6904907226562,0.0,0.0,0.0,0.0
1059088,1.0,0.0,269.0,4485.128205128206,4169.2307692307695,4316.410256410257,4824.102564102564,3786.1538461538466,4214.358974358975,4255.384615384616,4097.435897435898,4398.974358974359,4090.7692307692314,4284.615384615385,4308.205128205129,4418.974358974359,4392.820512820514,1681.0,1686.0,1060.761,1021.6904907226562,0.0,0.0,0.0,0.0
1059088,2.0,0.0,450.0,4480.000000000001,4167.179487179487,4310.256410256411,4820.000000000001,3781.538461538462,4215.384615384616,4247.6923076923085,4085.1282051282055,4386.666666666667,4088.205128205129,4275.8974358974365,4303.589743589744,4408.205128205129,4385.641025641026,1680.0,1687.0,1060.769,1021.6904907226562,0.0,0.0,0.0,0.0
1059088,3.0,0.0,356.0,4482.051282051282,4165.641025641026,4306.666666666667,4822.051282051282,3784.1025641025644,4214.871794871796,4247.6923076923085,4076.9230769230776,4383.076923076924,4086.1538461538466,4272.820512820514,4302.051282051282,4407.6923076923085,4382.564102564103,1681.0,1686.0,1060.777,1021.6904907226562,0.0,0.0,0.0,0.0
1059088,4.0,0.0,456.0,4486.153846153847,4168.717948717949,4312.820512820514,4826.153846153847,3783.076923076924,4209.2307692307695,4255.384615384616,4083.076923076924,4390.769230769231,4088.205128205129,4277.948717948719,4306.153846153847,4414.871794871796,4389.743589743591,1680.0,1686.0,1060.785,1021.6904907226562,0.0,0.0,0.0,0.0
1059088,5.0,0.0,548.0,4483.589743589744,4169.2307692307695,4314.871794871796,4822.051282051282,3782.564102564103,4208.717948717949,4252.307692307693,4089.7435897435903,4391.794871794872,4090.7692307692314,4278.974358974359,4308.717948717949,4414.358974358975,4393.333333333334,1681.0,1687.0,1060.792,1021.6904907226562,0.0,0.0,0.0,0.0
1059089,6.0,0.0,533.0,4484.102564102564,4165.641025641026,4310.769230769231,4819.48717948718,3784.615384615385,4213.333333333334,4244.102564102564,4083.076923076924,4386.153846153847,4089.23076923077,4278.461538461539,4307.6923076923085,4413.846153846154,4388.717948717949,1680.0,1686.0,1060.8,1021.6904907226562,0.0,0.0,0.0,0.0
1059089,7.0,0.0,478.0,4490.769230769231,4168.717948717949,4312.307692307693,4827.6923076923085,3785.1282051282055,4206.153846153847,4251.282051282052,4084.615384615385,4390.769230769231,4091.7948717948725,4286.666666666667,4310.256410256411,4421.025641025642,4391.282051282052,1681.0,1687.0,1060.808,1021.6904907226562,0.0,0.0,0.0,0.0
1059089,8.0,0.0,421.0,4491.794871794872,4171.794871794872,4318.461538461539,4832.820512820514,3785.6410256410263,4200.512820512821,4260.512820512821,4096.923076923077,4400.512820512821,4096.410256410257,4290.769230769231,4311.794871794872,4423.589743589744,4398.974358974359,1680.0,1687.0,1060.817,1021.6904907226562,0.0,0.0,0.0,0.0
1059089,9.0,0.0,458.0,4490.769230769231,4169.74358974359,4318.974358974359,4828.717948717949,3786.1538461538466,4210.256410256411,4259.48717948718,4101.025641025642,4403.589743589744,4096.410256410257,4285.128205128206,4308.205128205129,4419.48717948718,4398.974358974359,1681.0,1686.0,1060.824,1021.6904907226562,0.0,0.0,0.0,0.0
1059089,10.0,0.0,487.0,4490.256410256411,4168.205128205129,4314.871794871796,4826.153846153847,3787.1794871794878,4211.282051282052,4256.410256410257,4095.3846153846157,4398.974358974359,4092.820512820513,4280.000000000001,4306.666666666667,4415.8974358974365,4393.846153846154,1681.0,1686.0,1060.832,1021.6904907226562,0.0,0.0,0.0,0.0
1059089,11.0,0.0,438.0,4483.076923076924,4166.666666666667,4307.179487179487,4826.153846153847,3785.6410256410263,4205.641025641026,4255.384615384616,4086.1538461538466,4389.2307692307695,4088.717948717949,4274.358974358975,4305.641025641026,4407.179487179487,4386.153846153847,1681.0,1687.0,1060.84,1021.6904907226562,0.0,0.0,0.0,0.0
1059089,12.0,0.0,448.0,4476.923076923077,4165.641025641026,4300.512820512821,4820.512820512821,3783.589743589744,4210.769230769231,4257.948717948719,4092.307692307693,4387.179487179487,4089.7435897435903,4272.820512820514,4304.102564102564,4400.512820512821,4381.538461538462,1682.0,1685.0,1060.848,1021.6904907226562,0.0,0.0,0.0,0.0
1059203,13.0,0.0,245.0,4481.538461538462,4166.666666666667,4302.051282051282,4818.461538461539,3785.6410256410263,4222.564102564103,4261.538461538462,4096.410256410257,4392.820512820514,4092.307692307693,4275.384615384616,4304.102564102564,4403.076923076924,4383.589743589744,1681.0,1687.0,1060.855,1021.8156127929688,0.0,0.0,0.0,0.0
1059203,14.0,0.0,487.0,4486.153846153847,4167.179487179487,4302.564102564103,4820.000000000001,3788.205128205129,4226.666666666667,4257.435897435898,4079.48717948718,4388.717948717949,4088.717948717949,4272.820512820514,4302.051282051282,4401.538461538462,4382.564102564103,1682.0,1686.0,1060.864,1021.8156127929688,0.0,0.0,0.0,0.0
1059203,15.0,0.0,438.0,4485.641025641026,4167.6923076923085,4303.589743589744,4820.000000000001,3786.1538461538466,4214.358974358975,4255.384615384616,4082.564102564103,4393.846153846154,4089.23076923077,4275.8974358974365,4302.564102564103,4403.589743589744,4381.025641025642,1681.0,1686.0,1060.871,1021.8156127929688,0.0,0.0,0.0,0.0
1059203,16.0,0.0,0.0,4489.2307692307695,4169.2307692307695,4310.256410256411,4823.076923076924,3787.692307692308,4201.538461538462,4261.025641025642,4111.794871794872,4412.307692307693,4100.512820512821,4290.256410256411,4306.153846153847,4416.923076923077,4388.205128205129,1682.0,1686.0,1060.878,1021.8156127929688,0.0,0.0,0.0,0.0
1059204,17.0,0.0,0.0,4495.384615384616,4169.74358974359,4317.948717948719,4827.6923076923085,3793.8461538461543,4208.717948717949,4263.076923076924,4110.769230769231,4410.256410256411,4101.538461538462,4294.358974358975,4309.743589743591,4424.102564102564,4394.358974358975,1681.0,1686.0,1060.886,1021.8156127929688,0.0,0.0,0.0,0.0
1059204,18.0,0.0,0.0,4493.846153846154,4166.153846153847,4317.435897435898,4823.589743589744,3791.2820512820517,4216.923076923077,4261.025641025642,4091.2820512820517,4397.948717948719,4093.333333333334,4284.615384615385,4308.717948717949,4418.461538461539,4388.717948717949,1681.0,1686.0,1060.895,1021.8156127929688,0.0,0.0,0.0,0.0
1059204,19.0,0.0,0.0,4488.717948717949,4166.153846153847,4312.820512820514,4818.974358974359,3787.692307692308,4209.2307692307695,4263.589743589744,4101.538461538462,4402.564102564103,4093.8461538461543,4281.538461538462,4306.666666666667,4412.820512820514,4382.564102564103,1681.0,1686.0,1060.902,1021.8156127929688,0.0,0.0,0.0,0.0
