timestamp,cnt,inerpolated,raw_cq,af3,f7,f3,fc5,t7,p7,o1,o2,p8,t8,fc6,f4,f8,af4,gyrox,gyroy,epoc_timestamp,epoc_es_timestamp,func_id,func_value,marker,sync_signal
955722,66.0,0.0,447.0,4459.48717948718,4153.846153846154,4307.6923076923085,4811.282051282052,3790.2564102564106,4202.564102564103,4253.846153846154,4077.435897435898,4356.923076923077,4071.7948717948725,4254.871794871796,4302.564102564103,4381.025641025642,4369.2307692307695,1682.0,1685.0,957.366,918.3516845703125,0.0,0.0,0.0,0.0
955722,67.0,0.0,353.0,4462.051282051282,4154.358974358975,4308.205128205129,4803.076923076924,3790.2564102564106,4196.410256410257,4255.384615384616,4077.9487179487187,4360.000000000001,4075.3846153846157,4258.461538461539,4303.076923076924,4385.641025641026,4368.717948717949,1681.0,1685.0,957.374,918.3516845703125,0.0,0.0,0.0,0.0
955723,68.0,0.0,456.0,4466.153846153847,4159.48717948718,4312.820512820514,4805.641025641026,3796.410256410257,4198.974358974359,4257.435897435898,4081.538461538462,4371.282051282052,4080.5128205128212,4263.589743589744,4308.205128205129,4396.923076923077,4371.282051282052,1682.0,1686.0,957.382,918.3516845703125,0.0,0.0,0.0,0.0
955723,69.0,0.0,548.0,4463.076923076924,4162.564102564103,4311.282051282052,4810.256410256411,3799.48717948718,4207.179487179487,4255.8974358974365,4090.7692307692314,4375.384615384616,4076.9230769230776,4262.051282051282,4307.6923076923085,4393.846153846154,4369.743589743591,1681.0,1684.0,957.39,918.3516845703125,0.0,0.0,0.0,0.0
955723,70.0,0.0,533.0,4458.461538461539,4158.461538461539,4303.589743589744,4807.179487179488,3795.3846153846157,4206.153846153847,4253.333333333334,4090.7692307692314,4369.743589743591,4071.2820512820517,4255.384615384616,4303.589743589744,4385.128205128206,4366.153846153847,1681.0,1685.0,957.398,918.3516845703125,0.0,0.0,0.0,0.0
955723,71.0,0.0,477.0,4463.076923076924,4157.948717948719,4311.794871794872,4803.589743589744,3794.358974358975,4198.974358974359,4255.384615384616,4077.435897435898,4363.589743589744,4074.358974358975,4258.974358974359,4305.641025641026,4388.717948717949,4368.717948717949,1681.0,1684.0,957.406,918.3516845703125,0.0,0.0,0.0,0.0
955723,72.0,0.0,420.0,4463.589743589744,4161.025641025642,4317.948717948719,4804.615384615386,3795.3846153846157,4197.435897435898,4252.820512820514,4064.615384615385,4353.846153846154,4074.358974358975,4261.538461538462,4305.641025641026,4389.743589743591,4369.2307692307695,1681.0,1684.0,957.414,918.3516845703125,0.0,0.0,0.0,0.0
955723,73.0,0.0,469.0,4457.948717948719,4156.410256410257,4305.128205128206,4803.589743589744,3794.8717948717954,4195.384615384616,4247.6923076923085,4065.1282051282055,4349.2307692307695,4069.23076923077,4254.871794871796,4303.589743589744,4384.615384615385,4365.641025641026,1681.0,1684.0,957.421,918.3516845703125,0.0,0.0,0.0,0.0
955723,74.0,0.0,487.0,4465.641025641026,4161.025641025642,4304.615384615385,4808.205128205129,3794.8717948717954,4191.794871794872,4250.256410256411,4076.410256410257,4362.564102564103,4075.3846153846157,4260.512820512821,4309.743589743591,4395.8974358974365,4372.820512820514,1681.0,1685.0,957.429,918.3516845703125,0.0,0.0,0.0,0.0
955723,75.0,0.0,438.0,4476.923076923077,4171.282051282052,4318.461538461539,4816.410256410257,3795.8974358974365,4198.461538461539,4254.871794871796,4080.5128205128212,4371.794871794872,4087.1794871794878,4275.384615384616,4315.8974358974365,4409.743589743591,4385.641025641026,1681.0,1684.0,957.437,918.3516845703125,0.0,0.0,0.0,0.0
955724,76.0,0.0,448.0,4469.743589743591,4162.564102564103,4317.435897435898,4812.307692307693,3792.820512820513,4207.179487179487,4252.820512820514,4076.410256410257,4363.589743589744,4082.564102564103,4273.333333333334,4311.794871794872,4403.076923076924,4384.102564102564,1682.0,1685.0,957.445,918.3516845703125,0.0,0.0,0.0,0.0
955724,77.0,0.0,237.0,4464.102564102564,4157.948717948719,4309.743589743591,4804.615384615386,3788.717948717949,4199.48717948718,4251.282051282052,4086.666666666667,4369.743589743591,4077.435897435898,4265.641025641026,4309.2307692307695,4400.000000000001,4376.923076923077,1681.0,1684.0,957.453,918.3516845703125,0.0,0.0,0.0,0.0
955724,78.0,0.0,487.0,4469.2307692307695,4165.641025641026,4312.307692307693,4803.076923076924,3789.2307692307695,4192.820512820514,4252.820512820514,4096.923076923077,4386.153846153847,4083.589743589744,4267.179487179487,4312.307692307693,4405.641025641026,4376.923076923077,1681.0,1685.0,957.46,918.3516845703125,0.0,0.0,0.0,0.0
955724,79.0,0.0,438.0,4466.153846153847,4161.538461538462,4309.743589743591,4796.923076923077,3788.205128205129,4197.435897435898,4253.333333333334,4086.666666666667,4381.025641025642,4081.0256410256416,4265.128205128206,4311.794871794872,4403.076923076924,4373.846153846154,1682.0,1684.0,957.469,918.3516845703125,0.0,0.0,0.0,0.0
955724,80.0,0.0,448.0,4460.000000000001,4153.333333333334,4305.128205128206,4796.923076923077,3785.6410256410263,4194.871794871796,4252.307692307693,4075.8974358974365,4367.6923076923085,4072.820512820513,4260.512820512821,4308.717948717949,4400.000000000001,4367.6923076923085,1682.0,1685.0,957.476,918.3516845703125,0.0,0.0,0.0,0.0
955725,81.0,0.0,237.0,4465.641025641026,4156.410256410257,4310.256410256411,4805.641025641026,3789.2307692307695,4192.820512820514,4250.256410256411,4076.410256410257,4364.615384615385,4072.820512820513,4255.8974358974365,4308.205128205129,4397.948717948719,4365.641025641026,1682.0,1684.0,957.485,918.3516845703125,0.0,0.0,0.0,0.0
955843,82.0,0.0,487.0,4466.666666666667,4163.076923076924,4313.846153846154,4805.641025641026,3794.8717948717954,4205.128205128206,4254.358974358975,4076.9230769230776,4361.025641025642,4071.7948717948725,4248.205128205129,4308.205128205129,4386.666666666667,4367.6923076923085,1682.0,1685.0,957.491,918.476806640625,0.0,0.0,0.0,0.0
955843,83.0,0.0,438.0,4463.589743589744,4162.051282051282,4312.307692307693,4798.974358974359,3796.9230769230776,4214.871794871796,4263.589743589744,4082.0512820512827,4361.538461538462,4070.7692307692314,4247.6923076923085,4308.717948717949,4378.974358974359,4373.846153846154,1683.0,1684.0,957.499,918.476806640625,0.0,0.0,0.0,0.0
955843,84.0,0.0,448.0,4475.384615384616,4161.538461538462,4315.384615384616,4804.615384615386,3797.9487179487182,4214.871794871796,4268.205128205129,4097.435897435898,4378.461538461539,4080.5128205128212,4262.051282051282,4312.820512820514,4394.358974358975,4380.000000000001,1681.0,1684.0,957.507,918.476806640625,0.0,0.0,0.0,0.0
955844,85.0,0.0,237.0,4481.538461538462,4165.641025641026,4322.051282051282,4813.846153846154,3800.0000000000005,4216.410256410257,4264.102564102564,4096.410256410257,4381.025641025642,4086.666666666667,4271.794871794872,4312.820512820514,4408.205128205129,4383.589743589744,1683.0,1684.0,957.515,918.476806640625,0.0,0.0,0.0,0.0
955844,86.0,0.0,487.0,4469.2307692307695,4169.2307692307695,4318.974358974359,4812.820512820514,3795.8974358974365,4215.384615384616,4255.384615384616,4071.7948717948725,4363.076923076924,4080.5128205128212,4264.615384615385,4307.179487179487,4400.512820512821,4380.512820512821,1681.0,1684.0,957.524,918.476806640625,0.0,0.0,0.0,0.0
955844,87.0,0.0,438.0,4469.743589743591,4167.6923076923085,4314.871794871796,4808.205128205129,3791.2820512820517,4205.641025641026,4252.820512820514,4068.717948717949,4361.538461538462,4078.461538461539,4261.025641025642,4307.6923076923085,4398.461538461539,4379.48717948718,1682.0,1685.0,957.531,918.476806640625,0.0,0.0,0.0,0.0
955844,88.0,0.0,448.0,4483.076923076924,4166.153846153847,4320.512820512821,4808.717948717949,3792.820512820513,4199.48717948718,4255.8974358974365,4089.23076923077,4374.358974358975,4085.1282051282055,4271.282051282052,4313.846153846154,4413.846153846154,4388.205128205129,1681.0,1684.0,957.538,918.476806640625,0.0,0.0,0.0,0.0
955845,89.0,0.0,237.0,4483.076923076924,4169.2307692307695,4322.564102564103,4810.769230769231,3794.358974358975,4200.512820512821,4254.871794871796,4092.820512820513,4377.435897435898,4085.6410256410263,4278.974358974359,4314.358974358975,4421.538461538462,4395.384615384616,1681.0,1685.0,957.546,918.476806640625,0.0,0.0,0.0,0.0
955845,90.0,0.0,487.0,4475.384615384616,4168.717948717949,4316.923076923077,4809.743589743591,3791.7948717948725,4202.051282051282,4252.820512820514,4085.6410256410263,4380.512820512821,4082.564102564103,4276.923076923077,4309.743589743591,4416.410256410257,4391.282051282052,1682.0,1685.0,957.555,918.476806640625,0.0,0.0,0.0,0.0
955845,91.0,0.0,438.0,4469.2307692307695,4163.589743589744,4308.205128205129,4806.666666666667,3788.717948717949,4198.974358974359,4252.307692307693,4089.23076923077,4386.153846153847,4079.48717948718,4268.205128205129,4307.6923076923085,4411.794871794872,4383.589743589744,1682.0,1685.0,957.562,918.476806640625,0.0,0.0,0.0,0.0
955845,92.0,0.0,448.0,4462.564102564103,4155.384615384616,4305.128205128206,4801.025641025642,3787.1794871794878,4196.410256410257,4250.256410256411,4084.1025641025644,4373.846153846154,4074.8717948717954,4259.48717948718,4308.205128205129,4405.641025641026,4380.000000000001,1682.0,1684.0,957.571,918.476806640625,0.0,0.0,0.0,0.0
955846,93.0,0.0,237.0,4463.076923076924,4154.358974358975,4307.6923076923085,4798.974358974359,3786.666666666667,4200.000000000001,4249.2307692307695,4073.333333333334,4361.538461538462,4071.7948717948725,4257.948717948719,4307.6923076923085,4400.000000000001,4380.000000000001,1681.0,1684.0,957.578,918.476806640625,0.0,0.0,0.0,0.0
955846,94.0,0.0,487.0,4466.666666666667,4157.948717948719,4308.717948717949,4803.076923076924,3785.6410256410263,4204.615384615385,4253.333333333334,4078.461538461539,4364.615384615385,4074.358974358975,4256.410256410257,4305.128205128206,4397.435897435898,4377.948717948719,1682.0,1682.0,957.586,918.476806640625,0.0,0.0,0.0,0.0
955846,95.0,0.0,438.0,4462.564102564103,4156.410256410257,4306.153846153847,4800.512820512821,3785.1282051282055,4206.153846153847,4253.846153846154,4080.5128205128212,4364.102564102564,4076.410256410257,4250.769230769231,4305.128205128206,4395.384615384616,4374.871794871796,1681.0,1684.0,957.594,918.476806640625,0.0,0.0,0.0,0.0
955846,96.0,0.0,448.0,4467.179487179487,4160.000000000001,4308.717948717949,4798.461538461539,3786.666666666667,4206.666666666667,4255.8974358974365,4081.0256410256416,4366.666666666667,4076.9230769230776,4257.948717948719,4308.205128205129,4400.000000000001,4380.000000000001,1683.0,1684.0,957.602,918.476806640625,0.0,0.0,0.0,0.0
955847,97.0,0.0,237.0,4480.000000000001,4167.6923076923085,4318.974358974359,4806.153846153847,3789.7435897435903,4206.153846153847,4260.512820512821,4091.2820512820517,4380.512820512821,4081.0256410256416,4269.74358974359,4309.743589743591,4409.2307692307695,4390.769230769231,1681.0,1684.0,957.609,918.476806640625,0.0,0.0,0.0,0.0
955977,98.0,0.0,487.0,4477.435897435898,4168.205128205129,4317.948717948719,4807.6923076923085,3788.717948717949,4203.589743589744,4255.384615384616,4085.6410256410263,4381.538461538462,4077.435897435898,4265.641025641026,4308.717948717949,4408.717948717949,4389.2307692307695,1683.0,1685.0,957.617,918.6019287109375,0.0,0.0,0.0,0.0
955977,99.0,0.0,438.0,4470.256410256411,4164.615384615385,4306.153846153847,4802.564102564103,3785.6410256410263,4200.512820512821,4247.6923076923085,4067.692307692308,4368.205128205129,4072.307692307693,4258.974358974359,4305.128205128206,4402.564102564103,4380.000000000001,1683.0,1684.0,957.625,918.6019287109375,0.0,0.0,0.0,0.0
955978,100.0,0.0,448.0,4474.871794871796,4160.000000000001,4306.666666666667,4804.615384615386,3785.6410256410263,4206.153846153847,4252.820512820514,4070.2564102564106,4369.2307692307695,4077.9487179487187,4261.025641025642,4302.051282051282,4405.641025641026,4382.051282051282,1683.0,1686.0,957.632,918.6019287109375,0.0,0.0,0.0,0.0
955978,101.0,0.0,237.0,4470.769230769231,4154.358974358975,4310.256410256411,4803.589743589744,3786.666666666667,4209.2307692307695,4257.435897435898,4083.589743589744,4374.871794871796,4077.435897435898,4253.333333333334,4302.051282051282,4403.076923076924,4382.564102564103,1684.0,1685.0,957.64,918.6019287109375,0.0,0.0,0.0,0.0
955978,102.0,0.0,487.0,4460.512820512821,4153.333333333334,4303.589743589744,4794.871794871796,3783.589743589744,4200.000000000001,4252.820512820514,4086.666666666667,4368.205128205129,4068.717948717949,4243.076923076924,4305.128205128206,4395.384615384616,4375.384615384616,1683.0,1687.0,957.648,918.6019287109375,0.0,0.0,0.0,0.0
955978,103.0,0.0,438.0,4465.128205128206,4154.358974358975,4300.512820512821,4795.8974358974365,3783.076923076924,4196.410256410257,4252.307692307693,4084.615384615385,4368.205128205129,4069.7435897435903,4244.615384615385,4308.205128205129,4398.461538461539,4375.384615384616,1683.0,1687.0,957.656,918.6019287109375,0.0,0.0,0.0,0.0
955978,104.0,0.0,448.0,4469.2307692307695,4156.410256410257,4308.717948717949,4799.48717948718,3787.1794871794878,4209.74358974359,4254.871794871796,4078.9743589743593,4370.256410256411,4075.3846153846157,4250.769230769231,4306.666666666667,4406.153846153847,4377.435897435898,1683.0,1687.0,957.663,918.6019287109375,0.0,0.0,0.0,0.0
955979,105.0,0.0,237.0,4463.076923076924,4157.948717948719,4313.333333333334,4798.461538461539,3787.692307692308,4216.410256410257,4255.384615384616,4073.333333333334,4363.589743589744,4072.820512820513,4255.8974358974365,4306.666666666667,4406.153846153847,4373.333333333334,1683.0,1686.0,957.672,918.6019287109375,0.0,0.0,0.0,0.0
955979,106.0,0.0,487.0,4463.076923076924,4155.8974358974365,4310.256410256411,4797.948717948719,3785.6410256410263,4208.205128205129,4254.358974358975,4084.615384615385,4370.256410256411,4070.7692307692314,4257.948717948719,4311.282051282052,4403.589743589744,4371.794871794872,1683.0,1686.0,957.68,918.6019287109375,0.0,0.0,0.0,0.0
955979,107.0,0.0,438.0,4468.205128205129,4155.384615384616,4311.282051282052,4797.435897435898,3786.1538461538466,4205.128205128206,4255.8974358974365,4102.051282051282,4388.205128205129,4076.410256410257,4260.000000000001,4313.333333333334,4408.205128205129,4378.461538461539,1684.0,1686.0,957.688,918.6019287109375,0.0,0.0,0.0,0.0
955980,108.0,0.0,448.0,4467.179487179487,4156.410256410257,4313.846153846154,4798.974358974359,3788.717948717949,4212.307692307693,4260.512820512821,4100.512820512821,4387.6923076923085,4079.48717948718,4261.025641025642,4310.256410256411,4410.256410256411,4381.025641025642,1682.0,1685.0,957.695,918.6019287109375,0.0,0.0,0.0,0.0
955980,109.0,0.0,237.0,4464.615384615385,4155.8974358974365,4314.358974358975,4797.948717948719,3788.205128205129,4213.846153846154,4260.512820512821,4086.666666666667,4375.384615384616,4077.435897435898,4255.8974358974365,4308.717948717949,4405.641025641026,4375.384615384616,1683.0,1685.0,957.703,918.6019287109375,0.0,0.0,0.0,0.0
955980,110.0,0.0,487.0,4465.128205128206,4155.8974358974365,4312.820512820514,4795.8974358974365,3786.666666666667,4206.153846153847,4255.8974358974365,4087.692307692308,4375.8974358974365,4077.9487179487187,4251.794871794872,4309.2307692307695,4403.076923076924,4370.769230769231,1683.0,1683.0,957.71,918.6019287109375,0.0,0.0,0.0,0.0
955981,111.0,0.0,438.0,4467.6923076923085,4156.923076923077,4313.333333333334,4796.923076923077,3787.1794871794878,4201.025641025642,4253.846153846154,4095.3846153846157,4377.948717948719,4077.9487179487187,4251.794871794872,4309.2307692307695,4404.615384615385,4369.2307692307695,1682.0,1683.0,957.718,918.6019287109375,0.0,0.0,0.0,0.0
955981,112.0,0.0,448.0,4464.615384615385,4154.871794871796,4312.820512820514,4795.8974358974365,3786.666666666667,4199.48717948718,4248.717948717949,4082.0512820512827,4372.307692307693,4071.2820512820517,4246.666666666667,4309.2307692307695,4398.461538461539,4366.153846153847,1683.0,1683.0,957.726,918.6019287109375,0.0,0.0,0.0,0.0
955981,113.0,0.0,237.0,4457.435897435898,4152.820512820514,4310.769230769231,4792.820512820514,3784.1025641025644,4196.923076923077,4243.589743589744,4075.8974358974365,4369.743589743591,4066.666666666667,4239.48717948718,4311.794871794872,4388.717948717949,4360.512820512821,1682.0,1682.0,957.735,918.6019287109375,0.0,0.0,0.0,0.0
956477,114.0,0.0,487.0,4458.974358974359,4153.846153846154,4314.358974358975,4795.384615384616,3784.615384615385,4198.461538461539,4248.717948717949,4088.717948717949,4371.794871794872,4073.333333333334,4247.6923076923085,4313.333333333334,4395.384615384616,4364.102564102564,1683.0,1682.0,957.742,918.72705078125,0.0,0.0,0.0,0.0
956477,115.0,0.0,438.0,4466.666666666667,4156.923076923077,4319.48717948718,4796.923076923077,3790.2564102564106,4207.179487179487,4254.871794871796,4088.205128205129,4371.794871794872,4078.461538461539,4258.974358974359,4313.333333333334,4409.2307692307695,4374.358974358975,1682.0,1683.0,957.749,918.72705078125,0.0,0.0,0.0,0.0
956477,116.0,0.0,448.0,4467.179487179487,4157.948717948719,4318.974358974359,4797.948717948719,3790.2564102564106,4206.153846153847,4252.820512820514,4082.0512820512827,4376.923076923077,4077.9487179487187,4258.461538461539,4313.333333333334,4409.743589743591,4375.8974358974365,1683.0,1683.0,957.757,918.72705078125,0.0,0.0,0.0,0.0
956478,117.0,0.0,237.0,4469.2307692307695,4158.974358974359,4316.410256410257,4805.128205128206,3786.666666666667,4196.410256410257,4249.74358974359,4088.717948717949,4385.128205128206,4078.9743589743593,4257.435897435898,4313.333333333334,4405.641025641026,4373.333333333334,1683.0,1683.0,957.765,918.72705078125,0.0,0.0,0.0,0.0
956478,118.0,0.0,487.0,4479.48717948718,4165.128205128206,4320.512820512821,4807.179487179488,3785.6410256410263,4197.948717948719,4248.205128205129,4093.333333333334,4385.128205128206,4082.564102564103,4264.102564102564,4313.846153846154,4413.846153846154,4380.512820512821,1684.0,1683.0,957.773,918.72705078125,0.0,0.0,0.0,0.0
956478,119.0,0.0,438.0,4487.6923076923085,4169.74358974359,4334.871794871796,4808.205128205129,3785.1282051282055,4202.564102564103,4246.666666666667,4087.1794871794878,4383.589743589744,4087.692307692308,4272.820512820514,4316.923076923077,4429.743589743591,4392.820512820514,1683.0,1683.0,957.781,918.72705078125,0.0,0.0,0.0,0.0
956478,120.0,0.0,448.0,4486.666666666667,4171.282051282052,4342.564102564103,4813.846153846154,3785.6410256410263,4198.461538461539,4250.769230769231,4095.3846153846157,4392.307692307693,4090.7692307692314,4277.948717948719,4320.000000000001,4436.410256410257,4398.974358974359,1684.0,1683.0,957.789,918.72705078125,0.0,0.0,0.0,0.0
956478,121.0,0.0,237.0,4477.948717948719,4169.2307692307695,4334.871794871796,4810.769230769231,3787.692307692308,4201.025641025642,4258.461538461539,4112.820512820514,4401.025641025642,4089.7435897435903,4276.923076923077,4316.410256410257,4428.205128205129,4393.846153846154,1684.0,1682.0,957.796,918.72705078125,0.0,0.0,0.0,0.0
956478,122.0,0.0,487.0,4470.256410256411,4160.512820512821,4322.051282051282,4803.589743589744,3788.205128205129,4204.102564102564,4254.871794871796,4106.666666666667,4392.820512820514,4084.615384615385,4267.179487179487,4309.743589743591,4415.384615384616,4382.051282051282,1683.0,1684.0,957.804,918.72705078125,0.0,0.0,0.0,0.0
956478,123.0,0.0,438.0,4464.615384615385,4156.410256410257,4314.871794871796,4802.051282051282,3784.1025641025644,4200.000000000001,4247.179487179487,4091.2820512820517,4382.564102564103,4078.9743589743593,4257.435897435898,4305.641025641026,4410.256410256411,4371.794871794872,1684.0,1683.0,957.812,918.72705078125,0.0,0.0,0.0,0.0
956478,124.0,0.0,448.0,4467.179487179487,4164.615384615385,4317.435897435898,4804.102564102564,3785.6410256410263,4201.025641025642,4250.256410256411,4093.333333333334,4385.641025641026,4081.0256410256416,4255.8974358974365,4304.102564102564,4412.307692307693,4370.256410256411,1682.0,1683.0,957.821,918.72705078125,0.0,0.0,0.0,0.0
956479,125.0,0.0,237.0,4475.8974358974365,4170.256410256411,4327.179487179487,4808.205128205129,3789.7435897435903,4205.128205128206,4256.410256410257,4095.3846153846157,4389.743589743591,4084.615384615385,4257.948717948719,4307.6923076923085,4414.358974358975,4374.358974358975,1683.0,1684.0,957.828,918.72705078125,0.0,0.0,0.0,0.0
956479,126.0,0.0,487.0,4478.461538461539,4168.205128205129,4328.717948717949,4811.794871794872,3785.6410256410263,4202.051282051282,4253.846153846154,4082.0512820512827,4382.051282051282,4083.076923076924,4259.48717948718,4312.820512820514,4415.384615384616,4375.384615384616,1682.0,1684.0,957.836,918.72705078125,0.0,0.0,0.0,0.0
956479,127.0,0.0,438.0,4471.794871794872,4168.205128205129,4320.000000000001,4811.282051282052,3787.692307692308,4201.538461538462,4250.769230769231,4075.8974358974365,4375.384615384616,4080.5128205128212,4257.948717948719,4309.743589743591,4411.794871794872,4371.282051282052,1683.0,1685.0,957.843,918.72705078125,0.0,0.0,0.0,0.0
956479,128.0,0.0,448.0,4465.641025641026,4167.179487179487,4312.307692307693,4805.641025641026,3793.8461538461543,4212.820512820514,4252.307692307693,4075.8974358974365,4374.871794871796,4078.461538461539,4249.2307692307695,4305.128205128206,4404.615384615385,4364.102564102564,1682.0,1684.0,957.852,918.72705078125,0.0,0.0,0.0,0.0
956479,0.0,0.0,474.0,4469.743589743591,4165.641025641026,4314.358974358975,4805.641025641026,3792.307692307693,4219.48717948718,4251.794871794872,4073.333333333334,4377.948717948719,4077.9487179487187,4247.6923076923085,4310.256410256411,4407.179487179487,4364.615384615385,1683.0,1685.0,957.859,918.72705078125,0.0,0.0,0.0,0.0
956481,1.0,0.0,279.0,4480.512820512821,4169.2307692307695,4328.205128205129,4813.846153846154,3792.820512820513,4210.256410256411,4254.871794871796,4090.2564102564106,4391.282051282052,4087.1794871794878,4265.128205128206,4314.871794871796,4422.564102564103,4377.948717948719,1683.0,1684.0,957.867,918.72705078125,0.0,0.0,0.0,0.0
956481,2.0,0.0,447.0,4489.2307692307695,4172.820512820514,4343.589743589744,4819.48717948718,3798.461538461539,4201.025641025642,4265.641025641026,4111.282051282052,4405.641025641026,4100.000000000001,4278.461538461539,4316.923076923077,4437.948717948719,4392.820512820514,1682.0,1685.0,957.875,918.72705078125,0.0,0.0,0.0,0.0
956481,3.0,0.0,353.0,4486.153846153847,4171.794871794872,4343.589743589744,4820.000000000001,3797.9487179487182,4208.717948717949,4272.307692307693,4115.384615384616,4407.6923076923085,4100.000000000001,4276.410256410257,4317.948717948719,4437.435897435898,4395.8974358974365,1681.0,1685.0,957.882,918.72705078125,0.0,0.0,0.0,0.0
956481,4.0,0.0,456.0,4481.538461538462,4169.74358974359,4335.8974358974365,4820.512820512821,3796.410256410257,4218.974358974359,4270.769230769231,4115.8974358974365,4403.589743589744,4093.8461538461543,4271.794871794872,4315.8974358974365,4430.769230769231,4395.384615384616,1681.0,1684.0,957.89,918.72705078125,0.0,0.0,0.0,0.0
956482,5.0,0.0,548.0,4486.153846153847,4173.333333333334,4335.8974358974365,4820.512820512821,3801.538461538462,4220.000000000001,4271.282051282052,4115.384615384616,4401.538461538462,4093.333333333334,4274.358974358975,4314.871794871796,4430.256410256411,4396.410256410257,1681.0,1684.0,957.898,918.72705078125,0.0,0.0,0.0,0.0
956482,6.0,0.0,533.0,4489.743589743591,4174.871794871796,4337.948717948719,4820.000000000001,3802.564102564103,4220.512820512821,4270.256410256411,4102.564102564103,4391.794871794872,4092.820512820513,4275.8974358974365,4313.333333333334,4429.743589743591,4391.794871794872,1681.0,1684.0,957.906,918.72705078125,0.0,0.0,0.0,0.0
956482,7.0,0.0,477.0,4484.615384615385,4170.256410256411,4333.846153846154,4820.512820512821,3801.538461538462,4226.666666666667,4261.538461538462,4078.461538461539,4374.358974358975,4085.1282051282055,4266.153846153847,4310.769230769231,4416.410256410257,4384.102564102564,1681.0,1684.0,957.914,918.72705078125,0.0,0.0,0.0,0.0
956482,8.0,0.0,420.0,4480.512820512821,4167.6923076923085,4331.282051282052,4817.435897435898,3801.538461538462,4225.128205128206,4255.8974358974365,4073.333333333334,4369.743589743591,4080.0000000000005,4257.435897435898,4309.743589743591,4410.256410256411,4383.076923076924,1681.0,1684.0,957.922,918.72705078125,0.0,0.0,0.0,0.0
956482,9.0,0.0,469.0,4485.641025641026,4171.282051282052,4335.384615384616,4818.461538461539,3799.48717948718,4212.307692307693,4259.48717948718,4095.3846153846157,4385.128205128206,4090.2564102564106,4266.153846153847,4313.333333333334,4426.666666666667,4390.256410256411,1681.0,1684.0,957.929,918.72705078125,0.0,0.0,0.0,0.0
956483,10.0,0.0,487.0,4490.256410256411,4174.358974358975,4341.025641025642,4822.051282051282,3798.9743589743593,4202.564102564103,4264.102564102564,4111.282051282052,4402.051282051282,4095.8974358974365,4281.025641025642,4316.410256410257,4439.48717948718,4398.974358974359,1682.0,1685.0,957.937,918.72705078125,0.0,0.0,0.0,0.0
956483,11.0,0.0,438.0,4484.102564102564,4171.794871794872,4333.846153846154,4814.871794871796,3800.0000000000005,4208.717948717949,4263.076923076924,4102.564102564103,4396.410256410257,4090.2564102564106,4276.923076923077,4314.871794871796,4430.769230769231,4396.923076923077,1682.0,1684.0,957.945,918.72705078125,0.0,0.0,0.0,0.0
956483,12.0,0.0,448.0,4477.948717948719,4167.6923076923085,4325.128205128206,4809.743589743591,3799.48717948718,4224.102564102564,4261.025641025642,4094.8717948717954,4384.615384615385,4089.23076923077,4263.076923076924,4311.282051282052,4419.48717948718,4387.6923076923085,1681.0,1685.0,957.954,918.72705078125,0.0,0.0,0.0,0.0
956483,13.0,0.0,237.0,4482.051282051282,4169.2307692307695,4331.794871794872,4814.358974358975,3795.3846153846157,4227.179487179487,4259.48717948718,4106.153846153847,4392.307692307693,4093.333333333334,4265.128205128206,4313.333333333334,4425.128205128206,4389.2307692307695,1683.0,1685.0,957.961,918.72705078125,0.0,0.0,0.0,0.0
956483,14.0,0.0,487.0,4488.205128205129,4173.333333333334,4343.589743589744,4817.948717948719,3790.7692307692314,4210.256410256411,4256.923076923077,4110.769230769231,4401.538461538462,4094.8717948717954,4276.410256410257,4316.923076923077,4434.871794871796,4401.025641025642,1682.0,1685.0,957.969,918.72705078125,0.0,0.0,0.0,0.0
956483,15.0,0.0,438.0,4486.666666666667,4173.333333333334,4340.512820512821,4817.948717948719,3788.205128205129,4198.974358974359,4253.846153846154,4096.410256410257,4389.743589743591,4093.333333333334,4275.8974358974365,4312.307692307693,4434.358974358975,4400.512820512821,1682.0,1685.0,957.976,918.72705078125,0.0,0.0,0.0,0.0
956483,16.0,0.0,0.0,4483.589743589744,4170.256410256411,4334.358974358975,4815.8974358974365,3786.666666666667,4208.717948717949,4251.794871794872,4078.9743589743593,4373.846153846154,4089.23076923077,4266.666666666667,4307.6923076923085,4430.256410256411,4391.794871794872,1682.0,1684.0,957.985,918.72705078125,0.0,0.0,0.0,0.0
956484,17.0,0.0,0.0,4480.512820512821,4170.256410256411,4332.820512820514,4813.333333333334,3785.6410256410263,4216.923076923077,4247.179487179487,4075.8974358974365,4375.384615384616,4085.6410256410263,4262.564102564103,4308.717948717949,4427.6923076923085,4388.717948717949,1682.0,1685.0,957.993,918.72705078125,0.0,0.0,0.0,0.0
956484,18.0,0.0,0.0,4474.358974358975,4169.2307692307695,4326.153846153847,4813.846153846154,3785.6410256410263,4208.717948717949,4241.025641025642,4080.5128205128212,4381.025641025642,4084.1025641025644,4257.435897435898,4307.6923076923085,4418.974358974359,4385.128205128206,1682.0,1684.0,958.001,918.72705078125,0.0,0.0,0.0,0.0
956484,19.0,0.0,0.0,4480.512820512821,4168.717948717949,4330.769230769231,4818.461538461539,3785.6410256410263,4198.974358974359,4244.102564102564,4082.0512820512827,4382.564102564103,4084.1025641025644,4258.974358974359,4311.282051282052,4421.025641025642,4388.717948717949,1683.0,1684.0,958.009,918.72705078125,0.0,0.0,0.0,0.0
956484,20.0,0.0,0.0,4492.307692307693,4172.307692307693,4347.6923076923085,4820.512820512821,3785.6410256410263,4197.948717948719,4248.717948717949,4083.076923076924,4387.179487179487,4087.1794871794878,4271.282051282052,4317.948717948719,4438.461538461539,4403.589743589744,1682.0,1684.0,958.015,918.72705078125,0.0,0.0,0.0,0.0
956484,21.0,0.0,0.0,4488.205128205129,4173.846153846154,4349.2307692307695,4817.435897435898,3785.6410256410263,4197.948717948719,4245.641025641026,4084.615384615385,4391.794871794872,4091.2820512820517,4271.282051282052,4315.8974358974365,4438.974358974359,4406.666666666667,1682.0,1684.0,958.023,918.72705078125,0.0,0.0,0.0,0.0
956484,22.0,0.0,0.0,4474.871794871796,4167.6923076923085,4334.358974358975,4810.769230769231,3783.589743589744,4197.435897435898,4243.589743589744,4085.6410256410263,4389.2307692307695,4086.1538461538466,4258.461538461539,4309.2307692307695,4421.538461538462,4390.256410256411,1683.0,1683.0,958.031,918.72705078125,0.0,0.0,0.0,0.0
956484,23.0,0.0,0.0,4466.666666666667,4164.615384615385,4321.025641025642,4805.641025641026,3783.076923076924,4202.051282051282,4242.051282051282,4075.3846153846157,4375.8974358974365,4075.3846153846157,4247.6923076923085,4304.102564102564,4410.256410256411,4374.871794871796,1682.0,1684.0,958.039,918.72705078125,0.0,0.0,0.0,0.0
956484,24.0,0.0,0.0,4469.743589743591,4168.205128205129,4319.48717948718,4806.666666666667,3784.1025641025644,4204.615384615385,4240.000000000001,4069.7435897435903,4373.846153846154,4072.820512820513,4248.205128205129,4304.615384615385,4411.282051282052,4376.410256410257,1683.0,1684.0,958.047,918.72705078125,0.0,0.0,0.0,0.0
956485,25.0,0.0,0.0,4481.538461538462,4170.256410256411,4330.769230769231,4811.794871794872,3784.615384615385,4198.974358974359,4246.666666666667,4088.205128205129,4390.769230769231,4083.076923076924,4256.410256410257,4310.256410256411,4421.538461538462,4387.179487179487,1681.0,1684.0,958.054,918.72705078125,0.0,0.0,0.0,0.0
956485,26.0,0.0,0.0,4484.615384615385,4168.717948717949,4334.871794871796,4813.846153846154,3785.6410256410263,4200.512820512821,4253.846153846154,4094.358974358975,4393.846153846154,4087.692307692308,4260.000000000001,4312.307692307693,4428.205128205129,4389.2307692307695,1683.0,1685.0,958.062,918.72705078125,0.0,0.0,0.0,0.0
956485,27.0,0.0,0.0,4472.307692307693,4167.6923076923085,4323.076923076924,4809.2307692307695,3786.666666666667,4209.74358974359,4251.794871794872,4075.8974358974365,4382.051282051282,4081.0256410256416,4256.410256410257,4309.743589743591,4420.000000000001,4381.025641025642,1682.0,1684.0,958.07,918.72705078125,0.0,0.0,0.0,0.0
956485,28.0,0.0,0.0,4467.179487179487,4166.666666666667,4318.461538461539,4806.666666666667,3787.692307692308,4207.6923076923085,4251.794871794872,4071.2820512820517,4381.538461538462,4078.461538461539,4253.846153846154,4307.6923076923085,4412.307692307693,4377.948717948719,1682.0,1685.0,958.079,918.72705078125,0.0,0.0,0.0,0.0
956485,29.0,0.0,0.0,4470.769230769231,4166.153846153847,4322.564102564103,4806.153846153847,3788.205128205129,4205.128205128206,4252.307692307693,4080.0000000000005,4382.564102564103,4078.9743589743593,4251.282051282052,4304.615384615385,4411.282051282052,4378.974358974359,1682.0,1684.0,958.087,918.72705078125,0.0,0.0,0.0,0.0
956485,30.0,0.0,0.0,4471.794871794872,4167.179487179487,4326.153846153847,4804.102564102564,3788.717948717949,4207.179487179487,4250.256410256411,4083.589743589744,4377.948717948719,4081.0256410256416,4251.282051282052,4307.179487179487,4410.769230769231,4380.000000000001,1682.0,1685.0,958.094,918.72705078125,0.0,0.0,0.0,0.0
956486,31.0,0.0,0.0,4472.820512820514,4169.74358974359,4329.743589743591,4808.205128205129,3786.666666666667,4204.615384615385,4250.769230769231,4091.7948717948725,4386.153846153847,4085.6410256410263,4260.512820512821,4314.358974358975,4415.8974358974365,4386.666666666667,1681.0,1684.0,958.101,918.72705078125,0.0,0.0,0.0,0.0
956486,32.0,0.0,0.0,4470.256410256411,4167.6923076923085,4325.641025641026,4808.717948717949,3783.589743589744,4205.128205128206,4248.717948717949,4092.820512820513,4389.2307692307695,4081.0256410256416,4263.589743589744,4312.307692307693,4415.8974358974365,4384.615384615385,1681.0,1685.0,958.109,918.72705078125,0.0,0.0,0.0,0.0
956486,33.0,0.0,0.0,4462.051282051282,4164.102564102564,4314.358974358975,4802.051282051282,3783.589743589744,4210.256410256411,4244.615384615385,4079.48717948718,4379.48717948718,4073.333333333334,4253.333333333334,4302.564102564103,4407.6923076923085,4371.282051282052,1682.0,1684.0,958.118,918.72705078125,0.0,0.0,0.0,0.0
956486,34.0,0.0,0.0,4463.589743589744,4167.6923076923085,4316.923076923077,4802.564102564103,3785.6410256410263,4206.153846153847,4249.2307692307695,4079.48717948718,4383.589743589744,4080.5128205128212,4252.307692307693,4304.102564102564,4410.256410256411,4372.820512820514,1681.0,1685.0,958.125,918.72705078125,0.0,0.0,0.0,0.0
956486,35.0,0.0,0.0,4473.333333333334,4171.794871794872,4328.205128205129,4808.205128205129,3786.666666666667,4198.461538461539,4251.282051282052,4087.692307692308,4391.282051282052,4087.1794871794878,4262.051282051282,4313.846153846154,4421.025641025642,4387.6923076923085,1682.0,1684.0,958.133,918.72705078125,0.0,0.0,0.0,0.0
956486,36.0,0.0,0.0,4477.435897435898,4168.205128205129,4327.6923076923085,4808.205128205129,3786.1538461538466,4197.948717948719,4244.615384615385,4083.589743589744,4382.564102564103,4082.0512820512827,4260.000000000001,4314.358974358975,4421.538461538462,4390.769230769231,1682.0,1684.0,958.14,918.72705078125,0.0,0.0,0.0,0.0
956486,37.0,0.0,0.0,4476.923076923077,4168.205128205129,4327.179487179487,4807.6923076923085,3785.1282051282055,4205.128205128206,4248.205128205129,4076.9230769230776,4372.307692307693,4077.435897435898,4253.333333333334,4309.743589743591,4414.871794871796,4384.102564102564,1682.0,1685.0,958.148,918.72705078125,0.0,0.0,0.0,0.0
956486,38.0,0.0,0.0,4473.846153846154,4166.153846153847,4329.2307692307695,4806.666666666667,3786.666666666667,4211.282051282052,4255.8974358974365,4080.0000000000005,4375.8974358974365,4077.9487179487187,4251.794871794872,4309.2307692307695,4406.153846153847,4381.538461538462,1682.0,1684.0,958.156,918.72705078125,0.0,0.0,0.0,0.0
956487,39.0,0.0,0.0,4472.307692307693,4159.48717948718,4329.743589743591,4800.000000000001,3786.666666666667,4203.076923076924,4253.846153846154,4087.1794871794878,4381.538461538462,4079.48717948718,4256.410256410257,4311.794871794872,4403.589743589744,4382.564102564103,1682.0,1685.0,958.165,918.72705078125,0.0,0.0,0.0,0.0
956487,40.0,0.0,0.0,4470.769230769231,4157.948717948719,4330.256410256411,4797.948717948719,3784.1025641025644,4196.923076923077,4251.282051282052,4082.0512820512827,4373.846153846154,4077.9487179487187,4256.923076923077,4309.743589743591,4405.641025641026,4381.025641025642,1683.0,1684.0,958.173,918.72705078125,0.0,0.0,0.0,0.0
956487,41.0,0.0,0.0,4469.743589743591,4157.948717948719,4326.153846153847,4798.461538461539,3784.615384615385,4206.666666666667,4252.820512820514,4066.666666666667,4362.564102564103,4072.820512820513,4248.205128205129,4308.205128205129,4400.000000000001,4377.948717948719,1682.0,1685.0,958.18,918.72705078125,0.0,0.0,0.0,0.0
956487,42.0,0.0,0.0,4475.8974358974365,4161.538461538462,4326.666666666667,4799.48717948718,3788.205128205129,4209.2307692307695,4251.282051282052,4074.358974358975,4370.769230769231,4074.8717948717954,4248.717948717949,4311.794871794872,4400.000000000001,4380.000000000001,1682.0,1685.0,958.187,918.72705078125,0.0,0.0,0.0,0.0
956487,43.0,0.0,0.0,4478.461538461539,4167.6923076923085,4334.871794871796,4804.102564102564,3786.1538461538466,4194.871794871796,4245.128205128206,4091.7948717948725,4382.564102564103,4083.076923076924,4263.589743589744,4312.820512820514,4411.794871794872,4386.153846153847,1682.0,1686.0,958.195,918.72705078125,0.0,0.0,0.0,0.0
956488,44.0,0.0,0.0,4474.358974358975,4165.641025641026,4334.871794871796,4801.025641025642,3783.589743589744,4188.205128205129,4244.102564102564,4082.564102564103,4375.8974358974365,4082.564102564103,4269.74358974359,4308.205128205129,4415.8974358974365,4388.205128205129,1683.0,1686.0,958.203,918.72705078125,0.0,0.0,0.0,0.0
956489,45.0,0.0,0.0,4471.282051282052,4163.589743589744,4326.666666666667,4795.384615384616,3784.1025641025644,4197.948717948719,4249.2307692307695,4080.5128205128212,4380.000000000001,4082.564102564103,4261.025641025642,4306.666666666667,4407.179487179487,4385.128205128206,1682.0,1687.0,958.211,918.72705078125,0.0,0.0,0.0,0.0
956490,46.0,0.0,0.0,4471.794871794872,4163.076923076924,4326.153846153847,4799.48717948718,3783.589743589744,4202.564102564103,4254.871794871796,4109.2307692307695,4399.48717948718,4088.717948717949,4254.358974358975,4308.717948717949,4403.589743589744,4382.564102564103,1683.0,1686.0,958.22,918.72705078125,0.0,0.0,0.0,0.0
956491,47.0,0.0,0.0,4474.871794871796,4163.076923076924,4331.794871794872,4803.076923076924,3790.7692307692314,4206.153846153847,4261.025641025642,4120.000000000001,4398.974358974359,4085.6410256410263,4253.846153846154,4310.256410256411,4405.128205128206,4383.076923076924,1682.0,1686.0,958.227,918.72705078125,0.0,0.0,0.0,0.0
956491,48.0,0.0,0.0,4474.871794871796,4163.076923076924,4334.358974358975,4800.000000000001,3797.435897435898,4215.384615384616,4263.076923076924,4093.8461538461543,4381.025641025642,4079.48717948718,4252.820512820514,4310.769230769231,4400.000000000001,4386.153846153847,1683.0,1686.0,958.235,918.72705078125,0.0,0.0,0.0,0.0
956842,49.0,0.0,0.0,4473.333333333334,4162.564102564103,4335.384615384616,4801.538461538462,3794.358974358975,4211.794871794872,4260.512820512821,4084.1025641025644,4380.512820512821,4084.1025641025644,4252.307692307693,4310.256410256411,4400.000000000001,4387.6923076923085,1683.0,1685.0,958.243,919.2274780273438,0.0,0.0,0.0,0.0
956843,50.0,0.0,0.0,4476.410256410257,4161.025641025642,4334.358974358975,4804.615384615386,3794.8717948717954,4203.589743589744,4267.179487179487,4112.820512820514,4401.538461538462,4088.717948717949,4253.846153846154,4312.307692307693,4406.153846153847,4387.6923076923085,1682.0,1686.0,958.25,919.2274780273438,0.0,0.0,0.0,0.0
956843,51.0,0.0,0.0,4479.48717948718,4166.153846153847,4332.307692307693,4801.538461538462,3798.461538461539,4205.128205128206,4270.256410256411,4127.179487179487,4410.769230769231,4086.666666666667,4256.410256410257,4316.410256410257,4408.717948717949,4390.769230769231,1683.0,1685.0,958.259,919.2274780273438,0.0,0.0,0.0,0.0
956843,52.0,0.0,0.0,4476.410256410257,4169.2307692307695,4335.384615384616,4803.589743589744,3795.3846153846157,4208.205128205129,4258.974358974359,4105.128205128206,4401.025641025642,4086.666666666667,4259.48717948718,4316.410256410257,4410.256410256411,4394.871794871796,1682.0,1685.0,958.267,919.2274780273438,0.0,0.0,0.0,0.0
956844,53.0,0.0,0.0,4478.974358974359,4165.641025641026,4342.051282051282,4806.666666666667,3790.2564102564106,4205.641025641026,4254.358974358975,4093.8461538461543,4395.8974358974365,4090.7692307692314,4262.564102564103,4315.8974358974365,4417.435897435898,4397.948717948719,1682.0,1685.0,958.273,919.2274780273438,0.0,0.0,0.0,0.0
956844,54.0,0.0,0.0,4483.076923076924,4166.666666666667,4343.589743589744,4804.102564102564,3789.7435897435903,4204.615384615385,4258.974358974359,4103.589743589744,4396.410256410257,4088.717948717949,4262.051282051282,4315.8974358974365,4418.974358974359,4400.000000000001,1681.0,1685.0,958.282,919.2274780273438,0.0,0.0,0.0,0.0
956844,55.0,0.0,0.0,4475.384615384616,4168.205128205129,4340.512820512821,4803.076923076924,3792.307692307693,4205.128205128206,4251.794871794872,4109.2307692307695,4394.358974358975,4085.1282051282055,4257.435897435898,4311.794871794872,4412.307692307693,4398.974358974359,1682.0,1684.0,958.29,919.2274780273438,0.0,0.0,0.0,0.0
956845,56.0,0.0,0.0,4473.846153846154,4166.153846153847,4337.948717948719,4804.615384615386,3795.3846153846157,4205.128205128206,4241.025641025642,4101.025641025642,4391.282051282052,4085.6410256410263,4256.410256410257,4307.6923076923085,4410.769230769231,4396.923076923077,1682.0,1684.0,958.297,919.2274780273438,0.0,0.0,0.0,0.0
956845,57.0,0.0,0.0,4480.000000000001,4165.641025641026,4336.923076923077,4805.128205128206,3793.8461538461543,4205.641025641026,4244.102564102564,4081.538461538462,4382.564102564103,4087.1794871794878,4257.435897435898,4309.743589743591,4411.282051282052,4396.410256410257,1682.0,1684.0,958.305,919.2274780273438,0.0,0.0,0.0,0.0
956845,58.0,0.0,0.0,4482.051282051282,4167.6923076923085,4342.051282051282,4805.128205128206,3789.7435897435903,4201.025641025642,4252.820512820514,4081.0256410256416,4381.538461538462,4087.692307692308,4261.538461538462,4313.333333333334,4418.974358974359,4400.000000000001,1682.0,1685.0,958.313,919.2274780273438,0.0,0.0,0.0,0.0
956845,59.0,0.0,0.0,4483.076923076924,4170.769230769231,4348.717948717949,4809.743589743591,3791.2820512820517,4197.435897435898,4255.8974358974365,4106.153846153847,4401.538461538462,4089.7435897435903,4269.74358974359,4313.846153846154,4429.2307692307695,4404.615384615385,1683.0,1684.0,958.321,919.2274780273438,0.0,0.0,0.0,0.0
956845,60.0,0.0,0.0,4481.025641025642,4167.179487179487,4338.974358974359,4809.2307692307695,3791.2820512820517,4200.000000000001,4248.205128205129,4102.564102564103,4404.102564102564,4086.666666666667,4266.666666666667,4309.2307692307695,4422.051282051282,4398.461538461539,1682.0,1684.0,958.328,919.2274780273438,0.0,0.0,0.0,0.0
956846,61.0,0.0,0.0,4471.794871794872,4163.076923076924,4324.615384615385,4802.564102564103,3786.1538461538466,4202.564102564103,4244.102564102564,4073.8461538461543,4378.974358974359,4075.3846153846157,4249.2307692307695,4303.589743589744,4403.076923076924,4379.48717948718,1683.0,1684.0,958.337,919.2274780273438,0.0,0.0,0.0,0.0
956846,62.0,0.0,0.0,4471.282051282052,4166.153846153847,4333.846153846154,4800.512820512821,3787.692307692308,4200.000000000001,4252.820512820514,4083.589743589744,4381.538461538462,4077.9487179487187,4248.717948717949,4307.179487179487,4406.666666666667,4382.051282051282,1683.0,1684.0,958.344,919.2274780273438,0.0,0.0,0.0,0.0
956846,63.0,0.0,0.0,4487.179487179488,4172.820512820514,4352.820512820514,4812.820512820514,3797.9487179487182,4202.051282051282,4262.051282051282,4116.410256410257,4414.358974358975,4095.8974358974365,4271.794871794872,4317.435897435898,4431.794871794872,4409.743589743591,1683.0,1683.0,958.353,919.2274780273438,0.0,0.0,0.0,0.0
956846,64.0,0.0,474.0,4484.615384615385,4170.769230769231,4346.153846153847,4816.923076923077,3803.589743589744,4216.923076923077,4258.974358974359,4111.794871794872,4415.384615384616,4095.3846153846157,4274.871794871796,4312.307692307693,4429.743589743591,4409.743589743591,1682.0,1684.0,958.359,919.2274780273438,0.0,0.0,0.0,0.0
956846,65.0,0.0,279.0,4469.743589743591,4164.615384615385,4329.743589743591,4805.641025641026,3800.0000000000005,4222.564102564103,4252.307692307693,4088.205128205129,4390.256410256411,4083.589743589744,4253.333333333334,4302.051282051282,4407.6923076923085,4388.205128205129,1684.0,1684.0,958.368,919.2274780273438,0.0,0.0,0.0,0.0
956846,66.0,0.0,447.0,4477.435897435898,4168.205128205129,4337.435897435898,4810.256410256411,3798.9743589743593,4209.74358974359,4255.8974358974365,4092.820512820513,4395.384615384616,4090.7692307692314,4258.461538461539,4309.2307692307695,4411.794871794872,4393.846153846154,1682.0,1684.0,958.375,919.2274780273438,0.0,0.0,0.0,0.0
956847,67.0,0.0,353.0,4486.666666666667,4173.333333333334,4349.2307692307695,4820.000000000001,3800.0000000000005,4202.051282051282,4260.000000000001,4111.282051282052,4411.794871794872,4097.948717948719,4275.8974358974365,4315.8974358974365,4427.6923076923085,4408.205128205129,1683.0,1685.0,958.384,919.2274780273438,0.0,0.0,0.0,0.0
956847,68.0,0.0,456.0,4474.358974358975,4167.6923076923085,4337.948717948719,4809.743589743591,3799.48717948718,4212.307692307693,4261.025641025642,4109.74358974359,4404.615384615385,4089.23076923077,4265.641025641026,4309.2307692307695,4420.512820512821,4401.538461538462,1683.0,1684.0,958.391,919.2274780273438,0.0,0.0,0.0,0.0
956848,69.0,0.0,548.0,4467.179487179487,4165.641025641026,4330.256410256411,4800.512820512821,3800.0000000000005,4218.461538461539,4263.076923076924,4098.974358974359,4394.871794871796,4086.1538461538466,4255.8974358974365,4306.666666666667,4410.256410256411,4395.384615384616,1682.0,1685.0,958.399,919.2274780273438,0.0,0.0,0.0,0.0
956848,70.0,0.0,533.0,4471.794871794872,4168.717948717949,4335.8974358974365,4805.641025641026,3800.512820512821,4215.8974358974365,4264.102564102564,4103.589743589744,4397.948717948719,4090.2564102564106,4263.076923076924,4309.743589743591,4416.923076923077,4395.384615384616,1683.0,1685.0,958.407,919.2274780273438,0.0,0.0,0.0,0.0
956848,71.0,0.0,477.0,4473.333333333334,4166.666666666667,4333.846153846154,4806.153846153847,3801.0256410256416,4221.538461538462,4263.589743589744,4110.256410256411,4398.974358974359,4088.205128205129,4263.589743589744,4306.153846153847,4419.48717948718,4392.307692307693,1682.0,1685.0,958.414,919.2274780273438,0.0,0.0,0.0,0.0
956848,72.0,0.0,420.0,4474.871794871796,4166.666666666667,4330.256410256411,4802.564102564103,3802.0512820512827,4225.128205128206,4268.717948717949,4110.769230769231,4402.051282051282,4088.717948717949,4258.461538461539,4306.666666666667,4416.410256410257,4395.384615384616,1683.0,1685.0,958.422,919.2274780273438,0.0,0.0,0.0,0.0
956848,73.0,0.0,469.0,4481.538461538462,4169.74358974359,4339.48717948718,4807.6923076923085,3801.0256410256416,4213.846153846154,4272.820512820514,4114.358974358975,4411.794871794872,4096.410256410257,4268.717948717949,4315.8974358974365,4424.102564102564,4407.6923076923085,1682.0,1685.0,958.43,919.2274780273438,0.0,0.0,0.0,0.0
956848,74.0,0.0,487.0,4489.743589743591,4171.282051282052,4351.282051282052,4814.358974358975,3800.0000000000005,4203.589743589744,4270.256410256411,4118.974358974359,4418.974358974359,4100.000000000001,4285.128205128206,4322.051282051282,4440.512820512821,4418.974358974359,1683.0,1684.0,958.438,919.2274780273438,0.0,0.0,0.0,0.0
956848,75.0,0.0,438.0,4486.153846153847,4170.256410256411,4350.256410256411,4814.358974358975,3801.538461538462,4212.307692307693,4268.717948717949,4120.000000000001,4417.435897435898,4096.410256410257,4278.461538461539,4314.358974358975,4438.461538461539,4414.358974358975,1682.0,1685.0,958.445,919.2274780273438,0.0,0.0,0.0,0.0
956848,76.0,0.0,448.0,4465.128205128206,4161.538461538462,4331.282051282052,4804.102564102564,3801.538461538462,4229.2307692307695,4267.179487179487,4109.74358974359,4398.974358974359,4084.1025641025644,4250.256410256411,4300.000000000001,4405.641025641026,4389.743589743591,1683.0,1685.0,958.454,919.2274780273438,0.0,0.0,0.0,0.0
956849,77.0,0.0,237.0,4460.000000000001,4156.410256410257,4319.48717948718,4798.461538461539,3799.48717948718,4233.846153846154,4262.051282051282,4088.717948717949,4377.948717948719,4076.9230769230776,4240.000000000001,4298.461538461539,4387.6923076923085,4376.923076923077,1681.0,1684.0,958.461,919.2274780273438,0.0,0.0,0.0,0.0
956849,78.0,0.0,487.0,4478.974358974359,4165.128205128206,4333.846153846154,4806.666666666667,3803.076923076924,4224.615384615385,4268.717948717949,4094.358974358975,4393.333333333334,4088.205128205129,4258.461538461539,4309.743589743591,4411.282051282052,4398.974358974359,1682.0,1685.0,958.47,919.2274780273438,0.0,0.0,0.0,0.0
956849,79.0,0.0,438.0,4481.538461538462,4170.256410256411,4344.102564102564,4809.2307692307695,3803.589743589744,4218.461538461539,4275.8974358974365,4116.410256410257,4414.871794871796,4096.923076923077,4267.6923076923085,4312.307692307693,4426.666666666667,4412.820512820514,1682.0,1683.0,958.477,919.2274780273438,0.0,0.0,0.0,0.0
956849,80.0,0.0,448.0,4468.717948717949,4164.615384615385,4331.282051282052,4800.512820512821,3795.8974358974365,4218.974358974359,4261.538461538462,4103.589743589744,4401.538461538462,4087.692307692308,4259.48717948718,4306.666666666667,4414.358974358975,4396.923076923077,1681.0,1685.0,958.486,919.2274780273438,0.0,0.0,0.0,0.0
956849,81.0,0.0,237.0,4476.410256410257,4166.666666666667,4331.794871794872,4806.153846153847,3795.3846153846157,4215.8974358974365,4250.769230769231,4089.23076923077,4394.871794871796,4086.1538461538466,4263.076923076924,4311.794871794872,4417.948717948719,4395.8974358974365,1682.0,1683.0,958.492,919.2274780273438,0.0,0.0,0.0,0.0
956849,82.0,0.0,487.0,4489.743589743591,4173.333333333334,4348.717948717949,4817.435897435898,3801.538461538462,4210.256410256411,4260.512820512821,4105.128205128206,4411.282051282052,4096.410256410257,4273.846153846154,4318.974358974359,4436.923076923077,4414.358974358975,1681.0,1684.0,958.5,919.2274780273438,0.0,0.0,0.0,0.0
956849,83.0,0.0,438.0,4488.205128205129,4172.307692307693,4348.717948717949,4812.820512820514,3802.0512820512827,4212.820512820514,4265.128205128206,4106.666666666667,4408.205128205129,4096.923076923077,4274.871794871796,4315.384615384616,4437.948717948719,4415.8974358974365,1682.0,1684.0,958.508,919.2274780273438,0.0,0.0,0.0,0.0
956849,84.0,0.0,448.0,4485.641025641026,4170.256410256411,4339.48717948718,4810.769230769231,3800.512820512821,4217.435897435898,4255.8974358974365,4090.7692307692314,4394.871794871796,4091.2820512820517,4268.205128205129,4312.820512820514,4430.769230769231,4408.205128205129,1682.0,1684.0,958.516,919.2274780273438,0.0,0.0,0.0,0.0
956850,85.0,0.0,237.0,4486.666666666667,4171.794871794872,4344.102564102564,4819.48717948718,3802.564102564103,4212.307692307693,4253.333333333334,4092.307692307693,4396.410256410257,4091.7948717948725,4268.205128205129,4315.384615384616,4431.794871794872,4410.769230769231,1682.0,1684.0,958.524,919.2274780273438,0.0,0.0,0.0,0.0
956850,86.0,0.0,487.0,4486.153846153847,4172.820512820514,4350.256410256411,4818.974358974359,3802.0512820512827,4213.846153846154,4256.923076923077,4095.8974358974365,4396.410256410257,4091.7948717948725,4272.820512820514,4314.871794871796,4432.307692307693,4412.307692307693,1681.0,1684.0,958.531,919.2274780273438,0.0,0.0,0.0,0.0
956850,87.0,0.0,438.0,4485.641025641026,4171.282051282052,4346.666666666667,4814.358974358975,3798.461538461539,4221.025641025642,4255.384615384616,4094.358974358975,4395.8974358974365,4091.2820512820517,4271.282051282052,4309.743589743591,4431.282051282052,4409.743589743591,1682.0,1684.0,958.539,919.2274780273438,0.0,0.0,0.0,0.0
956850,88.0,0.0,448.0,4484.615384615385,4170.256410256411,4341.025641025642,4816.923076923077,3793.8461538461543,4213.846153846154,4249.2307692307695,4099.48717948718,4401.025641025642,4093.8461538461543,4270.769230769231,4310.256410256411,4432.820512820514,4408.205128205129,1682.0,1683.0,958.547,919.2274780273438,0.0,0.0,0.0,0.0
956850,89.0,0.0,237.0,4485.128205128206,4171.282051282052,4341.025641025642,4818.461538461539,3789.2307692307695,4204.102564102564,4241.025641025642,4090.7692307692314,4394.871794871796,4090.2564102564106,4272.820512820514,4310.769230769231,4429.743589743591,4403.076923076924,1682.0,1684.0,958.555,919.2274780273438,0.0,0.0,0.0,0.0
956850,90.0,0.0,487.0,4486.666666666667,4171.794871794872,4342.564102564103,4816.923076923077,3789.7435897435903,4203.589743589744,4238.461538461539,4074.358974358975,4382.051282051282,4085.6410256410263,4270.256410256411,4307.179487179487,4424.102564102564,4397.435897435898,1681.0,1683.0,958.563,919.2274780273438,0.0,0.0,0.0,0.0
956850,91.0,0.0,438.0,4487.6923076923085,4171.794871794872,4343.589743589744,4818.974358974359,3791.2820512820517,4199.48717948718,4245.128205128206,4082.564102564103,4387.6923076923085,4089.7435897435903,4271.282051282052,4308.717948717949,4428.717948717949,4402.051282051282,1681.0,1684.0,958.572,919.2274780273438,0.0,0.0,0.0,0.0
956851,92.0,0.0,448.0,4487.6923076923085,4171.282051282052,4342.051282051282,4818.461538461539,3791.2820512820517,4197.948717948719,4249.74358974359,4102.051282051282,4404.615384615385,4095.3846153846157,4279.48717948718,4311.794871794872,4435.8974358974365,4406.153846153847,1682.0,1684.0,958.579,919.2274780273438,0.0,0.0,0.0,0.0
956851,93.0,0.0,237.0,4479.48717948718,4168.717948717949,4331.282051282052,4810.769230769231,3791.2820512820517,4207.6923076923085,4244.615384615385,4095.8974358974365,4401.025641025642,4087.692307692308,4275.384615384616,4307.179487179487,4427.6923076923085,4393.846153846154,1681.0,1684.0,958.587,919.2274780273438,0.0,0.0,0.0,0.0
956851,94.0,0.0,487.0,4472.820512820514,4167.6923076923085,4321.025641025642,4810.256410256411,3789.7435897435903,4212.820512820514,4238.974358974359,4075.8974358974365,4384.102564102564,4077.9487179487187,4265.128205128206,4302.051282051282,4413.846153846154,4384.615384615385,1682.0,1684.0,958.594,919.2274780273438,0.0,0.0,0.0,0.0
956851,95.0,0.0,438.0,4480.512820512821,4169.74358974359,4326.666666666667,4813.333333333334,3790.7692307692314,4211.794871794872,4240.000000000001,4072.307692307693,4380.512820512821,4081.0256410256416,4267.6923076923085,4305.641025641026,4414.871794871796,4387.179487179487,1681.0,1684.0,958.603,919.2274780273438,0.0,0.0,0.0,0.0
956851,96.0,0.0,448.0,4488.717948717949,4171.282051282052,4333.846153846154,4812.820512820514,3794.8717948717954,4215.384615384616,4242.051282051282,4077.435897435898,4386.666666666667,4086.666666666667,4272.820512820514,4309.743589743591,4421.025641025642,4389.2307692307695,1682.0,1686.0,958.611,919.2274780273438,0.0,0.0,0.0,0.0
956977,97.0,0.0,237.0,4485.128205128206,4170.769230769231,4330.769230769231,4814.358974358975,3794.8717948717954,4215.384615384616,4243.589743589744,4078.461538461539,4391.282051282052,4086.666666666667,4273.333333333334,4309.743589743591,4426.153846153847,4391.282051282052,1682.0,1686.0,958.619,919.602783203125,0.0,0.0,0.0,0.0
956977,98.0,0.0,487.0,4483.076923076924,4170.769230769231,4327.6923076923085,4815.8974358974365,3794.8717948717954,4211.282051282052,4249.2307692307695,4086.1538461538466,4397.948717948719,4088.205128205129,4274.358974358975,4309.743589743591,4429.743589743591,4394.871794871796,1682.0,1686.0,958.625,919.602783203125,0.0,0.0,0.0,0.0
956977,99.0,0.0,438.0,4483.076923076924,4169.2307692307695,4328.205128205129,4813.333333333334,3798.9743589743593,4211.282051282052,4252.820512820514,4101.025641025642,4406.666666666667,4091.7948717948725,4275.384615384616,4310.256410256411,4428.205128205129,4391.282051282052,1682.0,1686.0,958.634,919.602783203125,0.0,0.0,0.0,0.0
956977,100.0,0.0,448.0,4484.102564102564,4167.6923076923085,4333.846153846154,4811.794871794872,3797.435897435898,4211.794871794872,4253.846153846154,4109.74358974359,4405.128205128206,4091.7948717948725,4278.461538461539,4311.794871794872,4426.666666666667,4392.820512820514,1682.0,1687.0,958.642,919.602783203125,0.0,0.0,0.0,0.0
956978,101.0,0.0,237.0,4489.743589743591,4171.282051282052,4345.128205128206,4818.461538461539,3794.8717948717954,4210.769230769231,4256.410256410257,4105.641025641026,4402.051282051282,4093.333333333334,4284.615384615385,4314.871794871796,4433.846153846154,4406.666666666667,1683.0,1685.0,958.65,919.602783203125,0.0,0.0,0.0,0.0
956978,102.0,0.0,487.0,4482.051282051282,4171.794871794872,4342.051282051282,4820.512820512821,3800.512820512821,4216.410256410257,4255.8974358974365,4088.205128205129,4394.871794871796,4092.307692307693,4277.435897435898,4310.769230769231,4431.794871794872,4401.025641025642,1682.0,1685.0,958.657,919.602783203125,0.0,0.0,0.0,0.0
956978,103.0,0.0,438.0,4469.743589743591,4167.179487179487,4328.717948717949,4812.307692307693,3803.589743589744,4225.128205128206,4252.307692307693,4078.461538461539,4382.564102564103,4087.1794871794878,4265.641025641026,4306.153846153847,4420.512820512821,4381.025641025642,1683.0,1683.0,958.664,919.602783203125,0.0,0.0,0.0,0.0
956978,104.0,0.0,448.0,4476.410256410257,4169.74358974359,4330.769230769231,4811.794871794872,3800.0000000000005,4220.512820512821,4256.923076923077,4094.8717948717954,4389.743589743591,4090.7692307692314,4271.794871794872,4309.2307692307695,4425.641025641026,4382.564102564103,1681.0,1683.0,958.672,919.602783203125,0.0,0.0,0.0,0.0
956978,105.0,0.0,237.0,4480.512820512821,4172.307692307693,4333.333333333334,4816.410256410257,3796.410256410257,4210.769230769231,4257.948717948719,4104.102564102564,4401.025641025642,4091.7948717948725,4274.358974358975,4307.179487179487,4428.717948717949,4387.179487179487,1681.0,1683.0,958.68,919.602783203125,0.0,0.0,0.0,0.0
956978,106.0,0.0,487.0,4469.2307692307695,4164.102564102564,4323.076923076924,4811.794871794872,3794.8717948717954,4213.333333333334,4245.641025641026,4084.1025641025644,4384.615384615385,4077.435897435898,4256.923076923077,4302.051282051282,4412.307692307693,4372.820512820514,1680.0,1683.0,958.688,919.602783203125,0.0,0.0,0.0,0.0
956978,107.0,0.0,438.0,4471.794871794872,4162.051282051282,4324.615384615385,4808.717948717949,3795.3846153846157,4213.846153846154,4241.025641025642,4068.717948717949,4368.717948717949,4072.820512820513,4250.769230769231,4305.641025641026,4405.128205128206,4367.179487179487,1680.0,1684.0,958.696,919.602783203125,0.0,0.0,0.0,0.0
956979,108.0,0.0,448.0,4488.205128205129,4170.769230769231,4341.538461538462,4813.846153846154,3797.9487179487182,4210.256410256411,4252.820512820514,4076.410256410257,4382.051282051282,4087.692307692308,4269.74358974359,4311.794871794872,4421.025641025642,4383.589743589744,1681.0,1683.0,958.703,919.602783203125,0.0,0.0,0.0,0.0
956979,109.0,0.0,237.0,4489.2307692307695,4171.794871794872,4344.615384615385,4814.871794871796,3800.0000000000005,4217.435897435898,4257.435897435898,4084.615384615385,4394.358974358975,4091.7948717948725,4278.461538461539,4310.769230769231,4431.282051282052,4389.743589743591,1680.0,1684.0,958.711,919.602783203125,0.0,0.0,0.0,0.0
956979,110.0,0.0,487.0,4475.8974358974365,4167.179487179487,4334.358974358975,4809.2307692307695,3801.0256410256416,4224.102564102564,4252.307692307693,4088.717948717949,4388.717948717949,4083.076923076924,4268.205128205129,4306.153846153847,4421.025641025642,4375.8974358974365,1680.0,1683.0,958.721,919.602783203125,0.0,0.0,0.0,0.0
956979,111.0,0.0,438.0,4473.846153846154,4168.205128205129,4333.846153846154,4807.6923076923085,3800.0000000000005,4216.410256410257,4253.846153846154,4098.974358974359,4390.769230769231,4083.589743589744,4265.641025641026,4306.153846153847,4415.384615384616,4370.256410256411,1680.0,1684.0,958.727,919.602783203125,0.0,0.0,0.0,0.0
956979,112.0,0.0,448.0,4485.641025641026,4171.794871794872,4343.589743589744,4813.333333333334,3800.0000000000005,4208.717948717949,4256.923076923077,4102.051282051282,4394.358974358975,4092.820512820513,4273.333333333334,4311.282051282052,4427.6923076923085,4383.589743589744,1681.0,1683.0,958.735,919.602783203125,0.0,0.0,0.0,0.0
957096,113.0,0.0,237.0,4491.282051282052,4170.769230769231,4345.128205128206,4818.974358974359,3799.48717948718,4204.615384615385,4255.8974358974365,4091.2820512820517,4389.743589743591,4092.307692307693,4273.333333333334,4312.307692307693,4433.333333333334,4389.2307692307695,1681.0,1683.0,958.743,919.7279052734375,0.0,0.0,0.0,0.0
957096,114.0,0.0,487.0,4479.48717948718,4168.205128205129,4333.846153846154,4812.307692307693,3797.435897435898,4207.179487179487,4254.871794871796,4085.6410256410263,4385.128205128206,4080.5128205128212,4265.641025641026,4305.641025641026,4418.974358974359,4375.8974358974365,1681.0,1683.0,958.75,919.7279052734375,0.0,0.0,0.0,0.0
957096,115.0,0.0,438.0,4468.717948717949,4165.641025641026,4324.615384615385,4804.615384615386,3799.48717948718,4222.051282051282,4252.820512820514,4089.23076923077,4384.615384615385,4075.8974358974365,4261.025641025642,4305.128205128206,4408.205128205129,4367.6923076923085,1681.0,1684.0,958.758,919.7279052734375,0.0,0.0,0.0,0.0
957096,116.0,0.0,448.0,4474.358974358975,4168.205128205129,4328.205128205129,4809.743589743591,3802.0512820512827,4227.179487179487,4254.358974358975,4091.2820512820517,4389.743589743591,4084.1025641025644,4268.717948717949,4310.256410256411,4418.461538461539,4376.410256410257,1681.0,1683.0,958.766,919.7279052734375,0.0,0.0,0.0,0.0
957096,117.0,0.0,237.0,4487.179487179488,4171.794871794872,4340.000000000001,4815.8974358974365,3802.0512820512827,4218.461538461539,4258.974358974359,4096.923076923077,4404.615384615385,4095.8974358974365,4288.205128205129,4314.871794871796,4438.461538461539,4391.282051282052,1681.0,1684.0,958.774,919.7279052734375,0.0,0.0,0.0,0.0
957097,118.0,0.0,487.0,4490.769230769231,4171.794871794872,4345.641025641026,4817.948717948719,3800.512820512821,4215.8974358974365,4258.461538461539,4101.538461538462,4411.282051282052,4098.461538461539,4297.435897435898,4315.8974358974365,4447.6923076923085,4397.435897435898,1682.0,1685.0,958.782,919.7279052734375,0.0,0.0,0.0,0.0
957097,119.0,0.0,438.0,4484.102564102564,4170.769230769231,4338.974358974359,4821.025641025642,3801.0256410256416,4222.564102564103,4256.410256410257,4093.8461538461543,4403.076923076924,4092.307692307693,4284.102564102564,4312.820512820514,4440.512820512821,4391.794871794872,1681.0,1685.0,958.789,919.7279052734375,0.0,0.0,0.0,0.0
957097,120.0,0.0,448.0,4481.025641025642,4170.769230769231,4334.871794871796,4818.461538461539,3800.512820512821,4221.025641025642,4258.974358974359,4095.8974358974365,4402.564102564103,4088.205128205129,4276.410256410257,4309.2307692307695,4434.871794871796,4386.153846153847,1682.0,1684.0,958.797,919.7279052734375,0.0,0.0,0.0,0.0
957097,121.0,0.0,237.0,4483.076923076924,4169.2307692307695,4337.948717948719,4811.794871794872,3798.9743589743593,4209.74358974359,4254.871794871796,4108.717948717949,4410.256410256411,4091.2820512820517,4282.564102564103,4308.717948717949,4435.8974358974365,4388.205128205129,1681.0,1685.0,958.805,919.7279052734375,0.0,0.0,0.0,0.0
957097,122.0,0.0,487.0,4479.48717948718,4167.6923076923085,4335.8974358974365,4811.794871794872,3796.410256410257,4209.2307692307695,4248.205128205129,4100.000000000001,4403.076923076924,4091.2820512820517,4278.974358974359,4310.769230769231,4431.794871794872,4385.641025641026,1682.0,1684.0,958.813,919.7279052734375,0.0,0.0,0.0,0.0
957097,123.0,0.0,438.0,4474.871794871796,4167.6923076923085,4329.2307692307695,4814.358974358975,3790.2564102564106,4210.769230769231,4246.666666666667,4086.666666666667,4390.769230769231,4084.615384615385,4266.153846153847,4307.6923076923085,4423.076923076924,4374.358974358975,1680.0,1684.0,958.822,919.7279052734375,0.0,0.0,0.0,0.0
957097,124.0,0.0,448.0,4473.846153846154,4166.153846153847,4323.076923076924,4809.2307692307695,3785.6410256410263,4204.102564102564,4244.615384615385,4085.1282051282055,4383.076923076924,4078.461538461539,4261.538461538462,4300.512820512821,4416.923076923077,4367.179487179487,1681.0,1686.0,958.829,919.7279052734375,0.0,0.0,0.0,0.0
957098,125.0,0.0,237.0,4472.820512820514,4165.641025641026,4318.974358974359,4803.589743589744,3786.666666666667,4206.153846153847,4242.051282051282,4073.8461538461543,4378.974358974359,4075.3846153846157,4258.974358974359,4298.974358974359,4413.333333333334,4366.666666666667,1681.0,1686.0,958.837,919.7279052734375,0.0,0.0,0.0,0.0
957098,126.0,0.0,487.0,4475.8974358974365,4169.2307692307695,4323.589743589744,4806.666666666667,3789.7435897435903,4213.333333333334,4245.128205128206,4070.2564102564106,4384.615384615385,4074.8717948717954,4259.48717948718,4304.615384615385,4416.410256410257,4371.282051282052,1681.0,1686.0,958.844,919.7279052734375,0.0,0.0,0.0,0.0
957098,127.0,0.0,438.0,4486.153846153847,4170.256410256411,4333.846153846154,4815.384615384616,3788.717948717949,4204.615384615385,4247.6923076923085,4085.1282051282055,4395.8974358974365,4082.0512820512827,4272.820512820514,4310.256410256411,4426.666666666667,4383.076923076924,1681.0,1686.0,958.853,919.7279052734375,0.0,0.0,0.0,0.0
957098,128.0,0.0,448.0,4487.179487179488,4167.6923076923085,4333.846153846154,4816.410256410257,3790.2564102564106,4199.48717948718,4241.025641025642,4084.615384615385,4394.871794871796,4087.692307692308,4277.435897435898,4309.743589743591,4428.205128205129,4388.717948717949,1681.0,1685.0,958.86,919.7279052734375,0.0,0.0,0.0,0.0
957216,0.0,0.0,474.0,4481.538461538462,4167.6923076923085,4330.769230769231,4811.794871794872,3796.410256410257,4210.769230769231,4238.974358974359,4075.8974358974365,4385.641025641026,4082.0512820512827,4268.205128205129,4308.205128205129,4420.512820512821,4383.589743589744,1681.0,1684.0,958.869,919.85302734375,0.0,0.0,0.0,0.0
957216,1.0,0.0,279.0,4486.666666666667,4168.717948717949,4338.461538461539,4813.333333333334,3797.9487179487182,4212.820512820514,4249.2307692307695,4091.2820512820517,4395.384615384616,4082.0512820512827,4273.846153846154,4309.2307692307695,4424.615384615385,4386.666666666667,1681.0,1685.0,958.875,919.85302734375,0.0,0.0,0.0,0.0
957217,2.0,0.0,447.0,4490.769230769231,4170.256410256411,4345.128205128206,4816.410256410257,3797.435897435898,4208.205128205129,4254.871794871796,4106.153846153847,4408.717948717949,4091.7948717948725,4281.538461538462,4309.743589743591,4432.820512820514,4393.846153846154,1682.0,1685.0,958.884,919.85302734375,0.0,0.0,0.0,0.0
957217,3.0,0.0,353.0,4483.076923076924,4172.820512820514,4337.948717948719,4813.333333333334,3795.8974358974365,4212.307692307693,4249.2307692307695,4093.8461538461543,4392.820512820514,4088.717948717949,4269.2307692307695,4308.205128205129,4420.512820512821,4386.153846153847,1682.0,1686.0,958.891,919.85302734375,0.0,0.0,0.0,0.0
957217,4.0,0.0,456.0,4476.410256410257,4166.666666666667,4328.717948717949,4810.256410256411,3791.2820512820517,4209.2307692307695,4241.538461538462,4080.5128205128212,4378.974358974359,4076.410256410257,4258.974358974359,4303.589743589744,4404.102564102564,4375.384615384616,1683.0,1685.0,958.899,919.85302734375,0.0,0.0,0.0,0.0
957217,5.0,0.0,548.0,4475.8974358974365,4158.461538461539,4323.076923076924,4810.256410256411,3786.1538461538466,4195.384615384616,4238.461538461539,4088.717948717949,4391.282051282052,4075.3846153846157,4261.025641025642,4300.000000000001,4405.641025641026,4372.820512820514,1682.0,1685.0,958.907,919.85302734375,0.0,0.0,0.0,0.0
957217,6.0,0.0,533.0,4473.846153846154,4164.102564102564,4321.538461538462,4804.102564102564,3784.615384615385,4188.717948717949,4238.461538461539,4091.2820512820517,4391.282051282052,4075.8974358974365,4258.461538461539,4300.512820512821,4406.153846153847,4368.717948717949,1683.0,1686.0,958.915,919.85302734375,0.0,0.0,0.0,0.0
957217,7.0,0.0,477.0,4470.256410256411,4166.153846153847,4323.076923076924,4803.589743589744,3787.692307692308,4193.846153846154,4239.48717948718,4077.435897435898,4373.846153846154,4073.333333333334,4250.769230769231,4300.512820512821,4398.461538461539,4363.589743589744,1683.0,1684.0,958.922,919.85302734375,0.0,0.0,0.0,0.0
957217,8.0,0.0,420.0,4469.2307692307695,4157.948717948719,4321.538461538462,4807.6923076923085,3790.2564102564106,4201.538461538462,4239.48717948718,4073.8461538461543,4374.358974358975,4071.7948717948725,4245.641025641026,4298.461538461539,4393.846153846154,4361.025641025642,1682.0,1685.0,958.93,919.85302734375,0.0,0.0,0.0,0.0
957218,9.0,0.0,469.0,4471.282051282052,4157.435897435898,4320.000000000001,4805.128205128206,3788.205128205129,4201.538461538462,4236.923076923077,4085.1282051282055,4386.666666666667,4070.7692307692314,4250.769230769231,4302.564102564103,4395.8974358974365,4364.615384615385,1683.0,1684.0,958.938,919.85302734375,0.0,0.0,0.0,0.0
957218,10.0,0.0,487.0,4473.846153846154,4162.564102564103,4325.128205128206,4804.615384615386,3784.615384615385,4195.8974358974365,4238.974358974359,4090.7692307692314,4390.256410256411,4075.3846153846157,4261.538461538462,4309.2307692307695,4404.102564102564,4373.333333333334,1682.0,1684.0,958.946,919.85302734375,0.0,0.0,0.0,0.0
957218,11.0,0.0,438.0,4470.769230769231,4158.461538461539,4325.128205128206,4804.615384615386,3785.1282051282055,4196.923076923077,4241.538461538462,4085.1282051282055,4387.6923076923085,4079.48717948718,4260.512820512821,4304.615384615385,4408.717948717949,4372.307692307693,1682.0,1683.0,958.954,919.85302734375,0.0,0.0,0.0,0.0
957218,12.0,0.0,448.0,4467.6923076923085,4152.307692307693,4317.435897435898,4802.051282051282,3787.692307692308,4202.051282051282,4241.025641025642,4081.538461538462,4386.666666666667,4075.3846153846157,4250.769230769231,4298.974358974359,4403.076923076924,4362.564102564103,1682.0,1684.0,958.962,919.85302734375,0.0,0.0,0.0,0.0
957218,13.0,0.0,237.0,4472.820512820514,4160.000000000001,4317.435897435898,4803.589743589744,3788.205128205129,4198.974358974359,4242.051282051282,4091.2820512820517,4392.820512820514,4074.358974358975,4252.820512820514,4304.102564102564,4402.564102564103,4364.102564102564,1682.0,1683.0,958.97,919.85302734375,0.0,0.0,0.0,0.0
957218,14.0,0.0,487.0,4476.410256410257,4166.666666666667,4322.564102564103,4806.666666666667,3789.2307692307695,4195.8974358974365,4243.076923076924,4094.358974358975,4394.358974358975,4077.435897435898,4257.435897435898,4308.717948717949,4408.717948717949,4371.282051282052,1681.0,1684.0,958.977,919.85302734375,0.0,0.0,0.0,0.0
957219,15.0,0.0,438.0,4470.256410256411,4162.051282051282,4323.589743589744,4804.615384615386,3787.692307692308,4204.615384615385,4240.000000000001,4075.3846153846157,4378.974358974359,4073.8461538461543,4252.820512820514,4306.666666666667,4404.615384615385,4368.205128205129,1683.0,1683.0,958.986,919.85302734375,0.0,0.0,0.0,0.0
957345,16.0,0.0,0.0,4466.666666666667,4154.871794871796,4325.128205128206,4802.051282051282,3786.666666666667,4205.641025641026,4238.974358974359,4077.9487179487187,4378.461538461539,4073.333333333334,4251.282051282052,4307.179487179487,4402.051282051282,4368.717948717949,1681.0,1683.0,958.993,919.9780883789062,0.0,0.0,0.0,0.0
957345,17.0,0.0,0.0,4470.256410256411,4153.333333333334,4326.666666666667,4801.538461538462,3786.666666666667,4192.307692307693,4238.974358974359,4101.538461538462,4395.8974358974365,4081.0256410256416,4261.025641025642,4311.794871794872,4409.743589743591,4377.435897435898,1682.0,1683.0,959.002,919.9780883789062,0.0,0.0,0.0,0.0
957345,18.0,0.0,0.0,4478.974358974359,4162.564102564103,4331.282051282052,4804.615384615386,3785.6410256410263,4187.179487179487,4237.948717948719,4098.461538461539,4401.538461538462,4086.666666666667,4273.333333333334,4315.8974358974365,4423.589743589744,4385.641025641026,1681.0,1683.0,959.008,919.9780883789062,0.0,0.0,0.0,0.0
957345,19.0,0.0,0.0,4485.641025641026,4167.179487179487,4337.435897435898,4809.2307692307695,3784.1025641025644,4193.333333333334,4236.923076923077,4077.9487179487187,4391.794871794872,4084.615384615385,4273.846153846154,4314.358974358975,4426.153846153847,4388.717948717949,1682.0,1684.0,959.016,919.9780883789062,0.0,0.0,0.0,0.0
957345,20.0,0.0,0.0,4480.512820512821,4157.948717948719,4331.794871794872,4805.641025641026,3785.6410256410263,4194.358974358975,4234.871794871796,4070.7692307692314,4379.48717948718,4076.410256410257,4262.564102564103,4308.205128205129,4413.333333333334,4382.564102564103,1683.0,1683.0,959.024,919.9780883789062,0.0,0.0,0.0,0.0
957346,21.0,0.0,0.0,4478.974358974359,4156.923076923077,4330.256410256411,4805.641025641026,3787.1794871794878,4193.846153846154,4236.923076923077,4076.9230769230776,4379.48717948718,4076.410256410257,4262.564102564103,4308.205128205129,4413.333333333334,4383.589743589744,1682.0,1684.0,959.032,919.9780883789062,0.0,0.0,0.0,0.0
957346,22.0,0.0,0.0,4487.179487179488,4169.74358974359,4342.051282051282,4815.384615384616,3787.692307692308,4201.025641025642,4245.641025641026,4086.666666666667,4387.6923076923085,4085.1282051282055,4272.307692307693,4314.358974358975,4427.179487179487,4389.2307692307695,1683.0,1684.0,959.04,919.9780883789062,0.0,0.0,0.0,0.0
957346,23.0,0.0,0.0,4487.179487179488,4171.282051282052,4341.538461538462,4813.333333333334,3792.307692307693,4205.641025641026,4246.153846153847,4088.717948717949,4387.6923076923085,4083.076923076924,4267.6923076923085,4311.794871794872,4425.128205128206,4386.153846153847,1683.0,1684.0,959.048,919.9780883789062,0.0,0.0,0.0,0.0
957346,24.0,0.0,0.0,4484.615384615385,4165.641025641026,4333.333333333334,4809.743589743591,3795.3846153846157,4203.076923076924,4241.538461538462,4088.717948717949,4386.666666666667,4080.0000000000005,4261.025641025642,4305.641025641026,4418.461538461539,4382.051282051282,1683.0,1684.0,959.055,919.9780883789062,0.0,0.0,0.0,0.0
957346,25.0,0.0,0.0,4489.743589743591,4172.820512820514,4340.512820512821,4820.512820512821,3794.8717948717954,4205.128205128206,4245.128205128206,4086.666666666667,4390.769230769231,4087.1794871794878,4266.153846153847,4307.6923076923085,4425.641025641026,4383.589743589744,1682.0,1684.0,959.063,919.9780883789062,0.0,0.0,0.0,0.0
957346,26.0,0.0,0.0,4489.2307692307695,4171.282051282052,4343.076923076924,4825.128205128206,3791.7948717948725,4210.256410256411,4246.153846153847,4080.0000000000005,4388.717948717949,4085.6410256410263,4263.589743589744,4311.282051282052,4423.076923076924,4382.051282051282,1683.0,1683.0,959.071,919.9780883789062,0.0,0.0,0.0,0.0
957346,27.0,0.0,0.0,4483.589743589744,4164.615384615385,4329.743589743591,4815.384615384616,3788.717948717949,4212.820512820514,4242.051282051282,4082.0512820512827,4384.102564102564,4077.9487179487187,4255.8974358974365,4307.179487179487,4411.794871794872,4378.461538461539,1681.0,1683.0,959.079,919.9780883789062,0.0,0.0,0.0,0.0
957346,28.0,0.0,0.0,4483.589743589744,4165.128205128206,4327.6923076923085,4810.769230769231,3791.2820512820517,4213.846153846154,4246.666666666667,4091.7948717948725,4389.2307692307695,4082.564102564103,4265.128205128206,4306.153846153847,4416.923076923077,4378.974358974359,1682.0,1684.0,959.088,919.9780883789062,0.0,0.0,0.0,0.0
957347,29.0,0.0,0.0,4489.743589743591,4167.6923076923085,4338.974358974359,4815.8974358974365,3796.410256410257,4212.820512820514,4251.282051282052,4090.2564102564106,4397.948717948719,4089.7435897435903,4278.461538461539,4311.282051282052,4430.256410256411,4384.102564102564,1683.0,1683.0,959.094,919.9780883789062,0.0,0.0,0.0,0.0
957347,30.0,0.0,0.0,4496.923076923077,4170.256410256411,4343.589743589744,4821.538461538462,3797.9487179487182,4211.794871794872,4251.794871794872,4086.1538461538466,4401.025641025642,4091.7948717948725,4278.974358974359,4313.846153846154,4435.8974358974365,4392.820512820514,1681.0,1684.0,959.103,919.9780883789062,0.0,0.0,0.0,0.0
957347,31.0,0.0,0.0,4495.384615384616,4170.769230769231,4338.461538461539,4820.000000000001,3797.9487179487182,4222.051282051282,4253.333333333334,4085.6410256410263,4393.333333333334,4089.23076923077,4274.871794871796,4311.282051282052,4432.307692307693,4393.846153846154,1681.0,1684.0,959.11,919.9780883789062,0.0,0.0,0.0,0.0
957561,32.0,0.0,0.0,4484.615384615385,4167.6923076923085,4334.871794871796,4814.358974358975,3801.538461538462,4227.179487179487,4253.333333333334,4083.589743589744,4383.076923076924,4084.615384615385,4271.282051282052,4307.6923076923085,4424.102564102564,4385.641025641026,1681.0,1685.0,959.119,920.1032104492188,0.0,0.0,0.0,0.0
957561,33.0,0.0,0.0,4486.153846153847,4167.6923076923085,4337.435897435898,4815.8974358974365,3802.0512820512827,4213.846153846154,4252.820512820514,4086.666666666667,4386.666666666667,4087.1794871794878,4271.794871794872,4308.205128205129,4424.102564102564,4386.666666666667,1681.0,1686.0,959.126,920.1032104492188,0.0,0.0,0.0,0.0
957562,34.0,0.0,0.0,4495.384615384616,4171.282051282052,4341.025641025642,4823.076923076924,3798.9743589743593,4211.282051282052,4252.820512820514,4092.820512820513,4395.384615384616,4092.820512820513,4276.410256410257,4312.307692307693,4432.307692307693,4395.8974358974365,1680.0,1686.0,959.135,920.1032104492188,0.0,0.0,0.0,0.0
957562,35.0,0.0,0.0,4490.256410256411,4170.256410256411,4335.8974358974365,4819.48717948718,3797.435897435898,4220.512820512821,4248.717948717949,4089.7435897435903,4392.820512820514,4089.7435897435903,4275.8974358974365,4311.794871794872,4429.743589743591,4393.333333333334,1681.0,1686.0,959.141,920.1032104492188,0.0,0.0,0.0,0.0
957563,36.0,0.0,0.0,4481.538461538462,4167.6923076923085,4330.256410256411,4811.282051282052,3793.8461538461543,4217.948717948719,4244.102564102564,4085.6410256410263,4388.717948717949,4084.1025641025644,4270.769230769231,4308.717948717949,4421.538461538462,4385.128205128206,1680.0,1686.0,959.15,920.1032104492188,0.0,0.0,0.0,0.0
957564,37.0,0.0,0.0,4479.48717948718,4168.205128205129,4326.666666666667,4811.794871794872,3789.7435897435903,4208.717948717949,4245.128205128206,4082.564102564103,4387.179487179487,4082.0512820512827,4268.205128205129,4307.6923076923085,4419.48717948718,4381.538461538462,1681.0,1686.0,959.157,920.1032104492188,0.0,0.0,0.0,0.0
957564,38.0,0.0,0.0,4477.948717948719,4168.717948717949,4319.48717948718,4816.410256410257,3789.7435897435903,4207.6923076923085,4244.615384615385,4082.564102564103,4386.666666666667,4079.48717948718,4266.666666666667,4307.179487179487,4419.48717948718,4377.948717948719,1681.0,1686.0,959.165,920.1032104492188,0.0,0.0,0.0,0.0
957565,39.0,0.0,0.0,4480.000000000001,4168.717948717949,4320.000000000001,4818.461538461539,3795.3846153846157,4214.358974358975,4244.102564102564,4088.205128205129,4392.307692307693,4082.0512820512827,4270.256410256411,4307.6923076923085,4424.615384615385,4381.025641025642,1681.0,1686.0,959.173,920.1032104492188,0.0,0.0,0.0,0.0
957566,40.0,0.0,0.0,4489.743589743591,4170.769230769231,4332.820512820514,4819.48717948718,3797.9487179487182,4218.461538461539,4246.666666666667,4088.205128205129,4394.871794871796,4089.23076923077,4279.48717948718,4309.743589743591,4432.820512820514,4390.256410256411,1681.0,1685.0,959.18,920.1032104492188,0.0,0.0,0.0,0.0
957566,41.0,0.0,0.0,4492.820512820514,4170.256410256411,4336.410256410257,4820.000000000001,3789.2307692307695,4211.794871794872,4243.076923076924,4079.48717948718,4385.641025641026,4086.666666666667,4280.000000000001,4309.2307692307695,4432.820512820514,4390.256410256411,1682.0,1685.0,959.296,920.1032104492188,0.0,0.0,0.0,0.0
957567,42.0,0.0,0.0,4484.615384615385,4167.179487179487,4325.641025641026,4818.974358974359,3782.564102564103,4203.589743589744,4237.435897435898,4074.8717948717954,4375.8974358974365,4076.410256410257,4266.666666666667,4306.666666666667,4424.102564102564,4381.025641025642,1682.0,1686.0,959.3,920.1032104492188,0.0,0.0,0.0,0.0
957567,43.0,0.0,0.0,4480.512820512821,4167.179487179487,4320.000000000001,4813.846153846154,3785.1282051282055,4202.564102564103,4233.846153846154,4072.307692307693,4374.871794871796,4073.333333333334,4258.974358974359,4304.102564102564,4419.48717948718,4377.435897435898,1682.0,1685.0,959.3,920.1032104492188,0.0,0.0,0.0,0.0
957568,44.0,0.0,0.0,4479.48717948718,4167.6923076923085,4318.974358974359,4812.307692307693,3784.1025641025644,4203.076923076924,4232.820512820514,4071.7948717948725,4381.025641025642,4075.8974358974365,4262.051282051282,4302.564102564103,4417.948717948719,4378.974358974359,1682.0,1686.0,959.3,920.1032104492188,0.0,0.0,0.0,0.0
957568,45.0,0.0,0.0,4474.358974358975,4165.641025641026,4315.8974358974365,4812.820512820514,3778.461538461539,4201.538461538462,4234.871794871796,4076.9230769230776,4382.564102564103,4072.307692307693,4258.974358974359,4301.025641025642,4414.358974358975,4375.384615384616,1683.0,1686.0,959.3,920.1032104492188,0.0,0.0,0.0,0.0
957569,46.0,0.0,0.0,4476.410256410257,4166.153846153847,4318.974358974359,4811.794871794872,3780.0000000000005,4198.461538461539,4235.8974358974365,4072.820512820513,4377.435897435898,4074.8717948717954,4257.948717948719,4302.051282051282,4417.948717948719,4374.871794871796,1682.0,1686.0,959.3,920.1032104492188,0.0,0.0,0.0,0.0
957569,47.0,0.0,0.0,4482.051282051282,4169.74358974359,4324.102564102564,4814.358974358975,3784.1025641025644,4198.461538461539,4234.358974358975,4065.1282051282055,4374.871794871796,4081.0256410256416,4266.153846153847,4303.589743589744,4425.128205128206,4381.025641025642,1682.0,1686.0,959.3,920.1032104492188,0.0,0.0,0.0,0.0
957570,48.0,0.0,0.0,4473.846153846154,4162.564102564103,4314.358974358975,4813.333333333334,3783.589743589744,4201.025641025642,4228.717948717949,4065.6410256410263,4372.820512820514,4074.8717948717954,4260.512820512821,4301.025641025642,4414.358974358975,4374.358974358975,1683.0,1685.0,959.3,920.1032104492188,0.0,0.0,0.0,0.0
957570,49.0,0.0,0.0,4466.666666666667,4157.435897435898,4307.179487179487,4805.128205128206,3780.512820512821,4200.000000000001,4228.717948717949,4067.692307692308,4372.820512820514,4070.2564102564106,4251.282051282052,4304.102564102564,4402.564102564103,4364.615384615385,1681.0,1687.0,959.3,920.1032104492188,0.0,0.0,0.0,0.0
957571,50.0,0.0,0.0,4475.8974358974365,4165.641025641026,4314.358974358975,4806.666666666667,3778.461538461539,4195.384615384616,4231.794871794872,4073.333333333334,4382.051282051282,4077.9487179487187,4262.564102564103,4308.205128205129,4415.384615384616,4370.256410256411,1683.0,1685.0,959.3,920.1032104492188,0.0,0.0,0.0,0.0
957571,51.0,0.0,0.0,4475.8974358974365,4165.641025641026,4312.820512820514,4812.820512820514,3780.512820512821,4196.923076923077,4230.769230769231,4074.8717948717954,4382.564102564103,4077.9487179487187,4265.641025641026,4303.076923076924,4417.948717948719,4373.333333333334,1682.0,1685.0,959.3,920.1032104492188,0.0,0.0,0.0,0.0
957571,52.0,0.0,0.0,4463.589743589744,4154.358974358975,4303.589743589744,4804.102564102564,3781.538461538462,4200.000000000001,4226.666666666667,4063.589743589744,4370.256410256411,4067.1794871794878,4252.307692307693,4300.000000000001,4399.48717948718,4364.102564102564,1682.0,1685.0,959.3,920.2830810546875,0.0,0.0,0.0,0.0
957572,53.0,0.0,0.0,4466.666666666667,4151.282051282052,4307.6923076923085,4800.000000000001,3777.435897435898,4193.846153846154,4230.256410256411,4066.1538461538466,4374.358974358975,4069.7435897435903,4258.461538461539,4308.717948717949,4403.589743589744,4366.666666666667,1681.0,1684.0,959.3,920.2830810546875,0.0,0.0,0.0,0.0
957572,54.0,0.0,0.0,4479.48717948718,4160.512820512821,4317.948717948719,4809.2307692307695,3776.410256410257,4189.2307692307695,4238.974358974359,4092.820512820513,4395.8974358974365,4080.0000000000005,4278.974358974359,4312.307692307693,4426.666666666667,4381.538461538462,1681.0,1684.0,959.3,920.2830810546875,0.0,0.0,0.0,0.0
957572,55.0,0.0,0.0,4477.435897435898,4163.589743589744,4319.48717948718,4808.717948717949,3780.0000000000005,4197.435897435898,4238.461538461539,4092.307692307693,4395.8974358974365,4080.0000000000005,4277.435897435898,4307.179487179487,4425.128205128206,4385.641025641026,1680.0,1685.0,959.307,920.2830810546875,0.0,0.0,0.0,0.0
957616,56.0,0.0,0.0,4473.333333333334,4160.000000000001,4317.948717948719,4804.102564102564,3777.9487179487182,4202.051282051282,4232.820512820514,4060.5128205128212,4373.333333333334,4074.8717948717954,4268.717948717949,4307.6923076923085,4412.307692307693,4380.000000000001,1681.0,1684.0,959.31,920.2830810546875,0.0,0.0,0.0,0.0
957616,57.0,0.0,0.0,4476.410256410257,4154.358974358975,4314.871794871796,4804.102564102564,3778.9743589743593,4194.358974358975,4229.74358974359,4055.3846153846157,4366.153846153847,4074.8717948717954,4270.769230769231,4307.179487179487,4409.2307692307695,4374.358974358975,1681.0,1683.0,959.315,920.2830810546875,0.0,0.0,0.0,0.0
957616,58.0,0.0,0.0,4474.871794871796,4153.333333333334,4313.846153846154,4803.589743589744,3784.615384615385,4191.282051282052,4234.358974358975,4083.076923076924,4382.051282051282,4078.461538461539,4271.794871794872,4306.666666666667,4409.2307692307695,4374.358974358975,1681.0,1685.0,959.324,920.2830810546875,0.0,0.0,0.0,0.0
957616,59.0,0.0,0.0,4475.8974358974365,4162.051282051282,4318.974358974359,4808.717948717949,3784.615384615385,4198.461538461539,4239.48717948718,4089.7435897435903,4386.666666666667,4077.9487179487187,4267.179487179487,4308.717948717949,4410.256410256411,4378.461538461539,1681.0,1684.0,959.332,920.2830810546875,0.0,0.0,0.0,0.0
957616,60.0,0.0,0.0,4483.589743589744,4167.179487179487,4321.025641025642,4815.8974358974365,3785.1282051282055,4203.589743589744,4235.8974358974365,4068.717948717949,4374.358974358975,4076.9230769230776,4263.076923076924,4307.6923076923085,4411.282051282052,4381.025641025642,1681.0,1685.0,959.34,920.2830810546875,0.0,0.0,0.0,0.0
957616,61.0,0.0,0.0,4485.128205128206,4167.6923076923085,4320.512820512821,4813.846153846154,3787.692307692308,4203.076923076924,4233.333333333334,4068.717948717949,4375.8974358974365,4081.0256410256416,4267.179487179487,4309.2307692307695,4413.846153846154,4384.102564102564,1683.0,1684.0,959.346,920.2830810546875,0.0,0.0,0.0,0.0
957616,62.0,0.0,0.0,4477.948717948719,4167.179487179487,4317.948717948719,4809.743589743591,3784.615384615385,4206.153846153847,4237.948717948719,4083.076923076924,4385.128205128206,4082.0512820512827,4272.307692307693,4310.769230769231,4418.461538461539,4383.589743589744,1681.0,1685.0,959.356,920.2830810546875,0.0,0.0,0.0,0.0
957617,63.0,0.0,0.0,4473.846153846154,4162.051282051282,4311.794871794872,4809.743589743591,3781.0256410256416,4206.153846153847,4238.461538461539,4079.48717948718,4383.076923076924,4074.8717948717954,4266.666666666667,4304.615384615385,4414.358974358975,4378.461538461539,1682.0,1685.0,959.361,920.2830810546875,0.0,0.0,0.0,0.0
957746,64.0,0.0,474.0,4474.871794871796,4159.48717948718,4309.743589743591,4807.6923076923085,3782.564102564103,4201.025641025642,4230.256410256411,4071.7948717948725,4380.512820512821,4072.307692307693,4260.000000000001,4302.564102564103,4406.666666666667,4375.384615384616,1682.0,1685.0,959.37,920.3768920898438,0.0,0.0,0.0,0.0
957746,65.0,0.0,279.0,4482.051282051282,4165.128205128206,4316.410256410257,4811.794871794872,3780.512820512821,4193.333333333334,4230.256410256411,4077.435897435898,4386.666666666667,4076.9230769230776,4269.2307692307695,4311.282051282052,4414.358974358975,4385.641025641026,1682.0,1685.0,959.376,920.3768920898438,0.0,0.0,0.0,0.0
957746,66.0,0.0,447.0,4484.615384615385,4166.153846153847,4318.461538461539,4814.358974358975,3779.48717948718,4188.205128205129,4235.384615384616,4081.0256410256416,4390.769230769231,4078.9743589743593,4279.48717948718,4312.820512820514,4421.538461538462,4391.794871794872,1681.0,1685.0,959.384,920.3768920898438,0.0,0.0,0.0,0.0
957747,67.0,0.0,353.0,4470.769230769231,4154.871794871796,4306.666666666667,4805.128205128206,3781.538461538462,4195.8974358974365,4233.846153846154,4078.461538461539,4385.128205128206,4075.3846153846157,4272.307692307693,4305.128205128206,4410.256410256411,4378.461538461539,1682.0,1685.0,959.392,920.3768920898438,0.0,0.0,0.0,0.0
957747,68.0,0.0,456.0,4458.461538461539,4151.282051282052,4294.871794871796,4796.410256410257,3781.538461538462,4207.6923076923085,4232.820512820514,4076.9230769230776,4378.974358974359,4072.820512820513,4262.051282051282,4301.538461538462,4398.461538461539,4365.641025641026,1681.0,1685.0,959.399,920.3768920898438,0.0,0.0,0.0,0.0
957747,69.0,0.0,548.0,4462.051282051282,4153.333333333334,4294.871794871796,4795.8974358974365,3780.512820512821,4207.6923076923085,4235.384615384616,4075.8974358974365,4376.923076923077,4069.23076923077,4263.076923076924,4301.025641025642,4395.384615384616,4367.179487179487,1681.0,1686.0,959.407,920.3768920898438,0.0,0.0,0.0,0.0
957747,70.0,0.0,533.0,4467.179487179487,4149.74358974359,4297.435897435898,4797.948717948719,3776.410256410257,4200.000000000001,4233.333333333334,4075.3846153846157,4370.256410256411,4067.692307692308,4257.948717948719,4299.48717948718,4386.153846153847,4365.128205128206,1681.0,1684.0,959.415,920.3768920898438,0.0,0.0,0.0,0.0
957748,71.0,0.0,477.0,4460.512820512821,4145.641025641026,4293.333333333334,4795.8974358974365,3774.8717948717954,4205.641025641026,4225.641025641026,4058.461538461539,4353.846153846154,4063.589743589744,4241.025641025642,4296.923076923077,4370.256410256411,4351.282051282052,1680.0,1685.0,959.423,920.3768920898438,0.0,0.0,0.0,0.0
957748,72.0,0.0,420.0,4461.025641025642,4151.282051282052,4296.410256410257,4793.333333333334,3781.0256410256416,4211.282051282052,4228.717948717949,4051.7948717948725,4357.435897435898,4064.1025641025644,4245.641025641026,4301.025641025642,4377.948717948719,4354.358974358975,1682.0,1684.0,959.431,920.3768920898438,0.0,0.0,0.0,0.0
957748,73.0,0.0,471.0,4480.000000000001,4161.025641025642,4312.307692307693,4801.025641025642,3784.615384615385,4197.435897435898,4240.000000000001,4083.589743589744,4385.641025641026,4078.9743589743593,4274.871794871796,4312.307692307693,4405.128205128206,4377.948717948719,1680.0,1684.0,959.438,920.3768920898438,0.0,0.0,0.0,0.0
957748,74.0,0.0,487.0,4488.205128205129,4161.538461538462,4321.025641025642,4810.256410256411,3780.512820512821,4187.179487179487,4236.923076923077,4093.8461538461543,4390.256410256411,4083.589743589744,4281.025641025642,4313.846153846154,4412.307692307693,4386.153846153847,1681.0,1684.0,959.446,920.3768920898438,0.0,0.0,0.0,0.0
957748,75.0,0.0,438.0,4479.48717948718,4157.435897435898,4315.384615384616,4806.666666666667,3780.512820512821,4192.820512820514,4229.2307692307695,4063.076923076924,4370.769230769231,4074.8717948717954,4262.564102564103,4306.153846153847,4402.564102564103,4375.384615384616,1681.0,1684.0,959.454,920.3768920898438,0.0,0.0,0.0,0.0
957749,76.0,0.0,448.0,4473.333333333334,4154.871794871796,4306.666666666667,4804.102564102564,3783.076923076924,4201.538461538462,4235.384615384616,4056.9230769230776,4372.820512820514,4072.307692307693,4258.974358974359,4305.128205128206,4401.025641025642,4371.282051282052,1681.0,1684.0,959.462,920.3768920898438,0.0,0.0,0.0,0.0
957749,77.0,0.0,238.0,4478.974358974359,4156.923076923077,4308.205128205129,4810.256410256411,3781.0256410256416,4204.615384615385,4242.564102564103,4082.0512820512827,4391.282051282052,4077.9487179487187,4272.307692307693,4310.256410256411,4407.6923076923085,4380.000000000001,1681.0,1683.0,959.471,920.3768920898438,0.0,0.0,0.0,0.0
957749,78.0,0.0,487.0,4484.102564102564,4161.538461538462,4315.384615384616,4808.717948717949,3784.1025641025644,4206.666666666667,4241.538461538462,4092.307692307693,4393.333333333334,4082.0512820512827,4280.000000000001,4311.794871794872,4413.846153846154,4389.743589743591,1681.0,1684.0,959.478,920.3768920898438,0.0,0.0,0.0,0.0
957749,79.0,0.0,438.0,4477.435897435898,4158.461538461539,4312.820512820514,4803.589743589744,3786.666666666667,4210.769230769231,4243.589743589744,4090.2564102564106,4388.717948717949,4084.615384615385,4275.8974358974365,4309.2307692307695,4415.384615384616,4390.256410256411,1681.0,1683.0,959.486,920.3768920898438,0.0,0.0,0.0,0.0
957865,80.0,0.0,448.0,4471.794871794872,4152.820512820514,4307.179487179487,4804.615384615386,3785.1282051282055,4212.820512820514,4246.666666666667,4093.8461538461543,4392.307692307693,4086.1538461538466,4272.307692307693,4310.769230769231,4412.307692307693,4387.179487179487,1681.0,1684.0,959.493,920.5020141601562,0.0,0.0,0.0,0.0
957865,81.0,0.0,238.0,4480.512820512821,4156.923076923077,4315.384615384616,4808.205128205129,3786.1538461538466,4206.666666666667,4245.128205128206,4092.307692307693,4394.358974358975,4087.692307692308,4279.48717948718,4314.871794871796,4416.923076923077,4392.820512820514,1682.0,1684.0,959.502,920.5020141601562,0.0,0.0,0.0,0.0
957866,82.0,0.0,487.0,4488.205128205129,4165.641025641026,4323.076923076924,4809.743589743591,3787.1794871794878,4204.102564102564,4242.564102564103,4087.1794871794878,4391.794871794872,4087.692307692308,4283.589743589744,4313.846153846154,4425.641025641026,4401.025641025642,1681.0,1684.0,959.509,920.5020141601562,0.0,0.0,0.0,0.0
957866,83.0,0.0,438.0,4483.076923076924,4165.128205128206,4322.564102564103,4813.333333333334,3785.6410256410263,4208.717948717949,4245.641025641026,4089.23076923077,4391.794871794872,4083.589743589744,4278.461538461539,4309.2307692307695,4423.589743589744,4398.974358974359,1682.0,1684.0,959.518,920.5020141601562,0.0,0.0,0.0,0.0
957866,84.0,0.0,448.0,4483.589743589744,4166.153846153847,4324.102564102564,4814.871794871796,3787.692307692308,4205.128205128206,4249.2307692307695,4094.8717948717954,4394.871794871796,4087.692307692308,4277.948717948719,4310.256410256411,4424.102564102564,4396.923076923077,1681.0,1685.0,959.525,920.5020141601562,0.0,0.0,0.0,0.0
957866,85.0,0.0,238.0,4485.641025641026,4167.6923076923085,4322.564102564103,4813.333333333334,3790.7692307692314,4204.102564102564,4248.205128205129,4090.2564102564106,4392.307692307693,4089.7435897435903,4277.948717948719,4309.2307692307695,4422.051282051282,4395.8974358974365,1683.0,1687.0,959.532,920.5020141601562,0.0,0.0,0.0,0.0
957866,86.0,0.0,487.0,4474.358974358975,4162.564102564103,4312.820512820514,4810.256410256411,3790.2564102564106,4217.435897435898,4245.641025641026,4074.8717948717954,4381.025641025642,4080.0000000000005,4265.641025641026,4301.025641025642,4404.102564102564,4383.589743589744,1682.0,1686.0,959.54,920.5020141601562,0.0,0.0,0.0,0.0
957866,87.0,0.0,438.0,4473.846153846154,4160.512820512821,4313.333333333334,4812.820512820514,3793.333333333334,4220.000000000001,4250.256410256411,4075.3846153846157,4380.512820512821,4079.48717948718,4264.615384615385,4303.589743589744,4401.538461538462,4380.512820512821,1682.0,1687.0,959.548,920.5020141601562,0.0,0.0,0.0,0.0
957866,88.0,0.0,448.0,4488.717948717949,4167.6923076923085,4326.666666666667,4820.000000000001,3792.820512820513,4210.256410256411,4255.8974358974365,4096.410256410257,4397.948717948719,4091.7948717948725,4282.051282051282,4313.846153846154,4421.538461538462,4398.974358974359,1683.0,1686.0,959.556,920.5020141601562,0.0,0.0,0.0,0.0
957866,89.0,0.0,238.0,4490.256410256411,4171.794871794872,4329.2307692307695,4816.410256410257,3790.2564102564106,4212.820512820514,4254.358974358975,4102.051282051282,4404.615384615385,4094.358974358975,4284.615384615385,4311.282051282052,4425.641025641026,4402.051282051282,1683.0,1687.0,959.564,920.5020141601562,0.0,0.0,0.0,0.0
957867,90.0,0.0,487.0,4481.538461538462,4167.179487179487,4321.538461538462,4810.769230769231,3792.307692307693,4221.538461538462,4253.333333333334,4084.615384615385,4390.769230769231,4088.205128205129,4274.358974358975,4307.179487179487,4416.410256410257,4390.256410256411,1683.0,1686.0,959.571,920.5020141601562,0.0,0.0,0.0,0.0
957867,91.0,0.0,438.0,4483.076923076924,4165.641025641026,4321.538461538462,4815.8974358974365,3791.2820512820517,4214.871794871796,4253.846153846154,4083.076923076924,4390.256410256411,4087.692307692308,4275.8974358974365,4312.820512820514,4420.000000000001,4393.333333333334,1683.0,1685.0,959.579,920.5020141601562,0.0,0.0,0.0,0.0
957867,92.0,0.0,448.0,4486.153846153847,4168.205128205129,4325.128205128206,4820.512820512821,3789.7435897435903,4208.205128205129,4247.179487179487,4090.2564102564106,4395.384615384616,4087.1794871794878,4280.512820512821,4315.384615384616,4422.564102564103,4398.461538461539,1683.0,1685.0,959.588,920.5020141601562,0.0,0.0,0.0,0.0
957867,93.0,0.0,238.0,4483.076923076924,4168.205128205129,4324.615384615385,4816.923076923077,3793.333333333334,4213.333333333334,4244.102564102564,4082.564102564103,4389.2307692307695,4085.1282051282055,4280.512820512821,4309.743589743591,4421.538461538462,4392.820512820514,1683.0,1685.0,959.595,920.5020141601562,0.0,0.0,0.0,0.0
957867,94.0,0.0,487.0,4479.48717948718,4167.179487179487,4324.102564102564,4818.461538461539,3791.7948717948725,4210.769230769231,4250.769230769231,4083.589743589744,4387.179487179487,4086.1538461538466,4280.512820512821,4307.179487179487,4423.589743589744,4387.6923076923085,1683.0,1684.0,959.604,920.5020141601562,0.0,0.0,0.0,0.0
957867,95.0,0.0,438.0,4480.512820512821,4168.717948717949,4324.615384615385,4822.564102564103,3783.589743589744,4199.48717948718,4250.256410256411,4089.7435897435903,4392.307692307693,4087.1794871794878,4278.461538461539,4308.205128205129,4421.538461538462,4388.717948717949,1682.0,1684.0,959.611,920.5020141601562,0.0,0.0,0.0,0.0
957974,96.0,0.0,448.0,4482.564102564103,4169.74358974359,4324.615384615385,4819.48717948718,3785.1282051282055,4199.48717948718,4242.564102564103,4078.9743589743593,4389.743589743591,4086.666666666667,4273.333333333334,4309.2307692307695,4417.435897435898,4390.256410256411,1683.0,1683.0,959.619,920.6271362304688,0.0,0.0,0.0,0.0
957975,97.0,0.0,238.0,4478.974358974359,4163.076923076924,4322.051282051282,4813.846153846154,3790.2564102564106,4207.6923076923085,4243.076923076924,4081.0256410256416,4388.205128205129,4083.589743589744,4272.307692307693,4308.205128205129,4417.948717948719,4384.615384615385,1682.0,1683.0,959.626,920.6271362304688,0.0,0.0,0.0,0.0
957975,98.0,0.0,487.0,4472.820512820514,4153.846153846154,4314.358974358975,4806.153846153847,3789.2307692307695,4206.153846153847,4249.2307692307695,4096.410256410257,4393.846153846154,4082.0512820512827,4268.717948717949,4306.153846153847,4414.871794871796,4374.358974358975,1682.0,1682.0,959.635,920.6271362304688,0.0,0.0,0.0,0.0
957976,99.0,0.0,438.0,4468.717948717949,4153.846153846154,4308.717948717949,4804.102564102564,3789.7435897435903,4205.128205128206,4249.74358974359,4082.564102564103,4387.179487179487,4079.48717948718,4262.564102564103,4304.615384615385,4407.6923076923085,4370.769230769231,1681.0,1683.0,959.642,920.6271362304688,0.0,0.0,0.0,0.0
957976,100.0,0.0,448.0,4468.205128205129,4157.948717948719,4314.358974358975,4809.2307692307695,3790.7692307692314,4211.282051282052,4244.102564102564,4065.1282051282055,4381.538461538462,4078.461538461539,4268.205128205129,4305.128205128206,4408.205128205129,4375.384615384616,1682.0,1682.0,959.651,920.6271362304688,0.0,0.0,0.0,0.0
957976,101.0,0.0,238.0,4469.2307692307695,4158.461538461539,4318.461538461539,4807.6923076923085,3790.2564102564106,4213.333333333334,4245.128205128206,4081.0256410256416,4390.256410256411,4081.0256410256416,4272.820512820514,4306.666666666667,4409.2307692307695,4376.923076923077,1681.0,1683.0,959.672,920.6271362304688,0.0,0.0,0.0,0.0
957976,102.0,0.0,487.0,4470.256410256411,4156.923076923077,4317.435897435898,4803.589743589744,3786.1538461538466,4207.6923076923085,4249.74358974359,4092.820512820513,4393.333333333334,4083.589743589744,4268.205128205129,4306.666666666667,4405.641025641026,4372.820512820514,1682.0,1683.0,959.673,920.6271362304688,0.0,0.0,0.0,0.0
957976,103.0,0.0,438.0,4470.769230769231,4155.8974358974365,4314.871794871796,4805.128205128206,3784.615384615385,4203.589743589744,4246.666666666667,4088.205128205129,4391.794871794872,4084.615384615385,4270.256410256411,4306.153846153847,4407.179487179487,4372.820512820514,1680.0,1683.0,959.673,920.6271362304688,0.0,0.0,0.0,0.0
957976,104.0,0.0,448.0,4467.6923076923085,4154.358974358975,4311.794871794872,4803.589743589744,3787.1794871794878,4203.076923076924,4238.974358974359,4086.666666666667,4396.410256410257,4082.0512820512827,4272.820512820514,4306.666666666667,4408.205128205129,4373.333333333334,1682.0,1683.0,959.681,920.6271362304688,0.0,0.0,0.0,0.0
957977,105.0,0.0,238.0,4463.589743589744,4154.871794871796,4311.282051282052,4801.025641025642,3789.2307692307695,4207.179487179487,4238.461538461539,4084.615384615385,4394.358974358975,4075.3846153846157,4263.076923076924,4306.153846153847,4400.512820512821,4366.153846153847,1682.0,1682.0,959.689,920.6271362304688,0.0,0.0,0.0,0.0
957977,106.0,0.0,487.0,4466.666666666667,4157.435897435898,4314.871794871796,4803.589743589744,3788.205128205129,4209.74358974359,4240.000000000001,4075.8974358974365,4381.025641025642,4074.8717948717954,4259.48717948718,4305.641025641026,4401.025641025642,4364.102564102564,1682.0,1684.0,959.697,920.6271362304688,0.0,0.0,0.0,0.0
957977,107.0,0.0,438.0,4472.307692307693,4156.923076923077,4317.948717948719,4805.641025641026,3785.1282051282055,4206.666666666667,4238.974358974359,4072.307692307693,4380.512820512821,4080.0000000000005,4269.74358974359,4308.717948717949,4410.769230769231,4375.384615384616,1683.0,1684.0,959.705,920.6271362304688,0.0,0.0,0.0,0.0
957978,108.0,0.0,448.0,4472.820512820514,4155.8974358974365,4316.923076923077,4805.641025641026,3784.1025641025644,4204.102564102564,4241.025641025642,4080.0000000000005,4392.307692307693,4084.1025641025644,4276.923076923077,4310.256410256411,4414.358974358975,4382.564102564103,1683.0,1684.0,959.712,920.6271362304688,0.0,0.0,0.0,0.0
957978,109.0,0.0,238.0,4475.384615384616,4158.974358974359,4317.948717948719,4807.6923076923085,3787.1794871794878,4207.6923076923085,4245.128205128206,4087.692307692308,4397.948717948719,4084.1025641025644,4277.435897435898,4307.6923076923085,4412.307692307693,4380.000000000001,1683.0,1684.0,959.72,920.6271362304688,0.0,0.0,0.0,0.0
957978,110.0,0.0,487.0,4477.948717948719,4157.435897435898,4317.948717948719,4807.179487179488,3790.2564102564106,4210.769230769231,4246.666666666667,4088.205128205129,4394.871794871796,4082.0512820512827,4275.384615384616,4307.179487179487,4411.282051282052,4376.410256410257,1683.0,1685.0,959.729,920.6271362304688,0.0,0.0,0.0,0.0
957978,111.0,0.0,438.0,4474.871794871796,4156.923076923077,4320.000000000001,4808.717948717949,3789.2307692307695,4210.769230769231,4247.179487179487,4081.538461538462,4387.179487179487,4081.0256410256416,4271.794871794872,4308.717948717949,4410.769230769231,4375.8974358974365,1684.0,1684.0,959.737,920.6271362304688,0.0,0.0,0.0,0.0
958095,112.0,0.0,448.0,4476.410256410257,4164.102564102564,4325.128205128206,4810.769230769231,3787.1794871794878,4209.74358974359,4244.615384615385,4077.435897435898,4387.6923076923085,4085.6410256410263,4272.820512820514,4309.743589743591,4412.307692307693,4378.974358974359,1683.0,1685.0,959.743,920.728759765625,0.0,0.0,0.0,0.0
958095,113.0,0.0,238.0,4480.512820512821,4169.2307692307695,4322.051282051282,4811.794871794872,3790.2564102564106,4205.128205128206,4243.076923076924,4088.205128205129,4402.051282051282,4089.23076923077,4278.461538461539,4309.743589743591,4414.358974358975,4381.025641025642,1684.0,1685.0,959.752,920.728759765625,0.0,0.0,0.0,0.0
958095,114.0,0.0,487.0,4480.000000000001,4168.205128205129,4320.000000000001,4815.384615384616,3794.8717948717954,4205.641025641026,4246.153846153847,4092.820512820513,4405.128205128206,4088.205128205129,4280.000000000001,4309.743589743591,4415.384615384616,4380.000000000001,1683.0,1684.0,959.759,920.728759765625,0.0,0.0,0.0,0.0
958095,115.0,0.0,438.0,4476.410256410257,4165.128205128206,4324.615384615385,4813.846153846154,3795.8974358974365,4215.8974358974365,4248.717948717949,4078.461538461539,4389.743589743591,4085.6410256410263,4275.8974358974365,4309.743589743591,4415.8974358974365,4380.000000000001,1684.0,1685.0,959.767,920.728759765625,0.0,0.0,0.0,0.0
958095,116.0,0.0,448.0,4475.384615384616,4159.48717948718,4326.666666666667,4808.717948717949,3792.307692307693,4215.384615384616,4248.717948717949,4081.538461538462,4388.205128205129,4084.615384615385,4270.256410256411,4310.256410256411,4414.871794871796,4382.051282051282,1683.0,1683.0,959.775,920.728759765625,0.0,0.0,0.0,0.0
958096,117.0,0.0,238.0,4478.974358974359,4155.8974358974365,4321.538461538462,4809.2307692307695,3789.2307692307695,4204.615384615385,4247.6923076923085,4097.435897435898,4396.923076923077,4086.1538461538466,4270.256410256411,4309.743589743591,4416.410256410257,4380.512820512821,1682.0,1685.0,959.783,920.728759765625,0.0,0.0,0.0,0.0
958096,118.0,0.0,487.0,4482.051282051282,4158.461538461539,4317.948717948719,4810.769230769231,3788.205128205129,4202.564102564103,4248.205128205129,4092.307692307693,4395.8974358974365,4086.1538461538466,4274.358974358975,4308.717948717949,4416.410256410257,4378.974358974359,1684.0,1684.0,959.79,920.728759765625,0.0,0.0,0.0,0.0
958096,119.0,0.0,438.0,4477.435897435898,4157.948717948719,4316.410256410257,4808.205128205129,3787.1794871794878,4209.74358974359,4244.615384615385,4085.1282051282055,4394.871794871796,4080.5128205128212,4272.307692307693,4309.743589743591,4409.2307692307695,4375.8974358974365,1681.0,1684.0,959.798,920.728759765625,0.0,0.0,0.0,0.0
958096,120.0,0.0,448.0,4472.820512820514,4153.333333333334,4313.333333333334,4805.128205128206,3785.6410256410263,4213.846153846154,4240.000000000001,4084.1025641025644,4393.333333333334,4075.3846153846157,4263.076923076924,4306.153846153847,4402.051282051282,4369.743589743591,1683.0,1684.0,959.806,920.728759765625,0.0,0.0,0.0,0.0
958096,121.0,0.0,238.0,4469.743589743591,4152.820512820514,4310.256410256411,4802.051282051282,3784.615384615385,4211.282051282052,4241.538461538462,4072.307692307693,4384.102564102564,4075.8974358974365,4261.025641025642,4303.076923076924,4400.512820512821,4365.128205128206,1682.0,1684.0,959.814,920.728759765625,0.0,0.0,0.0,0.0
958096,122.0,0.0,487.0,4470.256410256411,4153.846153846154,4307.6923076923085,4802.051282051282,3787.1794871794878,4209.2307692307695,4247.6923076923085,4076.9230769230776,4389.2307692307695,4081.538461538462,4267.179487179487,4307.179487179487,4403.589743589744,4370.256410256411,1682.0,1684.0,959.822,920.728759765625,0.0,0.0,0.0,0.0
958096,123.0,0.0,438.0,4476.923076923077,4155.8974358974365,4311.282051282052,4806.153846153847,3793.8461538461543,4210.769230769231,4253.333333333334,4096.410256410257,4402.564102564103,4085.6410256410263,4272.307692307693,4310.256410256411,4406.666666666667,4379.48717948718,1682.0,1684.0,959.83,920.728759765625,0.0,0.0,0.0,0.0
958096,124.0,0.0,448.0,4475.384615384616,4155.384615384616,4318.461538461539,4805.641025641026,3797.435897435898,4211.794871794872,4253.846153846154,4097.948717948719,4403.076923076924,4086.1538461538466,4278.461538461539,4308.205128205129,4411.282051282052,4383.076923076924,1683.0,1685.0,959.837,920.728759765625,0.0,0.0,0.0,0.0
958096,125.0,0.0,238.0,4473.333333333334,4154.358974358975,4321.025641025642,4805.128205128206,3795.8974358974365,4208.205128205129,4252.307692307693,4095.3846153846157,4398.461538461539,4087.692307692308,4283.589743589744,4309.2307692307695,4415.384615384616,4384.615384615385,1681.0,1684.0,959.845,920.728759765625,0.0,0.0,0.0,0.0
958097,126.0,0.0,487.0,4476.923076923077,4156.410256410257,4320.512820512821,4807.6923076923085,3794.358974358975,4209.74358974359,4250.769230769231,4090.7692307692314,4392.820512820514,4088.205128205129,4276.410256410257,4308.717948717949,4411.282051282052,4383.589743589744,1683.0,1685.0,959.854,920.728759765625,0.0,0.0,0.0,0.0
958097,127.0,0.0,438.0,4476.410256410257,4155.8974358974365,4316.410256410257,4806.153846153847,3795.3846153846157,4219.48717948718,4249.74358974359,4076.410256410257,4382.564102564103,4081.538461538462,4263.589743589744,4303.076923076924,4399.48717948718,4374.871794871796,1683.0,1684.0,959.861,920.728759765625,0.0,0.0,0.0,0.0
958221,128.0,0.0,448.0,4472.820512820514,4152.307692307693,4315.8974358974365,4805.128205128206,3793.8461538461543,4219.48717948718,4251.282051282052,4075.3846153846157,4384.102564102564,4076.410256410257,4264.615384615385,4306.153846153847,4397.948717948719,4373.333333333334,1682.0,1686.0,959.87,920.8538818359375,0.0,0.0,0.0,0.0
958221,0.0,0.0,474.0,4480.512820512821,4158.974358974359,4323.589743589744,4812.820512820514,3792.820512820513,4210.769230769231,4252.820512820514,4086.1538461538466,4396.410256410257,4083.076923076924,4281.025641025642,4315.384615384616,4414.871794871796,4386.153846153847,1683.0,1685.0,959.876,920.8538818359375,0.0,0.0,0.0,0.0
958221,1.0,0.0,279.0,4485.641025641026,4164.615384615385,4326.153846153847,4814.871794871796,3796.410256410257,4207.6923076923085,4251.282051282052,4088.717948717949,4402.051282051282,4089.23076923077,4287.179487179487,4312.820512820514,4419.48717948718,4387.179487179487,1682.0,1685.0,959.885,920.8538818359375,0.0,0.0,0.0,0.0
958222,2.0,0.0,447.0,4475.384615384616,4156.923076923077,4316.410256410257,4809.2307692307695,3797.435897435898,4214.871794871796,4250.769230769231,4085.6410256410263,4394.358974358975,4084.1025641025644,4274.871794871796,4305.641025641026,4403.589743589744,4374.358974358975,1683.0,1685.0,959.892,920.8538818359375,0.0,0.0,0.0,0.0
958222,3.0,0.0,353.0,4470.256410256411,4152.307692307693,4312.307692307693,4807.179487179488,3793.8461538461543,4217.948717948719,4251.794871794872,4082.0512820512827,4386.153846153847,4079.48717948718,4267.179487179487,4306.666666666667,4395.8974358974365,4373.846153846154,1682.0,1685.0,959.901,920.8538818359375,0.0,0.0,0.0,0.0
958222,4.0,0.0,456.0,4470.769230769231,4155.8974358974365,4315.8974358974365,4808.717948717949,3789.7435897435903,4213.333333333334,4246.153846153847,4078.461538461539,4387.6923076923085,4080.5128205128212,4272.820512820514,4309.2307692307695,4401.538461538462,4376.923076923077,1683.0,1685.0,959.908,920.8538818359375,0.0,0.0,0.0,0.0
958222,5.0,0.0,548.0,4468.717948717949,4160.512820512821,4315.384615384616,4812.307692307693,3786.1538461538466,4211.282051282052,4243.076923076924,4080.5128205128212,4386.666666666667,4078.9743589743593,4273.846153846154,4307.179487179487,4401.025641025642,4369.743589743591,1683.0,1684.0,959.915,920.8538818359375,0.0,0.0,0.0,0.0
958222,6.0,0.0,533.0,4472.820512820514,4163.076923076924,4317.948717948719,4812.307692307693,3788.205128205129,4207.6923076923085,4251.794871794872,4089.23076923077,4389.2307692307695,4083.076923076924,4270.769230769231,4307.6923076923085,4400.000000000001,4370.769230769231,1683.0,1684.0,959.923,920.8538818359375,0.0,0.0,0.0,0.0
958222,7.0,0.0,477.0,4482.564102564103,4163.589743589744,4323.076923076924,4812.307692307693,3792.820512820513,4209.74358974359,4257.948717948719,4092.820512820513,4398.461538461539,4091.2820512820517,4274.871794871796,4309.2307692307695,4406.153846153847,4383.076923076924,1682.0,1684.0,959.931,920.8538818359375,0.0,0.0,0.0,0.0
958222,8.0,0.0,420.0,4482.564102564103,4157.948717948719,4320.000000000001,4812.820512820514,3792.820512820513,4218.461538461539,4252.307692307693,4082.564102564103,4392.820512820514,4086.666666666667,4274.871794871796,4307.179487179487,4406.666666666667,4384.102564102564,1682.0,1684.0,959.939,920.8538818359375,0.0,0.0,0.0,0.0
958223,9.0,0.0,472.0,4478.461538461539,4157.435897435898,4319.48717948718,4813.333333333334,3793.8461538461543,4215.8974358974365,4250.769230769231,4084.1025641025644,4391.282051282052,4084.615384615385,4272.307692307693,4308.205128205129,4407.6923076923085,4381.538461538462,1682.0,1683.0,959.947,920.8538818359375,0.0,0.0,0.0,0.0
958223,10.0,0.0,487.0,4483.589743589744,4163.589743589744,4326.153846153847,4814.358974358975,3798.9743589743593,4210.256410256411,4254.871794871796,4102.564102564103,4406.666666666667,4094.358974358975,4276.410256410257,4311.282051282052,4414.871794871796,4385.641025641026,1681.0,1684.0,959.954,920.8538818359375,0.0,0.0,0.0,0.0
958223,11.0,0.0,438.0,4485.641025641026,4164.102564102564,4326.153846153847,4812.307692307693,3797.435897435898,4216.410256410257,4255.384615384616,4097.948717948719,4406.153846153847,4094.358974358975,4281.025641025642,4310.769230769231,4417.948717948719,4386.666666666667,1682.0,1682.0,959.962,920.8538818359375,0.0,0.0,0.0,0.0
958223,12.0,0.0,448.0,4482.051282051282,4159.48717948718,4323.589743589744,4810.256410256411,3795.8974358974365,4218.974358974359,4256.923076923077,4083.076923076924,4397.948717948719,4088.205128205129,4282.564102564103,4309.743589743591,4418.974358974359,4390.256410256411,1681.0,1683.0,959.97,920.8538818359375,0.0,0.0,0.0,0.0
958223,13.0,0.0,238.0,4480.000000000001,4156.410256410257,4322.051282051282,4811.794871794872,3798.461538461539,4215.8974358974365,4259.48717948718,4085.6410256410263,4398.461538461539,4088.205128205129,4278.974358974359,4309.743589743591,4416.923076923077,4390.769230769231,1682.0,1683.0,959.978,920.8538818359375,0.0,0.0,0.0,0.0
958223,14.0,0.0,487.0,4475.8974358974365,4154.871794871796,4315.8974358974365,4812.820512820514,3795.8974358974365,4220.512820512821,4256.923076923077,4086.1538461538466,4390.769230769231,4088.205128205129,4272.307692307693,4305.641025641026,4409.2307692307695,4382.564102564103,1682.0,1683.0,959.986,920.8538818359375,0.0,0.0,0.0,0.0
958338,15.0,0.0,438.0,4477.435897435898,4158.974358974359,4315.384615384616,4813.333333333334,3796.410256410257,4224.102564102564,4255.8974358974365,4085.6410256410263,4392.307692307693,4090.2564102564106,4275.8974358974365,4308.717948717949,4411.794871794872,4385.641025641026,1682.0,1685.0,959.994,920.9789428710938,0.0,0.0,0.0,0.0
958338,16.0,0.0,0.0,4483.076923076924,4165.128205128206,4317.948717948719,4812.307692307693,3802.0512820512827,4230.769230769231,4265.128205128206,4098.461538461539,4406.666666666667,4093.8461538461543,4279.48717948718,4313.333333333334,4417.948717948719,4396.410256410257,1681.0,1684.0,960.002,920.9789428710938,0.0,0.0,0.0,0.0
958338,17.0,0.0,0.0,4483.589743589744,4166.153846153847,4318.974358974359,4812.307692307693,3802.0512820512827,4235.8974358974365,4271.282051282052,4104.615384615385,4410.256410256411,4093.8461538461543,4282.051282051282,4310.256410256411,4417.948717948719,4396.410256410257,1682.0,1684.0,960.009,920.9789428710938,0.0,0.0,0.0,0.0
958338,18.0,0.0,0.0,4484.102564102564,4165.641025641026,4324.615384615385,4815.384615384616,3797.9487179487182,4223.076923076924,4264.615384615385,4108.205128205129,4414.871794871796,4093.8461538461543,4292.820512820514,4309.743589743591,4423.589743589744,4396.410256410257,1682.0,1684.0,960.018,920.9789428710938,0.0,0.0,0.0,0.0
958338,19.0,0.0,0.0,4486.153846153847,4164.102564102564,4325.128205128206,4816.410256410257,3797.9487179487182,4211.794871794872,4257.948717948719,4111.282051282052,4415.384615384616,4094.358974358975,4290.769230769231,4310.769230769231,4422.564102564103,4397.948717948719,1681.0,1684.0,960.026,920.9789428710938,0.0,0.0,0.0,0.0
958339,20.0,0.0,0.0,4484.102564102564,4160.512820512821,4319.48717948718,4812.820512820514,3798.9743589743593,4220.000000000001,4259.48717948718,4096.923076923077,4397.948717948719,4090.2564102564106,4275.8974358974365,4310.769230769231,4411.794871794872,4393.333333333334,1681.0,1683.0,960.033,920.9789428710938,0.0,0.0,0.0,0.0
958339,21.0,0.0,0.0,4482.051282051282,4159.48717948718,4320.512820512821,4812.307692307693,3794.358974358975,4224.615384615385,4259.48717948718,4088.717948717949,4393.333333333334,4087.692307692308,4278.974358974359,4311.282051282052,4411.794871794872,4393.846153846154,1682.0,1683.0,960.041,920.9789428710938,0.0,0.0,0.0,0.0
958339,22.0,0.0,0.0,4483.076923076924,4162.051282051282,4324.615384615385,4814.358974358975,3792.820512820513,4221.538461538462,4255.384615384616,4096.410256410257,4400.512820512821,4089.23076923077,4285.641025641026,4310.769230769231,4415.8974358974365,4396.923076923077,1681.0,1683.0,960.048,920.9789428710938,0.0,0.0,0.0,0.0
958339,23.0,0.0,0.0,4485.128205128206,4163.076923076924,4322.051282051282,4814.871794871796,3796.410256410257,4222.051282051282,4252.307692307693,4089.23076923077,4393.333333333334,4088.205128205129,4278.461538461539,4308.717948717949,4413.333333333334,4394.358974358975,1682.0,1684.0,960.056,920.9789428710938,0.0,0.0,0.0,0.0
958339,24.0,0.0,0.0,4483.076923076924,4164.615384615385,4324.102564102564,4814.871794871796,3793.333333333334,4216.923076923077,4251.282051282052,4082.0512820512827,4388.205128205129,4088.205128205129,4276.410256410257,4309.2307692307695,4413.333333333334,4392.307692307693,1682.0,1684.0,960.064,920.9789428710938,0.0,0.0,0.0,0.0
958339,25.0,0.0,0.0,4482.564102564103,4161.538461538462,4326.666666666667,4814.358974358975,3789.7435897435903,4211.794871794872,4253.333333333334,4094.8717948717954,4398.461538461539,4090.7692307692314,4279.48717948718,4309.2307692307695,4415.8974358974365,4395.384615384616,1683.0,1684.0,960.072,920.9789428710938,0.0,0.0,0.0,0.0
958340,26.0,0.0,0.0,4483.589743589744,4156.410256410257,4320.000000000001,4812.307692307693,3793.333333333334,4216.923076923077,4252.820512820514,4093.333333333334,4397.435897435898,4084.615384615385,4273.846153846154,4305.128205128206,4409.743589743591,4389.743589743591,1682.0,1684.0,960.08,920.9789428710938,0.0,0.0,0.0,0.0
958340,27.0,0.0,0.0,4480.512820512821,4157.435897435898,4313.333333333334,4811.282051282052,3792.820512820513,4218.461538461539,4247.179487179487,4075.8974358974365,4385.128205128206,4077.435897435898,4271.794871794872,4306.153846153847,4401.025641025642,4381.538461538462,1683.0,1685.0,960.088,920.9789428710938,0.0,0.0,0.0,0.0
958340,28.0,0.0,0.0,4473.333333333334,4159.48717948718,4315.8974358974365,4810.769230769231,3789.7435897435903,4216.410256410257,4246.153846153847,4082.0512820512827,4389.743589743591,4082.0512820512827,4275.384615384616,4309.2307692307695,4401.538461538462,4384.102564102564,1683.0,1685.0,960.095,920.9789428710938,0.0,0.0,0.0,0.0
958340,29.0,0.0,0.0,4477.435897435898,4158.974358974359,4318.974358974359,4813.333333333334,3795.8974358974365,4220.000000000001,4253.333333333334,4098.974358974359,4405.128205128206,4089.7435897435903,4275.8974358974365,4308.717948717949,4409.2307692307695,4391.794871794872,1682.0,1686.0,960.104,920.9789428710938,0.0,0.0,0.0,0.0
958340,30.0,0.0,0.0,4483.589743589744,4157.948717948719,4316.410256410257,4812.820512820514,3800.512820512821,4223.589743589744,4256.410256410257,4097.948717948719,4404.102564102564,4089.23076923077,4276.923076923077,4309.743589743591,4411.282051282052,4392.820512820514,1684.0,1684.0,960.111,920.9789428710938,0.0,0.0,0.0,0.0
958475,31.0,0.0,0.0,4474.358974358975,4154.871794871796,4311.794871794872,4805.641025641026,3795.3846153846157,4224.615384615385,4251.282051282052,4092.820512820513,4395.384615384616,4086.666666666667,4276.923076923077,4308.205128205129,4403.076923076924,4385.641025641026,1683.0,1685.0,960.12,921.1040649414062,0.0,0.0,0.0,0.0
958475,32.0,0.0,0.0,4470.769230769231,4155.8974358974365,4312.820512820514,4805.128205128206,3793.333333333334,4224.102564102564,4250.256410256411,4094.8717948717954,4399.48717948718,4088.205128205129,4277.435897435898,4306.666666666667,4402.051282051282,4386.153846153847,1684.0,1684.0,960.127,921.1040649414062,0.0,0.0,0.0,0.0
958475,33.0,0.0,0.0,4484.615384615385,4160.512820512821,4319.48717948718,4811.794871794872,3795.3846153846157,4218.974358974359,4254.871794871796,4099.48717948718,4407.179487179487,4093.8461538461543,4284.102564102564,4309.2307692307695,4412.820512820514,4398.974358974359,1683.0,1683.0,960.135,921.1040649414062,0.0,0.0,0.0,0.0
958475,34.0,0.0,0.0,4491.282051282052,4161.538461538462,4325.641025641026,4812.820512820514,3794.8717948717954,4216.410256410257,4258.461538461539,4107.179487179487,4413.333333333334,4098.974358974359,4288.717948717949,4313.846153846154,4420.000000000001,4405.128205128206,1683.0,1685.0,960.142,921.1040649414062,0.0,0.0,0.0,0.0
958475,35.0,0.0,0.0,4484.102564102564,4155.384615384616,4327.6923076923085,4810.256410256411,3793.333333333334,4223.076923076924,4260.000000000001,4113.846153846154,4416.923076923077,4098.461538461539,4288.205128205129,4314.871794871796,4419.48717948718,4402.564102564103,1683.0,1684.0,960.15,921.1040649414062,0.0,0.0,0.0,0.0
958476,36.0,0.0,0.0,4482.051282051282,4152.307692307693,4326.666666666667,4812.820512820514,3794.358974358975,4228.717948717949,4258.461538461539,4106.153846153847,4408.205128205129,4092.307692307693,4287.6923076923085,4311.794871794872,4417.435897435898,4404.102564102564,1683.0,1684.0,960.158,921.1040649414062,0.0,0.0,0.0,0.0
958476,37.0,0.0,0.0,4484.615384615385,4157.948717948719,4326.153846153847,4815.8974358974365,3797.9487179487182,4227.179487179487,4254.871794871796,4098.461538461539,4401.025641025642,4090.7692307692314,4287.179487179487,4310.256410256411,4416.410256410257,4406.666666666667,1682.0,1685.0,960.166,921.1040649414062,0.0,0.0,0.0,0.0
958476,38.0,0.0,0.0,4482.564102564103,4157.948717948719,4322.051282051282,4810.256410256411,3798.9743589743593,4225.128205128206,4254.871794871796,4099.48717948718,4400.000000000001,4093.333333333334,4282.564102564103,4311.794871794872,4412.820512820514,4400.000000000001,1682.0,1686.0,960.174,921.1040649414062,0.0,0.0,0.0,0.0
958476,39.0,0.0,0.0,4480.512820512821,4153.333333333334,4318.461538461539,4806.153846153847,3796.410256410257,4223.076923076924,4259.48717948718,4096.923076923077,4395.384615384616,4090.2564102564106,4282.051282051282,4312.307692307693,4408.717948717949,4395.384615384616,1682.0,1685.0,960.181,921.1040649414062,0.0,0.0,0.0,0.0
958476,40.0,0.0,0.0,4481.538461538462,4158.974358974359,4320.512820512821,4810.256410256411,3796.9230769230776,4221.538461538462,4262.051282051282,4094.358974358975,4396.923076923077,4089.7435897435903,4290.769230769231,4309.2307692307695,4411.794871794872,4400.512820512821,1681.0,1686.0,960.189,921.1040649414062,0.0,0.0,0.0,0.0
