timestamp,cnt,inerpolated,raw_cq,af3,f7,f3,fc5,t7,p7,o1,o2,p8,t8,fc6,f4,f8,af4,gyrox,gyroy,epoc_timestamp,epoc_es_timestamp,func_id,func_value,marker,sync_signal
992519,126.0,0.0,487.0,4491.282051282052,4168.205128205129,4301.025641025642,4824.102564102564,3788.717948717949,4224.102564102564,4256.410256410257,4107.179487179487,4407.6923076923085,4103.076923076924,4288.717948717949,4304.102564102564,4423.076923076924,4383.076923076924,1682.0,1686.0,994.15,955.14111328125,0.0,0.0,0.0,0.0
992519,127.0,0.0,438.0,4494.358974358975,4170.256410256411,4305.641025641026,4829.2307692307695,3788.205128205129,4225.641025641026,4255.8974358974365,4103.589743589744,4408.717948717949,4104.615384615385,4291.282051282052,4307.179487179487,4430.769230769231,4393.333333333334,1681.0,1686.0,994.157,955.14111328125,0.0,0.0,0.0,0.0
992519,128.0,0.0,449.0,4498.461538461539,4168.717948717949,4304.615384615385,4824.615384615386,3794.8717948717954,4224.615384615385,4254.358974358975,4107.179487179487,4406.666666666667,4105.128205128206,4287.179487179487,4309.743589743591,4426.666666666667,4392.820512820514,1680.0,1686.0,994.166,955.14111328125,0.0,0.0,0.0,0.0
992519,0.0,0.0,474.0,4500.512820512821,4169.74358974359,4302.051282051282,4827.6923076923085,3794.358974358975,4225.641025641026,4252.820512820514,4111.794871794872,4405.641025641026,4104.615384615385,4293.333333333334,4310.256410256411,4423.076923076924,4389.2307692307695,1679.0,1685.0,994.173,955.14111328125,0.0,0.0,0.0,0.0
992519,1.0,0.0,279.0,4497.435897435898,4172.307692307693,4307.6923076923085,4832.307692307693,3794.358974358975,4233.333333333334,4252.307692307693,4104.102564102564,4406.153846153847,4104.615384615385,4300.512820512821,4311.794871794872,4433.846153846154,4396.410256410257,1680.0,1685.0,994.181,955.14111328125,0.0,0.0,0.0,0.0
992520,2.0,0.0,448.0,4497.948717948719,4170.256410256411,4310.769230769231,4829.743589743591,3795.3846153846157,4231.794871794872,4254.358974358975,4098.974358974359,4401.538461538462,4105.641025641026,4292.820512820514,4309.2307692307695,4432.307692307693,4395.8974358974365,1679.0,1684.0,994.19,955.14111328125,0.0,0.0,0.0,0.0
992521,3.0,0.0,353.0,4501.538461538462,4170.769230769231,4312.307692307693,4829.2307692307695,3791.7948717948725,4221.538461538462,4256.923076923077,4117.948717948719,4409.743589743591,4109.2307692307695,4293.846153846154,4308.205128205129,4429.2307692307695,4391.282051282052,1679.0,1684.0,994.197,955.14111328125,0.0,0.0,0.0,0.0
992522,4.0,0.0,456.0,4500.512820512821,4172.307692307693,4315.384615384616,4831.282051282052,3792.820512820513,4224.615384615385,4258.974358974359,4125.641025641026,4416.410256410257,4109.74358974359,4304.102564102564,4311.282051282052,4434.358974358975,4393.846153846154,1679.0,1683.0,994.205,955.14111328125,0.0,0.0,0.0,0.0
992522,5.0,0.0,548.0,4491.794871794872,4168.717948717949,4303.076923076924,4825.128205128206,3797.9487179487182,4238.974358974359,4259.48717948718,4094.8717948717954,4393.846153846154,4102.051282051282,4290.256410256411,4304.102564102564,4421.025641025642,4385.128205128206,1680.0,1684.0,994.214,955.14111328125,0.0,0.0,0.0,0.0
992522,6.0,0.0,533.0,4483.076923076924,4167.179487179487,4290.769230769231,4820.000000000001,3797.435897435898,4246.666666666667,4256.923076923077,4078.461538461539,4383.076923076924,4097.435897435898,4270.256410256411,4294.871794871796,4405.128205128206,4371.794871794872,1679.0,1684.0,994.222,955.14111328125,0.0,0.0,0.0,0.0
992522,7.0,0.0,478.0,4487.6923076923085,4169.2307692307695,4297.435897435898,4826.153846153847,3797.435897435898,4242.564102564103,4256.410256410257,4101.025641025642,4404.102564102564,4101.538461538462,4272.307692307693,4301.025641025642,4414.358974358975,4377.435897435898,1680.0,1684.0,994.23,955.14111328125,0.0,0.0,0.0,0.0
992522,8.0,0.0,420.0,4494.871794871796,4170.256410256411,4307.179487179487,4828.717948717949,3797.9487179487182,4230.769230769231,4256.923076923077,4118.974358974359,4414.871794871796,4105.128205128206,4286.153846153847,4310.769230769231,4428.205128205129,4392.307692307693,1680.0,1684.0,994.238,955.14111328125,0.0,0.0,0.0,0.0
992522,9.0,0.0,455.0,4494.871794871796,4170.256410256411,4306.666666666667,4827.179487179488,3791.7948717948725,4224.615384615385,4255.8974358974365,4121.538461538462,4413.333333333334,4106.153846153847,4298.461538461539,4310.256410256411,4432.307692307693,4399.48717948718,1680.0,1686.0,994.246,955.14111328125,0.0,0.0,0.0,0.0
992522,10.0,0.0,487.0,4496.410256410257,4172.307692307693,4307.179487179487,4830.256410256411,3789.7435897435903,4226.666666666667,4253.846153846154,4115.384615384616,4414.871794871796,4107.179487179487,4302.564102564103,4306.666666666667,4435.8974358974365,4400.000000000001,1681.0,1683.0,994.253,955.14111328125,0.0,0.0,0.0,0.0
992522,11.0,0.0,438.0,4498.461538461539,4171.794871794872,4310.256410256411,4831.282051282052,3794.8717948717954,4228.205128205129,4253.846153846154,4093.8461538461543,4403.589743589744,4106.153846153847,4296.410256410257,4307.179487179487,4435.8974358974365,4398.974358974359,1680.0,1684.0,994.261,955.14111328125,0.0,0.0,0.0,0.0
992523,12.0,0.0,449.0,4495.8974358974365,4169.74358974359,4310.256410256411,4829.2307692307695,3792.307692307693,4223.589743589744,4253.333333333334,4093.8461538461543,4401.538461538462,4107.6923076923085,4295.384615384616,4310.769230769231,4432.820512820514,4400.512820512821,1681.0,1684.0,994.268,955.14111328125,0.0,0.0,0.0,0.0
992631,13.0,0.0,241.0,4494.871794871796,4169.74358974359,4309.743589743591,4830.769230769231,3787.1794871794878,4220.512820512821,4254.358974358975,4118.974358974359,4420.512820512821,4111.794871794872,4299.48717948718,4310.256410256411,4433.846153846154,4404.615384615385,1681.0,1682.0,994.276,955.2662353515625,0.0,0.0,0.0,0.0
992631,14.0,0.0,487.0,4495.8974358974365,4171.282051282052,4313.333333333334,4831.794871794872,3792.307692307693,4223.589743589744,4258.974358974359,4117.435897435898,4419.48717948718,4109.74358974359,4298.461538461539,4308.717948717949,4436.410256410257,4405.641025641026,1682.0,1682.0,994.284,955.2662353515625,0.0,0.0,0.0,0.0
992631,15.0,0.0,438.0,4495.384615384616,4169.2307692307695,4315.384615384616,4829.2307692307695,3796.9230769230776,4228.205128205129,4253.333333333334,4095.3846153846157,4400.512820512821,4103.589743589744,4292.820512820514,4310.256410256411,4434.871794871796,4404.102564102564,1682.0,1682.0,994.29,955.2662353515625,0.0,0.0,0.0,0.0
992632,16.0,0.0,0.0,4494.358974358975,4166.666666666667,4310.769230769231,4826.666666666667,3791.2820512820517,4231.794871794872,4242.564102564103,4090.7692307692314,4395.8974358974365,4100.512820512821,4286.153846153847,4309.2307692307695,4426.666666666667,4401.025641025642,1682.0,1682.0,994.298,955.2662353515625,0.0,0.0,0.0,0.0
992632,17.0,0.0,0.0,4494.358974358975,4169.74358974359,4310.256410256411,4826.666666666667,3787.692307692308,4225.128205128206,4248.205128205129,4103.076923076924,4409.743589743591,4104.615384615385,4291.282051282052,4310.769230769231,4425.128205128206,4405.128205128206,1681.0,1682.0,994.306,955.2662353515625,0.0,0.0,0.0,0.0
992632,18.0,0.0,0.0,4500.000000000001,4172.307692307693,4322.051282051282,4828.717948717949,3791.7948717948725,4215.384615384616,4260.000000000001,4117.435897435898,4421.025641025642,4114.358974358975,4307.6923076923085,4318.461538461539,4437.948717948719,4417.435897435898,1682.0,1683.0,994.314,955.2662353515625,0.0,0.0,0.0,0.0
992632,19.0,0.0,0.0,4506.153846153847,4170.769230769231,4329.2307692307695,4830.256410256411,3796.9230769230776,4222.051282051282,4258.461538461539,4113.333333333334,4415.8974358974365,4115.384615384616,4311.282051282052,4319.48717948718,4446.153846153847,4423.076923076924,1681.0,1683.0,994.322,955.2662353515625,0.0,0.0,0.0,0.0
992633,20.0,0.0,0.0,4504.102564102564,4171.282051282052,4326.153846153847,4830.769230769231,3798.9743589743593,4233.333333333334,4253.846153846154,4101.538461538462,4413.333333333334,4110.769230769231,4308.205128205129,4313.846153846154,4441.025641025642,4419.48717948718,1680.0,1684.0,994.33,955.2662353515625,0.0,0.0,0.0,0.0
992633,21.0,0.0,0.0,4502.051282051282,4174.358974358975,4322.051282051282,4831.794871794872,3794.8717948717954,4226.666666666667,4256.410256410257,4108.717948717949,4421.538461538462,4114.871794871796,4310.256410256411,4312.820512820514,4438.974358974359,4421.025641025642,1681.0,1683.0,994.337,955.2662353515625,0.0,0.0,0.0,0.0
992633,22.0,0.0,0.0,4501.538461538462,4172.307692307693,4322.564102564103,4832.307692307693,3790.2564102564106,4215.8974358974365,4255.384615384616,4109.2307692307695,4413.846153846154,4114.871794871796,4308.205128205129,4313.846153846154,4441.025641025642,4421.538461538462,1679.0,1684.0,994.345,955.2662353515625,0.0,0.0,0.0,0.0
992633,23.0,0.0,0.0,4491.794871794872,4167.179487179487,4318.461538461539,4826.153846153847,3788.717948717949,4217.948717948719,4247.6923076923085,4088.717948717949,4395.384615384616,4102.564102564103,4301.538461538462,4310.256410256411,4433.333333333334,4412.820512820514,1680.0,1684.0,994.353,955.2662353515625,0.0,0.0,0.0,0.0
992633,24.0,0.0,0.0,4483.589743589744,4165.641025641026,4306.666666666667,4818.461538461539,3784.1025641025644,4220.512820512821,4242.051282051282,4075.8974358974365,4386.666666666667,4093.8461538461543,4290.769230769231,4304.102564102564,4418.974358974359,4404.102564102564,1680.0,1684.0,994.361,955.2662353515625,0.0,0.0,0.0,0.0
992633,25.0,0.0,0.0,4485.641025641026,4167.179487179487,4303.076923076924,4815.384615384616,3782.0512820512827,4216.923076923077,4244.102564102564,4093.333333333334,4392.307692307693,4096.410256410257,4280.512820512821,4304.102564102564,4411.794871794872,4397.435897435898,1680.0,1685.0,994.369,955.2662353515625,0.0,0.0,0.0,0.0
992633,26.0,0.0,0.0,4485.641025641026,4164.102564102564,4307.179487179487,4816.923076923077,3785.6410256410263,4214.358974358975,4248.717948717949,4114.358974358975,4404.102564102564,4098.461538461539,4276.410256410257,4306.666666666667,4410.256410256411,4390.769230769231,1681.0,1685.0,994.376,955.2662353515625,0.0,0.0,0.0,0.0
992634,27.0,0.0,0.0,4482.051282051282,4161.538461538462,4304.102564102564,4814.358974358975,3786.666666666667,4228.205128205129,4249.74358974359,4100.512820512821,4402.051282051282,4095.3846153846157,4273.333333333334,4304.102564102564,4407.179487179487,4387.179487179487,1680.0,1686.0,994.384,955.2662353515625,0.0,0.0,0.0,0.0
992634,28.0,0.0,0.0,4484.102564102564,4165.128205128206,4300.000000000001,4812.820512820514,3786.1538461538466,4237.435897435898,4250.256410256411,4080.5128205128212,4393.846153846154,4093.8461538461543,4277.435897435898,4305.128205128206,4413.333333333334,4391.282051282052,1680.0,1685.0,994.392,955.2662353515625,0.0,0.0,0.0,0.0
992754,29.0,0.0,0.0,4491.794871794872,4168.717948717949,4305.128205128206,4821.025641025642,3787.1794871794878,4222.051282051282,4256.410256410257,4103.076923076924,4410.769230769231,4101.538461538462,4293.333333333334,4311.794871794872,4428.717948717949,4400.512820512821,1680.0,1685.0,994.4,955.391357421875,0.0,0.0,0.0,0.0
992754,30.0,0.0,0.0,4492.820512820514,4167.6923076923085,4310.769230769231,4823.589743589744,3788.717948717949,4214.358974358975,4263.076923076924,4142.051282051282,4435.8974358974365,4109.74358974359,4300.000000000001,4311.282051282052,4434.358974358975,4403.589743589744,1680.0,1683.0,994.408,955.391357421875,0.0,0.0,0.0,0.0
992754,31.0,0.0,0.0,4490.256410256411,4167.6923076923085,4310.769230769231,4822.564102564103,3787.692307692308,4219.48717948718,4260.000000000001,4135.384615384616,4429.743589743591,4108.717948717949,4292.307692307693,4306.666666666667,4427.6923076923085,4394.871794871796,1679.0,1684.0,994.416,955.391357421875,0.0,0.0,0.0,0.0
992754,32.0,0.0,0.0,4488.205128205129,4167.179487179487,4306.153846153847,4823.589743589744,3784.1025641025644,4212.820512820514,4251.794871794872,4104.102564102564,4409.743589743591,4101.025641025642,4287.6923076923085,4308.205128205129,4420.000000000001,4384.615384615385,1680.0,1683.0,994.423,955.391357421875,0.0,0.0,0.0,0.0
992755,33.0,0.0,0.0,4485.641025641026,4167.179487179487,4302.564102564103,4821.025641025642,3783.076923076924,4210.769230769231,4247.6923076923085,4098.461538461539,4403.589743589744,4097.948717948719,4284.102564102564,4308.205128205129,4417.435897435898,4383.076923076924,1679.0,1683.0,994.431,955.391357421875,0.0,0.0,0.0,0.0
992756,34.0,0.0,0.0,4484.615384615385,4168.717948717949,4302.564102564103,4820.512820512821,3785.1282051282055,4219.48717948718,4247.6923076923085,4110.256410256411,4409.743589743591,4101.025641025642,4278.461538461539,4306.153846153847,4415.8974358974365,4381.025641025642,1680.0,1683.0,994.439,955.391357421875,0.0,0.0,0.0,0.0
992756,35.0,0.0,0.0,4484.102564102564,4167.179487179487,4300.512820512821,4818.974358974359,3786.1538461538466,4219.48717948718,4251.282051282052,4107.179487179487,4408.717948717949,4098.461538461539,4276.923076923077,4305.641025641026,4414.358974358975,4372.820512820514,1679.0,1683.0,994.447,955.391357421875,0.0,0.0,0.0,0.0
992757,36.0,0.0,0.0,4483.589743589744,4166.666666666667,4300.000000000001,4818.974358974359,3784.615384615385,4219.48717948718,4257.435897435898,4091.2820512820517,4397.948717948719,4091.7948717948725,4275.8974358974365,4303.076923076924,4413.333333333334,4369.2307692307695,1679.0,1684.0,994.455,955.391357421875,0.0,0.0,0.0,0.0
992757,37.0,0.0,0.0,4485.641025641026,4169.74358974359,4305.128205128206,4822.051282051282,3791.7948717948725,4232.820512820514,4260.000000000001,4088.717948717949,4393.333333333334,4093.8461538461543,4273.333333333334,4301.025641025642,4414.358974358975,4376.923076923077,1679.0,1684.0,994.462,955.391357421875,0.0,0.0,0.0,0.0
992757,38.0,0.0,0.0,4481.538461538462,4166.666666666667,4297.948717948719,4819.48717948718,3796.9230769230776,4241.025641025642,4256.923076923077,4094.8717948717954,4395.8974358974365,4096.923076923077,4269.74358974359,4301.025641025642,4408.717948717949,4373.846153846154,1678.0,1686.0,994.47,955.391357421875,0.0,0.0,0.0,0.0
992757,39.0,0.0,0.0,4483.076923076924,4167.179487179487,4294.358974358975,4817.948717948719,3794.358974358975,4234.358974358975,4255.8974358974365,4096.923076923077,4402.564102564103,4096.410256410257,4275.384615384616,4303.589743589744,4409.2307692307695,4368.717948717949,1679.0,1685.0,994.478,955.391357421875,0.0,0.0,0.0,0.0
992757,40.0,0.0,0.0,4504.615384615385,4177.435897435898,4316.923076923077,4831.282051282052,3794.358974358975,4221.538461538462,4264.615384615385,4111.794871794872,4422.564102564103,4109.2307692307695,4300.512820512821,4313.333333333334,4433.333333333334,4390.256410256411,1678.0,1686.0,994.486,955.391357421875,0.0,0.0,0.0,0.0
992757,41.0,0.0,0.0,4515.384615384616,4179.48717948718,4331.282051282052,4839.48717948718,3796.9230769230776,4215.8974358974365,4270.256410256411,4131.282051282052,4443.076923076924,4121.025641025642,4315.8974358974365,4318.461538461539,4453.846153846154,4410.769230769231,1679.0,1685.0,994.494,955.391357421875,0.0,0.0,0.0,0.0
992758,42.0,0.0,0.0,4497.948717948719,4170.256410256411,4317.435897435898,4828.717948717949,3794.8717948717954,4220.000000000001,4262.051282051282,4124.615384615385,4439.48717948718,4110.256410256411,4298.974358974359,4309.743589743591,4444.615384615385,4398.974358974359,1679.0,1685.0,994.502,955.391357421875,0.0,0.0,0.0,0.0
992758,43.0,0.0,0.0,4490.769230769231,4168.205128205129,4309.743589743591,4826.666666666667,3790.2564102564106,4227.179487179487,4256.923076923077,4107.6923076923085,4426.153846153847,4103.076923076924,4289.74358974359,4305.641025641026,4429.2307692307695,4387.6923076923085,1680.0,1684.0,994.509,955.391357421875,0.0,0.0,0.0,0.0
992758,44.0,0.0,0.0,4504.102564102564,4172.307692307693,4320.512820512821,4832.820512820514,3792.307692307693,4228.205128205129,4260.000000000001,4106.666666666667,4424.102564102564,4113.333333333334,4306.153846153847,4313.846153846154,4436.410256410257,4398.461538461539,1679.0,1684.0,994.517,955.391357421875,0.0,0.0,0.0,0.0
992884,45.0,0.0,0.0,4506.153846153847,4172.820512820514,4324.615384615385,4831.794871794872,3794.358974358975,4224.615384615385,4258.461538461539,4103.076923076924,4421.025641025642,4112.820512820514,4309.2307692307695,4315.384615384616,4447.6923076923085,4403.076923076924,1680.0,1685.0,994.525,955.5164794921875,0.0,0.0,0.0,0.0
992884,46.0,0.0,0.0,4488.205128205129,4169.74358974359,4311.794871794872,4826.666666666667,3793.8461538461543,4228.205128205129,4253.846153846154,4088.717948717949,4412.307692307693,4098.974358974359,4288.205128205129,4306.153846153847,4434.871794871796,4388.205128205129,1680.0,1684.0,994.533,955.5164794921875,0.0,0.0,0.0,0.0
992884,47.0,0.0,0.0,4483.589743589744,4167.179487179487,4302.564102564103,4824.102564102564,3795.3846153846157,4237.948717948719,4255.8974358974365,4094.8717948717954,4413.846153846154,4097.948717948719,4278.974358974359,4304.615384615385,4417.948717948719,4379.48717948718,1680.0,1687.0,994.541,955.5164794921875,0.0,0.0,0.0,0.0
992885,48.0,0.0,0.0,4504.102564102564,4173.333333333334,4316.410256410257,4829.2307692307695,3799.48717948718,4234.871794871796,4261.538461538462,4114.871794871796,4427.179487179487,4111.794871794872,4293.846153846154,4312.307692307693,4429.743589743591,4392.820512820514,1680.0,1686.0,994.549,955.5164794921875,0.0,0.0,0.0,0.0
992885,49.0,0.0,0.0,4518.974358974359,4182.051282051282,4329.2307692307695,4833.333333333334,3800.512820512821,4222.051282051282,4261.025641025642,4113.333333333334,4434.358974358975,4117.948717948719,4306.153846153847,4316.923076923077,4453.333333333334,4407.6923076923085,1679.0,1686.0,994.556,955.5164794921875,0.0,0.0,0.0,0.0
992885,50.0,0.0,0.0,4511.282051282052,4175.384615384616,4322.051282051282,4830.769230769231,3796.9230769230776,4218.974358974359,4264.102564102564,4113.846153846154,4438.974358974359,4113.333333333334,4305.641025641026,4314.871794871796,4453.333333333334,4405.641025641026,1680.0,1685.0,994.564,955.5164794921875,0.0,0.0,0.0,0.0
992885,51.0,0.0,0.0,4502.051282051282,4166.666666666667,4310.769230769231,4829.2307692307695,3800.512820512821,4230.256410256411,4272.820512820514,4130.256410256411,4437.435897435898,4110.256410256411,4298.461538461539,4310.256410256411,4436.923076923077,4395.384615384616,1680.0,1684.0,994.572,955.5164794921875,0.0,0.0,0.0,0.0
992885,52.0,0.0,0.0,4498.461538461539,4169.2307692307695,4312.307692307693,4829.2307692307695,3801.0256410256416,4235.8974358974365,4267.6923076923085,4118.974358974359,4420.000000000001,4109.74358974359,4292.307692307693,4308.205128205129,4430.769230769231,4389.2307692307695,1680.0,1684.0,994.58,955.5164794921875,0.0,0.0,0.0,0.0
992885,53.0,0.0,0.0,4497.435897435898,4171.282051282052,4315.8974358974365,4827.179487179488,3791.2820512820517,4227.6923076923085,4250.769230769231,4089.7435897435903,4408.205128205129,4107.179487179487,4295.384615384616,4311.282051282052,4437.435897435898,4391.282051282052,1680.0,1685.0,994.588,955.5164794921875,0.0,0.0,0.0,0.0
992886,54.0,0.0,0.0,4498.974358974359,4169.74358974359,4313.846153846154,4827.6923076923085,3784.1025641025644,4216.923076923077,4248.205128205129,4096.410256410257,4416.410256410257,4105.641025641026,4301.025641025642,4313.846153846154,4439.48717948718,4393.846153846154,1681.0,1684.0,994.595,955.5164794921875,0.0,0.0,0.0,0.0
992886,55.0,0.0,0.0,4492.820512820514,4166.666666666667,4307.179487179487,4823.589743589744,3784.615384615385,4216.923076923077,4254.871794871796,4111.794871794872,4417.948717948719,4101.025641025642,4292.820512820514,4311.794871794872,4428.205128205129,4387.179487179487,1681.0,1685.0,994.603,955.5164794921875,0.0,0.0,0.0,0.0
992886,56.0,0.0,0.0,4480.512820512821,4160.512820512821,4293.333333333334,4811.282051282052,3785.6410256410263,4226.153846153847,4251.282051282052,4093.8461538461543,4402.564102564103,4091.2820512820517,4276.410256410257,4306.153846153847,4412.307692307693,4375.384615384616,1681.0,1684.0,994.611,955.5164794921875,0.0,0.0,0.0,0.0
992886,57.0,0.0,0.0,4483.076923076924,4163.589743589744,4290.769230769231,4812.307692307693,3788.205128205129,4225.128205128206,4248.717948717949,4091.2820512820517,4405.128205128206,4094.358974358975,4274.358974358975,4306.153846153847,4413.846153846154,4377.435897435898,1681.0,1685.0,994.619,955.5164794921875,0.0,0.0,0.0,0.0
992886,58.0,0.0,0.0,4501.025641025642,4174.358974358975,4308.205128205129,4829.2307692307695,3791.7948717948725,4214.358974358975,4254.358974358975,4117.435897435898,4430.256410256411,4111.282051282052,4291.794871794872,4314.358974358975,4438.461538461539,4394.871794871796,1680.0,1685.0,994.627,955.5164794921875,0.0,0.0,0.0,0.0
992886,59.0,0.0,0.0,4510.256410256411,4176.410256410257,4321.025641025642,4836.410256410257,3788.717948717949,4210.769230769231,4254.358974358975,4115.384615384616,4435.384615384616,4115.8974358974365,4306.666666666667,4316.923076923077,4456.410256410257,4404.615384615385,1680.0,1686.0,994.635,955.5164794921875,0.0,0.0,0.0,0.0
992887,60.0,0.0,0.0,4504.102564102564,4172.307692307693,4315.384615384616,4830.256410256411,3786.666666666667,4213.333333333334,4247.6923076923085,4092.820512820513,4418.461538461539,4106.153846153847,4301.025641025642,4310.769230769231,4448.205128205129,4397.435897435898,1681.0,1685.0,994.642,955.5164794921875,0.0,0.0,0.0,0.0
993011,61.0,0.0,0.0,4498.974358974359,4170.769230769231,4310.769230769231,4828.717948717949,3788.717948717949,4213.846153846154,4246.153846153847,4088.717948717949,4409.743589743591,4101.538461538462,4289.74358974359,4307.179487179487,4438.461538461539,4393.846153846154,1679.0,1686.0,994.651,955.6416015625,0.0,0.0,0.0,0.0
993011,62.0,0.0,0.0,4498.974358974359,4170.256410256411,4311.282051282052,4831.282051282052,3788.717948717949,4216.410256410257,4245.641025641026,4092.307692307693,4409.743589743591,4102.051282051282,4290.769230769231,4306.666666666667,4438.974358974359,4395.384615384616,1680.0,1686.0,994.658,955.6416015625,0.0,0.0,0.0,0.0
993011,63.0,0.0,0.0,4495.8974358974365,4168.717948717949,4305.128205128206,4829.743589743591,3785.1282051282055,4216.923076923077,4244.102564102564,4094.8717948717954,4409.743589743591,4099.48717948718,4290.769230769231,4304.102564102564,4433.333333333334,4388.205128205129,1679.0,1686.0,994.667,955.6416015625,0.0,0.0,0.0,0.0
993012,64.0,0.0,474.0,4491.794871794872,4167.179487179487,4301.025641025642,4826.666666666667,3785.6410256410263,4213.333333333334,4248.205128205129,4099.48717948718,4413.333333333334,4098.974358974359,4285.641025641026,4304.102564102564,4428.205128205129,4383.589743589744,1680.0,1685.0,994.674,955.6416015625,0.0,0.0,0.0,0.0
993012,65.0,0.0,279.0,4493.846153846154,4167.6923076923085,4302.564102564103,4825.128205128206,3789.2307692307695,4217.948717948719,4253.846153846154,4098.461538461539,4412.307692307693,4102.564102564103,4287.6923076923085,4305.128205128206,4431.282051282052,4392.307692307693,1680.0,1684.0,994.681,955.6416015625,0.0,0.0,0.0,0.0
993012,66.0,0.0,448.0,4499.48717948718,4168.717948717949,4305.641025641026,4824.615384615386,3788.717948717949,4226.153846153847,4255.384615384616,4098.461538461539,4408.717948717949,4105.641025641026,4291.794871794872,4305.128205128206,4432.820512820514,4394.358974358975,1679.0,1685.0,994.689,955.6416015625,0.0,0.0,0.0,0.0
993012,67.0,0.0,353.0,4498.461538461539,4167.6923076923085,4305.641025641026,4826.153846153847,3790.7692307692314,4223.076923076924,4252.307692307693,4103.076923076924,4410.256410256411,4103.076923076924,4290.256410256411,4307.6923076923085,4430.256410256411,4387.6923076923085,1680.0,1683.0,994.697,955.6416015625,0.0,0.0,0.0,0.0
993013,68.0,0.0,456.0,4496.923076923077,4170.256410256411,4309.743589743591,4828.717948717949,3793.8461538461543,4215.8974358974365,4252.820512820514,4098.974358974359,4414.871794871796,4102.564102564103,4296.410256410257,4312.307692307693,4436.410256410257,4392.307692307693,1679.0,1684.0,994.705,955.6416015625,0.0,0.0,0.0,0.0
993014,69.0,0.0,548.0,4505.128205128206,4173.846153846154,4318.974358974359,4831.794871794872,3794.358974358975,4210.769230769231,4259.48717948718,4102.051282051282,4424.615384615385,4110.256410256411,4307.179487179487,4313.846153846154,4447.6923076923085,4403.076923076924,1680.0,1683.0,994.713,955.6416015625,0.0,0.0,0.0,0.0
993014,70.0,0.0,533.0,4512.307692307693,4173.846153846154,4322.051282051282,4834.871794871796,3796.410256410257,4214.358974358975,4266.153846153847,4117.948717948719,4432.820512820514,4115.384615384616,4305.641025641026,4309.743589743591,4451.282051282052,4404.102564102564,1679.0,1683.0,994.721,955.6416015625,0.0,0.0,0.0,0.0
993014,71.0,0.0,478.0,4505.128205128206,4170.256410256411,4320.000000000001,4833.846153846154,3801.538461538462,4222.564102564103,4263.589743589744,4119.48717948718,4429.2307692307695,4113.333333333334,4296.410256410257,4309.2307692307695,4447.179487179487,4401.538461538462,1679.0,1683.0,994.728,955.6416015625,0.0,0.0,0.0,0.0
993015,72.0,0.0,420.0,4500.512820512821,4169.74358974359,4320.000000000001,4829.743589743591,3800.512820512821,4222.051282051282,4260.512820512821,4112.307692307693,4421.538461538462,4111.794871794872,4297.948717948719,4313.846153846154,4444.615384615385,4401.025641025642,1678.0,1683.0,994.736,955.6416015625,0.0,0.0,0.0,0.0
993015,73.0,0.0,455.0,4505.128205128206,4171.794871794872,4321.538461538462,4828.717948717949,3798.461538461539,4224.102564102564,4267.179487179487,4112.820512820514,4417.948717948719,4112.820512820514,4303.589743589744,4314.358974358975,4445.128205128206,4403.589743589744,1680.0,1683.0,994.744,955.6416015625,0.0,0.0,0.0,0.0
993015,74.0,0.0,487.0,4498.974358974359,4171.282051282052,4318.974358974359,4829.743589743591,3801.0256410256416,4233.846153846154,4271.282051282052,4104.615384615385,4413.333333333334,4108.205128205129,4298.461538461539,4308.717948717949,4441.025641025642,4403.589743589744,1678.0,1683.0,994.752,955.6416015625,0.0,0.0,0.0,0.0
993015,75.0,0.0,438.0,4488.717948717949,4169.74358974359,4309.743589743591,4828.717948717949,3802.0512820512827,4234.358974358975,4266.666666666667,4096.923076923077,4412.820512820514,4105.128205128206,4288.717948717949,4304.102564102564,4435.384615384616,4393.846153846154,1680.0,1684.0,994.76,955.6416015625,0.0,0.0,0.0,0.0
993015,76.0,0.0,449.0,4484.615384615385,4169.74358974359,4300.000000000001,4824.102564102564,3797.435897435898,4229.2307692307695,4261.025641025642,4102.564102564103,4414.358974358975,4105.128205128206,4287.179487179487,4303.076923076924,4431.282051282052,4381.025641025642,1679.0,1683.0,994.768,955.6416015625,0.0,0.0,0.0,0.0
993133,77.0,0.0,241.0,4485.128205128206,4169.74358974359,4298.461538461539,4825.641025641026,3795.3846153846157,4231.794871794872,4257.948717948719,4102.564102564103,4409.2307692307695,4101.538461538462,4289.2307692307695,4304.102564102564,4427.6923076923085,4380.000000000001,1680.0,1685.0,994.775,955.7666625976562,0.0,0.0,0.0,0.0
993133,78.0,0.0,487.0,4494.358974358975,4170.769230769231,4305.128205128206,4830.256410256411,3795.8974358974365,4229.74358974359,4264.102564102564,4101.538461538462,4410.256410256411,4104.102564102564,4293.846153846154,4307.6923076923085,4433.333333333334,4387.6923076923085,1680.0,1683.0,994.783,955.7666625976562,0.0,0.0,0.0,0.0
993133,79.0,0.0,438.0,4494.358974358975,4170.256410256411,4305.641025641026,4823.076923076924,3794.8717948717954,4222.564102564103,4266.666666666667,4108.717948717949,4415.8974358974365,4106.153846153847,4293.846153846154,4307.6923076923085,4433.333333333334,4384.615384615385,1679.0,1684.0,994.791,955.7666625976562,0.0,0.0,0.0,0.0
993133,80.0,0.0,449.0,4484.102564102564,4167.179487179487,4300.512820512821,4816.410256410257,3794.8717948717954,4225.641025641026,4261.025641025642,4114.871794871796,4414.871794871796,4102.051282051282,4283.589743589744,4304.615384615385,4422.564102564103,4376.410256410257,1681.0,1683.0,994.8,955.7666625976562,0.0,0.0,0.0,0.0
993133,81.0,0.0,241.0,4494.358974358975,4170.256410256411,4305.641025641026,4825.641025641026,3798.9743589743593,4230.769230769231,4261.538461538462,4121.025641025642,4421.025641025642,4108.205128205129,4292.820512820514,4309.743589743591,4430.769230769231,4387.6923076923085,1681.0,1683.0,994.807,955.7666625976562,0.0,0.0,0.0,0.0
993133,82.0,0.0,487.0,4515.8974358974365,4178.974358974359,4320.512820512821,4837.435897435898,3803.076923076924,4227.6923076923085,4270.769230769231,4128.205128205129,4436.923076923077,4120.000000000001,4318.974358974359,4315.8974358974365,4454.871794871796,4406.666666666667,1680.0,1682.0,994.814,955.7666625976562,0.0,0.0,0.0,0.0
993134,83.0,0.0,438.0,4508.717948717949,4175.384615384616,4320.512820512821,4832.307692307693,3801.0256410256416,4226.666666666667,4272.820512820514,4126.153846153847,4435.384615384616,4114.358974358975,4312.820512820514,4315.8974358974365,4452.307692307693,4401.025641025642,1681.0,1683.0,994.822,955.7666625976562,0.0,0.0,0.0,0.0
993134,84.0,0.0,449.0,4491.282051282052,4166.153846153847,4306.666666666667,4818.974358974359,3796.9230769230776,4228.205128205129,4265.641025641026,4108.717948717949,4412.307692307693,4102.564102564103,4286.153846153847,4310.256410256411,4428.205128205129,4383.076923076924,1681.0,1683.0,994.83,955.7666625976562,0.0,0.0,0.0,0.0
993134,85.0,0.0,241.0,4489.2307692307695,4168.205128205129,4302.564102564103,4820.000000000001,3794.8717948717954,4226.153846153847,4258.974358974359,4086.666666666667,4393.333333333334,4100.000000000001,4282.051282051282,4303.076923076924,4419.48717948718,4375.8974358974365,1680.0,1683.0,994.838,955.7666625976562,0.0,0.0,0.0,0.0
993134,86.0,0.0,487.0,4487.179487179488,4171.282051282052,4302.564102564103,4822.564102564103,3790.7692307692314,4224.615384615385,4253.333333333334,4080.5128205128212,4392.307692307693,4097.435897435898,4286.666666666667,4301.025641025642,4418.461538461539,4372.307692307693,1681.0,1684.0,994.846,955.7666625976562,0.0,0.0,0.0,0.0
993134,87.0,0.0,438.0,4484.615384615385,4168.205128205129,4299.48717948718,4814.871794871796,3786.666666666667,4223.076923076924,4250.769230769231,4100.000000000001,4405.128205128206,4095.8974358974365,4281.025641025642,4305.128205128206,4414.358974358975,4371.794871794872,1681.0,1683.0,994.853,955.7666625976562,0.0,0.0,0.0,0.0
993134,88.0,0.0,449.0,4493.333333333334,4167.6923076923085,4303.589743589744,4818.461538461539,3785.6410256410263,4215.384615384616,4253.333333333334,4118.461538461539,4419.48717948718,4102.051282051282,4286.153846153847,4311.282051282052,4422.564102564103,4384.615384615385,1680.0,1685.0,994.861,955.7666625976562,0.0,0.0,0.0,0.0
993134,89.0,0.0,241.0,4499.48717948718,4170.256410256411,4309.2307692307695,4829.2307692307695,3787.692307692308,4212.820512820514,4255.8974358974365,4123.076923076924,4429.2307692307695,4107.6923076923085,4300.000000000001,4313.333333333334,4440.000000000001,4394.358974358975,1681.0,1684.0,994.869,955.7666625976562,0.0,0.0,0.0,0.0
993134,90.0,0.0,487.0,4489.743589743591,4166.666666666667,4302.051282051282,4819.48717948718,3786.666666666667,4218.461538461539,4250.256410256411,4106.666666666667,4418.461538461539,4100.000000000001,4292.820512820514,4306.153846153847,4435.384615384616,4383.589743589744,1680.0,1685.0,994.877,955.7666625976562,0.0,0.0,0.0,0.0
993135,91.0,0.0,438.0,4484.615384615385,4166.666666666667,4295.8974358974365,4809.2307692307695,3784.1025641025644,4215.8974358974365,4242.564102564103,4082.0512820512827,4398.461538461539,4092.820512820513,4281.538461538462,4301.538461538462,4424.102564102564,4377.948717948719,1681.0,1685.0,994.885,955.7666625976562,0.0,0.0,0.0,0.0
993135,92.0,0.0,449.0,4491.282051282052,4170.256410256411,4300.000000000001,4818.461538461539,3784.1025641025644,4208.205128205129,4246.153846153847,4095.3846153846157,4406.153846153847,4099.48717948718,4285.128205128206,4305.128205128206,4426.666666666667,4386.153846153847,1680.0,1684.0,994.893,955.7666625976562,0.0,0.0,0.0,0.0
993260,93.0,0.0,241.0,4484.615384615385,4162.564102564103,4297.948717948719,4817.948717948719,3785.1282051282055,4214.358974358975,4252.820512820514,4115.8974358974365,4417.948717948719,4101.538461538462,4283.076923076924,4303.076923076924,4422.051282051282,4382.051282051282,1681.0,1685.0,994.901,955.8917846679688,0.0,0.0,0.0,0.0
993260,94.0,0.0,487.0,4474.871794871796,4155.8974358974365,4292.307692307693,4810.769230769231,3784.1025641025644,4223.589743589744,4251.794871794872,4091.2820512820517,4400.512820512821,4092.820512820513,4269.2307692307695,4298.974358974359,4412.820512820514,4369.2307692307695,1680.0,1684.0,994.908,955.8917846679688,0.0,0.0,0.0,0.0
993260,95.0,0.0,438.0,4482.051282051282,4163.589743589744,4293.333333333334,4815.384615384616,3782.564102564103,4217.435897435898,4247.6923076923085,4077.9487179487187,4394.358974358975,4091.7948717948725,4267.179487179487,4301.538461538462,4416.410256410257,4368.205128205129,1680.0,1685.0,994.917,955.8917846679688,0.0,0.0,0.0,0.0
993261,96.0,0.0,449.0,4490.256410256411,4169.74358974359,4298.974358974359,4815.384615384616,3782.0512820512827,4207.6923076923085,4247.179487179487,4106.666666666667,4413.333333333334,4097.435897435898,4280.512820512821,4305.128205128206,4421.538461538462,4375.384615384616,1680.0,1684.0,994.924,955.8917846679688,0.0,0.0,0.0,0.0
993261,97.0,0.0,241.0,4487.179487179488,4166.666666666667,4302.564102564103,4814.358974358975,3784.1025641025644,4212.820512820514,4249.2307692307695,4109.74358974359,4415.8974358974365,4098.461538461539,4286.666666666667,4306.666666666667,4424.615384615385,4379.48717948718,1680.0,1685.0,994.933,955.8917846679688,0.0,0.0,0.0,0.0
993261,98.0,0.0,487.0,4489.743589743591,4167.179487179487,4306.666666666667,4823.076923076924,3785.6410256410263,4222.051282051282,4249.2307692307695,4090.7692307692314,4408.205128205129,4101.538461538462,4287.179487179487,4310.769230769231,4432.820512820514,4387.179487179487,1681.0,1684.0,994.94,955.8917846679688,0.0,0.0,0.0,0.0
993261,99.0,0.0,438.0,4496.410256410257,4170.256410256411,4309.743589743591,4825.128205128206,3786.666666666667,4223.589743589744,4250.769230769231,4098.974358974359,4411.282051282052,4104.102564102564,4287.6923076923085,4312.820512820514,4433.333333333334,4392.307692307693,1680.0,1685.0,994.947,955.8917846679688,0.0,0.0,0.0,0.0
993261,100.0,0.0,449.0,4488.717948717949,4165.128205128206,4305.128205128206,4816.410256410257,3786.666666666667,4224.102564102564,4258.461538461539,4110.769230769231,4410.769230769231,4099.48717948718,4281.025641025642,4311.282051282052,4424.615384615385,4387.179487179487,1682.0,1683.0,994.955,955.8917846679688,0.0,0.0,0.0,0.0
993261,101.0,0.0,241.0,4478.461538461539,4160.512820512821,4300.512820512821,4812.820512820514,3785.6410256410263,4226.153846153847,4257.435897435898,4100.512820512821,4403.589743589744,4096.923076923077,4272.307692307693,4309.743589743591,4421.538461538462,4381.538461538462,1680.0,1685.0,994.963,955.8917846679688,0.0,0.0,0.0,0.0
993262,102.0,0.0,487.0,4488.205128205129,4165.128205128206,4303.589743589744,4815.8974358974365,3785.1282051282055,4223.589743589744,4244.615384615385,4094.8717948717954,4404.615384615385,4101.538461538462,4277.435897435898,4309.743589743591,4424.102564102564,4388.205128205129,1682.0,1684.0,994.971,955.8917846679688,0.0,0.0,0.0,0.0
993262,103.0,0.0,438.0,4501.538461538462,4169.74358974359,4312.307692307693,4822.051282051282,3785.1282051282055,4213.846153846154,4245.641025641026,4110.769230769231,4421.538461538462,4106.666666666667,4291.282051282052,4311.794871794872,4433.333333333334,4403.589743589744,1682.0,1684.0,994.979,955.8917846679688,0.0,0.0,0.0,0.0
993262,104.0,0.0,449.0,4499.48717948718,4168.717948717949,4313.333333333334,4824.102564102564,3783.589743589744,4208.205128205129,4255.8974358974365,4119.48717948718,4424.102564102564,4105.128205128206,4292.307692307693,4312.820512820514,4437.948717948719,4406.153846153847,1682.0,1685.0,994.986,955.8917846679688,0.0,0.0,0.0,0.0
993262,105.0,0.0,241.0,4495.8974358974365,4166.666666666667,4309.2307692307695,4819.48717948718,3783.076923076924,4211.282051282052,4249.2307692307695,4101.025641025642,4406.153846153847,4100.512820512821,4286.666666666667,4311.282051282052,4431.282051282052,4398.974358974359,1682.0,1685.0,994.995,955.8917846679688,0.0,0.0,0.0,0.0
993262,106.0,0.0,487.0,4491.282051282052,4162.051282051282,4303.076923076924,4812.307692307693,3784.615384615385,4216.923076923077,4240.512820512821,4086.1538461538466,4401.025641025642,4098.461538461539,4281.538461538462,4306.666666666667,4423.076923076924,4391.282051282052,1681.0,1686.0,995.002,955.8917846679688,0.0,0.0,0.0,0.0
993262,107.0,0.0,438.0,4485.641025641026,4158.461538461539,4299.48717948718,4810.769230769231,3784.1025641025644,4220.512820512821,4249.74358974359,4097.435897435898,4413.333333333334,4097.948717948719,4279.48717948718,4303.076923076924,4423.076923076924,4386.153846153847,1682.0,1685.0,995.01,955.8917846679688,0.0,0.0,0.0,0.0
993262,108.0,0.0,449.0,4492.307692307693,4165.641025641026,4309.743589743591,4818.974358974359,3787.1794871794878,4221.025641025642,4258.974358974359,4116.410256410257,4421.538461538462,4103.076923076924,4285.641025641026,4308.717948717949,4431.282051282052,4394.358974358975,1682.0,1685.0,995.018,955.8917846679688,0.0,0.0,0.0,0.0
993388,109.0,0.0,241.0,4501.538461538462,4174.358974358975,4320.512820512821,4830.256410256411,3793.8461538461543,4221.538461538462,4258.974358974359,4123.076923076924,4424.102564102564,4109.74358974359,4291.794871794872,4313.846153846154,4438.974358974359,4407.6923076923085,1681.0,1684.0,995.025,956.0169067382812,0.0,0.0,0.0,0.0
993389,110.0,0.0,487.0,4496.923076923077,4170.769230769231,4320.512820512821,4832.307692307693,3794.8717948717954,4223.589743589744,4257.435897435898,4110.769230769231,4419.48717948718,4107.6923076923085,4291.794871794872,4311.794871794872,4436.923076923077,4406.666666666667,1681.0,1685.0,995.033,956.0169067382812,0.0,0.0,0.0,0.0
993389,111.0,0.0,438.0,4492.820512820514,4168.717948717949,4316.410256410257,4828.717948717949,3794.8717948717954,4227.6923076923085,4255.8974358974365,4095.3846153846157,4407.179487179487,4101.538461538462,4292.307692307693,4310.769230769231,4431.282051282052,4399.48717948718,1681.0,1684.0,995.041,956.0169067382812,0.0,0.0,0.0,0.0
993390,112.0,0.0,449.0,4494.871794871796,4169.74358974359,4311.282051282052,4824.615384615386,3792.307692307693,4231.794871794872,4257.948717948719,4104.102564102564,4409.2307692307695,4101.538461538462,4293.333333333334,4311.282051282052,4427.179487179487,4397.948717948719,1682.0,1685.0,995.05,956.0169067382812,0.0,0.0,0.0,0.0
993390,113.0,0.0,241.0,4492.820512820514,4168.205128205129,4310.256410256411,4821.538461538462,3789.7435897435903,4229.2307692307695,4260.000000000001,4115.8974358974365,4417.948717948719,4103.589743589744,4293.333333333334,4308.717948717949,4427.179487179487,4396.410256410257,1682.0,1685.0,995.057,956.0169067382812,0.0,0.0,0.0,0.0
993391,114.0,0.0,487.0,4491.794871794872,4168.717948717949,4313.846153846154,4824.615384615386,3793.333333333334,4218.974358974359,4257.948717948719,4106.153846153847,4415.384615384616,4107.179487179487,4301.538461538462,4310.769230769231,4433.333333333334,4397.948717948719,1681.0,1685.0,995.066,956.0169067382812,0.0,0.0,0.0,0.0
993391,115.0,0.0,438.0,4498.461538461539,4170.256410256411,4315.384615384616,4829.743589743591,3796.9230769230776,4212.820512820514,4260.512820512821,4110.769230769231,4417.948717948719,4112.307692307693,4308.717948717949,4315.8974358974365,4441.025641025642,4406.666666666667,1681.0,1684.0,995.072,956.0169067382812,0.0,0.0,0.0,0.0
993391,116.0,0.0,449.0,4500.000000000001,4170.256410256411,4313.846153846154,4829.2307692307695,3793.8461538461543,4218.461538461539,4264.102564102564,4128.205128205129,4425.641025641026,4110.769230769231,4304.615384615385,4315.8974358974365,4441.538461538462,4409.743589743591,1681.0,1685.0,995.08,956.0169067382812,0.0,0.0,0.0,0.0
993391,117.0,0.0,241.0,4489.743589743591,4168.717948717949,4306.153846153847,4825.128205128206,3786.666666666667,4226.153846153847,4257.435897435898,4111.794871794872,4413.333333333334,4101.025641025642,4291.282051282052,4307.6923076923085,4427.179487179487,4394.871794871796,1681.0,1684.0,995.088,956.0169067382812,0.0,0.0,0.0,0.0
993391,118.0,0.0,487.0,4477.948717948719,4162.564102564103,4292.307692307693,4816.410256410257,3784.1025641025644,4224.102564102564,4250.256410256411,4083.589743589744,4395.384615384616,4091.2820512820517,4270.256410256411,4298.974358974359,4402.564102564103,4372.820512820514,1681.0,1684.0,995.096,956.0169067382812,0.0,0.0,0.0,0.0
993392,119.0,0.0,438.0,4475.384615384616,4155.8974358974365,4290.769230769231,4810.256410256411,3785.6410256410263,4221.538461538462,4254.358974358975,4097.435897435898,4402.051282051282,4090.7692307692314,4265.641025641026,4299.48717948718,4396.923076923077,4369.2307692307695,1681.0,1684.0,995.104,956.0169067382812,0.0,0.0,0.0,0.0
993392,120.0,0.0,449.0,4482.051282051282,4154.871794871796,4298.974358974359,4812.820512820514,3787.692307692308,4222.564102564103,4255.8974358974365,4107.6923076923085,4406.153846153847,4093.333333333334,4274.871794871796,4302.564102564103,4406.666666666667,4379.48717948718,1679.0,1685.0,995.112,956.0169067382812,0.0,0.0,0.0,0.0
993392,121.0,0.0,241.0,4486.666666666667,4157.948717948719,4298.461538461539,4815.384615384616,3787.1794871794878,4221.025641025642,4249.74358974359,4082.0512820512827,4392.307692307693,4089.7435897435903,4273.333333333334,4300.000000000001,4404.615384615385,4379.48717948718,1681.0,1685.0,995.119,956.0169067382812,0.0,0.0,0.0,0.0
993392,122.0,0.0,487.0,4482.564102564103,4157.948717948719,4295.384615384616,4811.794871794872,3785.6410256410263,4219.48717948718,4247.6923076923085,4075.3846153846157,4390.256410256411,4089.7435897435903,4268.205128205129,4300.512820512821,4402.564102564103,4374.871794871796,1680.0,1684.0,995.127,956.0169067382812,0.0,0.0,0.0,0.0
993392,123.0,0.0,438.0,4480.000000000001,4155.384615384616,4296.410256410257,4811.282051282052,3789.2307692307695,4223.589743589744,4251.282051282052,4100.000000000001,4403.076923076924,4097.435897435898,4275.384615384616,4304.102564102564,4409.743589743591,4377.948717948719,1680.0,1685.0,995.135,956.0169067382812,0.0,0.0,0.0,0.0
993392,124.0,0.0,449.0,4489.743589743591,4158.974358974359,4298.974358974359,4814.871794871796,3795.8974358974365,4225.641025641026,4254.871794871796,4115.384615384616,4411.794871794872,4101.538461538462,4285.128205128206,4307.179487179487,4413.333333333334,4385.128205128206,1680.0,1683.0,995.143,956.0169067382812,0.0,0.0,0.0,0.0
993516,125.0,0.0,241.0,4493.846153846154,4169.74358974359,4303.589743589744,4817.948717948719,3795.8974358974365,4220.000000000001,4252.307692307693,4102.564102564103,4406.153846153847,4100.000000000001,4289.74358974359,4310.256410256411,4415.8974358974365,4390.769230769231,1680.0,1683.0,995.152,956.1420288085938,0.0,0.0,0.0,0.0
993516,126.0,0.0,487.0,4491.282051282052,4171.282051282052,4301.538461538462,4822.564102564103,3787.1794871794878,4213.333333333334,4245.641025641026,4085.1282051282055,4394.871794871796,4097.435897435898,4288.717948717949,4309.2307692307695,4417.948717948719,4391.282051282052,1681.0,1683.0,995.158,956.1420288085938,0.0,0.0,0.0,0.0
993516,127.0,0.0,438.0,4492.820512820514,4164.102564102564,4297.435897435898,4822.564102564103,3784.1025641025644,4211.794871794872,4248.205128205129,4092.820512820513,4401.025641025642,4098.461538461539,4288.717948717949,4310.256410256411,4418.461538461539,4391.794871794872,1681.0,1683.0,995.167,956.1420288085938,0.0,0.0,0.0,0.0
993516,128.0,0.0,449.0,4494.871794871796,4164.615384615385,4299.48717948718,4817.435897435898,3788.205128205129,4210.769230769231,4252.820512820514,4106.666666666667,4416.410256410257,4102.564102564103,4299.48717948718,4315.384615384616,4427.179487179487,4397.948717948719,1681.0,1683.0,995.174,956.1420288085938,0.0,0.0,0.0,0.0
993516,0.0,0.0,474.0,4488.205128205129,4163.589743589744,4295.384615384616,4813.846153846154,3786.666666666667,4209.2307692307695,4246.153846153847,4094.8717948717954,4407.179487179487,4097.948717948719,4303.589743589744,4310.256410256411,4430.769230769231,4395.8974358974365,1680.0,1684.0,995.183,956.1420288085938,0.0,0.0,0.0,0.0
993516,1.0,0.0,279.0,4478.461538461539,4154.358974358975,4287.179487179487,4813.846153846154,3781.538461538462,4207.6923076923085,4238.461538461539,4071.7948717948725,4386.153846153847,4089.23076923077,4289.74358974359,4300.000000000001,4415.8974358974365,4383.589743589744,1681.0,1684.0,995.19,956.1420288085938,0.0,0.0,0.0,0.0
993517,2.0,0.0,448.0,4482.051282051282,4152.820512820514,4288.205128205129,4814.358974358975,3781.538461538462,4206.666666666667,4239.48717948718,4081.538461538462,4395.384615384616,4092.820512820513,4285.641025641026,4302.051282051282,4410.769230769231,4382.051282051282,1680.0,1684.0,995.197,956.1420288085938,0.0,0.0,0.0,0.0
993517,3.0,0.0,353.0,4493.333333333334,4158.461538461539,4291.794871794872,4814.871794871796,3783.589743589744,4206.153846153847,4242.564102564103,4107.6923076923085,4416.410256410257,4095.8974358974365,4291.794871794872,4310.256410256411,4417.435897435898,4389.2307692307695,1681.0,1684.0,995.205,956.1420288085938,0.0,0.0,0.0,0.0
993517,4.0,0.0,456.0,4491.794871794872,4156.410256410257,4286.153846153847,4813.846153846154,3784.1025641025644,4209.2307692307695,4242.051282051282,4097.948717948719,4403.589743589744,4087.1794871794878,4280.000000000001,4307.179487179487,4409.743589743591,4381.538461538462,1680.0,1684.0,995.213,956.1420288085938,0.0,0.0,0.0,0.0
993517,5.0,0.0,548.0,4480.000000000001,4150.769230769231,4280.512820512821,4811.282051282052,3782.0512820512827,4210.769230769231,4237.435897435898,4066.666666666667,4375.384615384616,4083.076923076924,4265.128205128206,4301.538461538462,4397.948717948719,4371.282051282052,1681.0,1685.0,995.221,956.1420288085938,0.0,0.0,0.0,0.0
993517,6.0,0.0,533.0,4483.589743589744,4156.410256410257,4285.128205128206,4813.846153846154,3783.589743589744,4210.256410256411,4238.461538461539,4066.666666666667,4377.948717948719,4090.2564102564106,4275.384615384616,4306.153846153847,4407.6923076923085,4379.48717948718,1682.0,1684.0,995.229,956.1420288085938,0.0,0.0,0.0,0.0
993517,7.0,0.0,478.0,4496.410256410257,4166.666666666667,4294.871794871796,4815.8974358974365,3787.1794871794878,4211.794871794872,4248.717948717949,4094.8717948717954,4402.051282051282,4098.974358974359,4291.282051282052,4312.307692307693,4424.102564102564,4390.769230769231,1682.0,1686.0,995.237,956.1420288085938,0.0,0.0,0.0,0.0
993517,8.0,0.0,420.0,4495.384615384616,4167.6923076923085,4301.538461538462,4818.461538461539,3787.1794871794878,4210.256410256411,4255.384615384616,4107.179487179487,4413.846153846154,4104.102564102564,4290.256410256411,4311.282051282052,4425.641025641026,4392.307692307693,1682.0,1686.0,995.244,956.1420288085938,0.0,0.0,0.0,0.0
993517,9.0,0.0,455.0,4493.846153846154,4167.6923076923085,4305.128205128206,4827.179487179488,3786.1538461538466,4208.205128205129,4254.358974358975,4106.666666666667,4416.923076923077,4104.102564102564,4291.794871794872,4308.717948717949,4425.641025641026,4397.948717948719,1682.0,1687.0,995.253,956.1420288085938,0.0,0.0,0.0,0.0
993517,10.0,0.0,487.0,4502.051282051282,4170.769230769231,4311.282051282052,4830.769230769231,3787.692307692308,4209.2307692307695,4252.307692307693,4111.794871794872,4418.974358974359,4103.589743589744,4300.512820512821,4311.282051282052,4431.794871794872,4403.076923076924,1681.0,1687.0,995.26,956.1420288085938,0.0,0.0,0.0,0.0
993518,11.0,0.0,438.0,4500.000000000001,4167.179487179487,4308.717948717949,4819.48717948718,3786.666666666667,4211.794871794872,4249.2307692307695,4104.615384615385,4407.179487179487,4098.461538461539,4294.871794871796,4307.6923076923085,4425.128205128206,4392.307692307693,1681.0,1687.0,995.269,956.1420288085938,0.0,0.0,0.0,0.0
993634,12.0,0.0,449.0,4487.6923076923085,4162.564102564103,4293.846153846154,4811.794871794872,3784.615384615385,4211.282051282052,4242.051282051282,4079.48717948718,4385.641025641026,4087.1794871794878,4279.48717948718,4302.564102564103,4408.717948717949,4379.48717948718,1682.0,1686.0,995.276,956.26708984375,0.0,0.0,0.0,0.0
993634,13.0,0.0,241.0,4487.6923076923085,4167.179487179487,4291.794871794872,4817.435897435898,3787.1794871794878,4209.2307692307695,4240.512820512821,4070.2564102564106,4380.512820512821,4087.692307692308,4275.8974358974365,4308.205128205129,4407.179487179487,4380.512820512821,1680.0,1687.0,995.283,956.26708984375,0.0,0.0,0.0,0.0
993634,14.0,0.0,487.0,4492.820512820514,4169.2307692307695,4302.051282051282,4820.000000000001,3789.2307692307695,4208.205128205129,4246.153846153847,4095.8974358974365,4396.923076923077,4095.3846153846157,4282.051282051282,4310.769230769231,4415.8974358974365,4384.102564102564,1681.0,1687.0,995.291,956.26708984375,0.0,0.0,0.0,0.0
993634,15.0,0.0,438.0,4488.717948717949,4166.153846153847,4304.102564102564,4821.025641025642,3787.692307692308,4206.666666666667,4250.769230769231,4102.564102564103,4400.512820512821,4094.358974358975,4283.589743589744,4308.205128205129,4417.435897435898,4380.512820512821,1680.0,1685.0,995.3,956.26708984375,0.0,0.0,0.0,0.0
993634,16.0,0.0,0.0,4483.076923076924,4165.641025641026,4297.948717948719,4818.461538461539,3785.1282051282055,4204.102564102564,4246.153846153847,4074.8717948717954,4385.128205128206,4088.717948717949,4278.974358974359,4308.205128205129,4413.333333333334,4376.923076923077,1680.0,1685.0,995.307,956.26708984375,0.0,0.0,0.0,0.0
993634,17.0,0.0,0.0,4483.589743589744,4165.641025641026,4298.974358974359,4816.410256410257,3784.615384615385,4204.615384615385,4240.512820512821,4069.23076923077,4384.102564102564,4087.692307692308,4277.948717948719,4306.666666666667,4407.6923076923085,4372.820512820514,1681.0,1684.0,995.316,956.26708984375,0.0,0.0,0.0,0.0
993635,18.0,0.0,0.0,4489.743589743591,4167.6923076923085,4303.589743589744,4822.051282051282,3790.7692307692314,4213.333333333334,4245.128205128206,4081.538461538462,4390.769230769231,4087.692307692308,4281.025641025642,4305.128205128206,4409.2307692307695,4371.794871794872,1679.0,1684.0,995.323,956.26708984375,0.0,0.0,0.0,0.0
993635,19.0,0.0,0.0,4491.794871794872,4168.205128205129,4302.051282051282,4823.076923076924,3797.9487179487182,4217.435897435898,4249.74358974359,4084.1025641025644,4393.333333333334,4090.2564102564106,4282.564102564103,4309.743589743591,4416.923076923077,4376.923076923077,1680.0,1684.0,995.331,956.26708984375,0.0,0.0,0.0,0.0
993635,20.0,0.0,0.0,4489.2307692307695,4167.179487179487,4297.948717948719,4821.025641025642,3798.9743589743593,4211.794871794872,4248.205128205129,4087.1794871794878,4400.512820512821,4096.410256410257,4285.128205128206,4312.307692307693,4422.051282051282,4380.000000000001,1679.0,1684.0,995.338,956.26708984375,0.0,0.0,0.0,0.0
993635,21.0,0.0,0.0,4491.794871794872,4168.205128205129,4299.48717948718,4823.076923076924,3796.9230769230776,4212.820512820514,4254.358974358975,4094.358974358975,4404.615384615385,4098.974358974359,4289.74358974359,4309.2307692307695,4425.641025641026,4382.564102564103,1680.0,1685.0,995.346,956.26708984375,0.0,0.0,0.0,0.0
993635,22.0,0.0,0.0,4495.384615384616,4170.769230769231,4305.128205128206,4823.076923076924,3798.9743589743593,4222.051282051282,4258.974358974359,4099.48717948718,4402.564102564103,4101.538461538462,4288.205128205129,4307.179487179487,4425.641025641026,4382.051282051282,1679.0,1684.0,995.354,956.26708984375,0.0,0.0,0.0,0.0
993635,23.0,0.0,0.0,4491.794871794872,4169.74358974359,4302.564102564103,4818.974358974359,3801.538461538462,4227.179487179487,4255.384615384616,4108.717948717949,4409.743589743591,4101.538461538462,4284.102564102564,4307.179487179487,4421.025641025642,4377.948717948719,1680.0,1685.0,995.362,956.26708984375,0.0,0.0,0.0,0.0
993635,24.0,0.0,0.0,4491.794871794872,4168.205128205129,4303.589743589744,4825.128205128206,3801.0256410256416,4227.179487179487,4255.384615384616,4106.153846153847,4414.358974358975,4102.564102564103,4290.256410256411,4311.794871794872,4427.6923076923085,4381.538461538462,1680.0,1685.0,995.37,956.26708984375,0.0,0.0,0.0,0.0
993636,25.0,0.0,0.0,4501.538461538462,4169.74358974359,4311.794871794872,4832.307692307693,3800.0000000000005,4221.538461538462,4260.000000000001,4090.2564102564106,4408.717948717949,4107.179487179487,4296.923076923077,4315.8974358974365,4441.025641025642,4390.256410256411,1681.0,1685.0,995.377,956.26708984375,0.0,0.0,0.0,0.0
993636,26.0,0.0,0.0,4502.051282051282,4170.256410256411,4309.2307692307695,4827.179487179488,3800.512820512821,4215.384615384616,4257.948717948719,4093.8461538461543,4411.282051282052,4108.717948717949,4293.333333333334,4314.358974358975,4440.512820512821,4387.179487179487,1681.0,1685.0,995.385,956.26708984375,0.0,0.0,0.0,0.0
993636,27.0,0.0,0.0,4490.769230769231,4168.205128205129,4301.025641025642,4821.538461538462,3801.538461538462,4218.974358974359,4255.8974358974365,4105.641025641026,4416.410256410257,4104.102564102564,4289.2307692307695,4312.820512820514,4435.384615384616,4383.589743589744,1681.0,1687.0,995.394,956.26708984375,0.0,0.0,0.0,0.0
993753,28.0,0.0,0.0,4487.6923076923085,4166.666666666667,4298.461538461539,4821.025641025642,3801.0256410256416,4224.615384615385,4255.384615384616,4100.512820512821,4407.179487179487,4097.948717948719,4289.2307692307695,4309.743589743591,4433.333333333334,4382.051282051282,1683.0,1685.0,995.402,956.3922119140625,0.0,0.0,0.0,0.0
993753,29.0,0.0,0.0,4492.307692307693,4165.641025641026,4296.923076923077,4817.435897435898,3798.9743589743593,4218.974358974359,4252.307692307693,4091.7948717948725,4396.923076923077,4097.435897435898,4282.051282051282,4306.666666666667,4425.641025641026,4376.410256410257,1681.0,1687.0,995.409,956.3922119140625,0.0,0.0,0.0,0.0
993753,30.0,0.0,0.0,4486.153846153847,4165.641025641026,4299.48717948718,4818.974358974359,3798.9743589743593,4212.820512820514,4250.769230769231,4097.948717948719,4400.512820512821,4098.461538461539,4279.48717948718,4309.2307692307695,4426.153846153847,4380.000000000001,1683.0,1687.0,995.417,956.3922119140625,0.0,0.0,0.0,0.0
993753,31.0,0.0,0.0,4477.948717948719,4166.666666666667,4305.641025641026,4826.153846153847,3799.48717948718,4218.974358974359,4251.794871794872,4094.8717948717954,4403.589743589744,4096.923076923077,4286.153846153847,4310.769230769231,4431.282051282052,4387.6923076923085,1683.0,1686.0,995.424,956.3922119140625,0.0,0.0,0.0,0.0
993753,32.0,0.0,0.0,4479.48717948718,4165.641025641026,4302.051282051282,4823.076923076924,3794.8717948717954,4226.666666666667,4250.769230769231,4080.5128205128212,4397.948717948719,4096.923076923077,4286.153846153847,4309.2307692307695,4427.6923076923085,4384.102564102564,1683.0,1687.0,995.433,956.3922119140625,0.0,0.0,0.0,0.0
993753,33.0,0.0,0.0,4485.641025641026,4166.153846153847,4304.615384615385,4820.000000000001,3793.333333333334,4219.48717948718,4249.74358974359,4089.23076923077,4406.153846153847,4101.538461538462,4292.307692307693,4311.794871794872,4432.820512820514,4385.641025641026,1683.0,1686.0,995.44,956.3922119140625,0.0,0.0,0.0,0.0
993754,34.0,0.0,0.0,4492.307692307693,4169.2307692307695,4313.333333333334,4826.153846153847,3797.9487179487182,4213.333333333334,4251.794871794872,4108.717948717949,4422.051282051282,4105.128205128206,4303.076923076924,4314.358974358975,4443.589743589744,4396.410256410257,1684.0,1686.0,995.449,956.3922119140625,0.0,0.0,0.0,0.0
993754,35.0,0.0,0.0,4494.358974358975,4168.205128205129,4308.717948717949,4826.666666666667,3800.512820512821,4220.000000000001,4255.384615384616,4110.256410256411,4418.974358974359,4102.051282051282,4295.8974358974365,4310.256410256411,4437.435897435898,4392.820512820514,1684.0,1685.0,995.456,956.3922119140625,0.0,0.0,0.0,0.0
993754,36.0,0.0,0.0,4493.846153846154,4168.205128205129,4307.179487179487,4823.589743589744,3800.0000000000005,4214.871794871796,4255.8974358974365,4104.102564102564,4412.307692307693,4101.538461538462,4292.307692307693,4312.307692307693,4436.923076923077,4390.256410256411,1684.0,1685.0,995.464,956.3922119140625,0.0,0.0,0.0,0.0
993754,37.0,0.0,0.0,4493.846153846154,4171.282051282052,4313.846153846154,4829.743589743591,3798.461538461539,4207.6923076923085,4252.307692307693,4094.358974358975,4413.333333333334,4102.564102564103,4300.512820512821,4313.333333333334,4445.128205128206,4396.923076923077,1683.0,1685.0,995.472,956.3922119140625,0.0,0.0,0.0,0.0
993754,38.0,0.0,0.0,4489.743589743591,4168.205128205129,4310.769230769231,4829.2307692307695,3799.48717948718,4221.538461538462,4252.307692307693,4084.1025641025644,4405.128205128206,4097.948717948719,4290.256410256411,4305.641025641026,4435.384615384616,4388.717948717949,1683.0,1685.0,995.479,956.3922119140625,0.0,0.0,0.0,0.0
993754,39.0,0.0,0.0,4487.179487179488,4167.179487179487,4302.051282051282,4823.589743589744,3797.9487179487182,4225.641025641026,4255.384615384616,4094.8717948717954,4404.615384615385,4098.461538461539,4280.512820512821,4304.615384615385,4426.666666666667,4381.025641025642,1682.0,1686.0,995.487,956.3922119140625,0.0,0.0,0.0,0.0
993755,40.0,0.0,0.0,4488.205128205129,4167.179487179487,4297.948717948719,4820.000000000001,3790.2564102564106,4204.102564102564,4247.179487179487,4095.8974358974365,4407.6923076923085,4099.48717948718,4287.179487179487,4309.2307692307695,4430.256410256411,4385.128205128206,1682.0,1686.0,995.495,956.3922119140625,0.0,0.0,0.0,0.0
993755,41.0,0.0,0.0,4482.564102564103,4159.48717948718,4296.410256410257,4811.794871794872,3782.564102564103,4190.256410256411,4234.358974358975,4074.358974358975,4396.410256410257,4092.307692307693,4282.564102564103,4304.615384615385,4423.589743589744,4380.512820512821,1680.0,1686.0,995.502,956.3922119140625,0.0,0.0,0.0,0.0
993755,42.0,0.0,0.0,4480.000000000001,4154.358974358975,4295.384615384616,4812.307692307693,3783.589743589744,4201.538461538462,4238.461538461539,4081.538461538462,4395.384615384616,4087.1794871794878,4271.282051282052,4300.512820512821,4408.717948717949,4373.333333333334,1681.0,1686.0,995.51,956.3922119140625,0.0,0.0,0.0,0.0
993755,43.0,0.0,0.0,4482.051282051282,4155.8974358974365,4290.769230769231,4815.8974358974365,3789.7435897435903,4215.384615384616,4245.128205128206,4091.2820512820517,4398.461538461539,4086.1538461538466,4268.717948717949,4304.615384615385,4403.589743589744,4371.282051282052,1680.0,1686.0,995.518,956.3922119140625,0.0,0.0,0.0,0.0
993879,44.0,0.0,0.0,4483.589743589744,4161.538461538462,4291.794871794872,4812.307692307693,3790.7692307692314,4214.871794871796,4243.589743589744,4080.5128205128212,4392.820512820514,4089.23076923077,4274.871794871796,4308.205128205129,4411.282051282052,4375.8974358974365,1681.0,1686.0,995.526,956.517333984375,0.0,0.0,0.0,0.0
993879,45.0,0.0,0.0,4492.307692307693,4167.179487179487,4305.128205128206,4817.948717948719,3789.2307692307695,4209.74358974359,4250.769230769231,4087.1794871794878,4401.538461538462,4098.974358974359,4290.256410256411,4310.256410256411,4429.743589743591,4391.794871794872,1681.0,1685.0,995.535,956.517333984375,0.0,0.0,0.0,0.0
993879,46.0,0.0,0.0,4501.538461538462,4168.717948717949,4312.307692307693,4828.717948717949,3791.7948717948725,4213.333333333334,4258.974358974359,4096.410256410257,4412.307692307693,4104.615384615385,4297.948717948719,4311.282051282052,4439.48717948718,4403.589743589744,1681.0,1686.0,995.543,956.517333984375,0.0,0.0,0.0,0.0
993879,47.0,0.0,0.0,4498.974358974359,4169.2307692307695,4307.6923076923085,4824.102564102564,3793.333333333334,4214.871794871796,4253.846153846154,4091.2820512820517,4407.179487179487,4100.000000000001,4291.282051282052,4313.333333333334,4432.307692307693,4397.948717948719,1682.0,1684.0,995.55,956.517333984375,0.0,0.0,0.0,0.0
993879,48.0,0.0,0.0,4492.307692307693,4165.641025641026,4302.051282051282,4815.384615384616,3792.307692307693,4213.333333333334,4249.74358974359,4089.7435897435903,4402.051282051282,4096.410256410257,4286.666666666667,4311.794871794872,4425.128205128206,4388.205128205129,1681.0,1686.0,995.557,956.517333984375,0.0,0.0,0.0,0.0
993880,49.0,0.0,0.0,4486.153846153847,4156.410256410257,4297.435897435898,4814.871794871796,3791.7948717948725,4227.179487179487,4255.384615384616,4093.333333333334,4404.615384615385,4094.358974358975,4281.538461538462,4305.641025641026,4421.538461538462,4384.102564102564,1683.0,1685.0,995.566,956.517333984375,0.0,0.0,0.0,0.0
993880,50.0,0.0,0.0,4481.538461538462,4157.948717948719,4294.358974358975,4814.871794871796,3792.820512820513,4232.820512820514,4252.820512820514,4092.820512820513,4402.564102564103,4093.333333333334,4273.846153846154,4304.615384615385,4416.410256410257,4380.512820512821,1682.0,1684.0,995.573,956.517333984375,0.0,0.0,0.0,0.0
993880,51.0,0.0,0.0,4488.205128205129,4166.153846153847,4296.410256410257,4818.461538461539,3793.333333333334,4211.794871794872,4247.179487179487,4089.23076923077,4399.48717948718,4096.923076923077,4278.461538461539,4312.307692307693,4418.974358974359,4381.025641025642,1682.0,1684.0,995.582,956.517333984375,0.0,0.0,0.0,0.0
993880,52.0,0.0,0.0,4493.846153846154,4163.076923076924,4303.589743589744,4822.051282051282,3795.3846153846157,4200.512820512821,4255.8974358974365,4090.2564102564106,4403.076923076924,4098.974358974359,4290.256410256411,4315.8974358974365,4428.717948717949,4386.666666666667,1681.0,1683.0,995.588,956.517333984375,0.0,0.0,0.0,0.0
993880,53.0,0.0,0.0,4488.717948717949,4161.538461538462,4305.641025641026,4817.948717948719,3796.9230769230776,4212.307692307693,4262.051282051282,4101.025641025642,4407.6923076923085,4096.923076923077,4291.282051282052,4312.307692307693,4429.743589743591,4387.179487179487,1681.0,1682.0,995.596,956.517333984375,0.0,0.0,0.0,0.0
993880,54.0,0.0,0.0,4488.717948717949,4167.179487179487,4300.512820512821,4820.000000000001,3796.410256410257,4219.48717948718,4252.820512820514,4096.410256410257,4402.051282051282,4095.8974358974365,4286.153846153847,4310.769230769231,4425.641025641026,4385.128205128206,1680.0,1682.0,995.604,956.517333984375,0.0,0.0,0.0,0.0
993881,55.0,0.0,0.0,4497.948717948719,4168.717948717949,4302.564102564103,4830.769230769231,3798.9743589743593,4212.307692307693,4250.256410256411,4084.615384615385,4402.564102564103,4100.512820512821,4288.717948717949,4313.846153846154,4431.794871794872,4391.794871794872,1681.0,1682.0,995.612,956.517333984375,0.0,0.0,0.0,0.0
993882,56.0,0.0,0.0,4502.564102564103,4168.205128205129,4311.794871794872,4832.307692307693,3799.48717948718,4210.769230769231,4261.025641025642,4107.179487179487,4423.589743589744,4106.666666666667,4294.358974358975,4314.871794871796,4438.974358974359,4398.974358974359,1680.0,1682.0,995.62,956.517333984375,0.0,0.0,0.0,0.0
993882,57.0,0.0,0.0,4497.435897435898,4169.2307692307695,4309.2307692307695,4827.6923076923085,3800.0000000000005,4225.128205128206,4264.615384615385,4121.538461538462,4426.666666666667,4103.589743589744,4290.256410256411,4313.333333333334,4433.333333333334,4391.794871794872,1680.0,1683.0,995.628,956.517333984375,0.0,0.0,0.0,0.0
993882,58.0,0.0,0.0,4493.846153846154,4168.717948717949,4302.051282051282,4828.717948717949,3802.564102564103,4234.358974358975,4261.538461538462,4091.2820512820517,4405.641025641026,4098.974358974359,4284.102564102564,4310.769230769231,4427.6923076923085,4386.153846153847,1681.0,1682.0,995.635,956.517333984375,0.0,0.0,0.0,0.0
993882,59.0,0.0,0.0,4494.358974358975,4169.2307692307695,4305.128205128206,4828.717948717949,3801.0256410256416,4226.153846153847,4262.051282051282,4085.6410256410263,4408.717948717949,4107.179487179487,4289.74358974359,4311.282051282052,4436.923076923077,4394.358974358975,1679.0,1684.0,995.643,956.517333984375,0.0,0.0,0.0,0.0
994018,60.0,0.0,0.0,4497.948717948719,4169.2307692307695,4308.205128205129,4827.179487179488,3800.512820512821,4221.538461538462,4263.589743589744,4108.205128205129,4424.102564102564,4112.307692307693,4294.871794871796,4313.846153846154,4442.564102564103,4397.435897435898,1680.0,1684.0,995.651,956.6424560546875,0.0,0.0,0.0,0.0
994018,61.0,0.0,0.0,4502.051282051282,4168.717948717949,4302.564102564103,4830.256410256411,3802.564102564103,4231.794871794872,4263.589743589744,4102.564102564103,4417.948717948719,4104.102564102564,4293.846153846154,4314.358974358975,4434.871794871796,4389.743589743591,1679.0,1684.0,995.659,956.6424560546875,0.0,0.0,0.0,0.0
994018,62.0,0.0,0.0,4497.435897435898,4169.2307692307695,4300.512820512821,4828.205128205129,3801.538461538462,4233.333333333334,4260.000000000001,4084.1025641025644,4406.153846153847,4100.000000000001,4291.282051282052,4311.282051282052,4429.743589743591,4386.153846153847,1680.0,1684.0,995.668,956.6424560546875,0.0,0.0,0.0,0.0
994018,63.0,0.0,0.0,4488.205128205129,4167.6923076923085,4300.000000000001,4821.538461538462,3795.3846153846157,4223.589743589744,4253.846153846154,4083.076923076924,4402.051282051282,4098.974358974359,4284.615384615385,4305.128205128206,4427.6923076923085,4382.564102564103,1680.0,1684.0,995.675,956.6424560546875,0.0,0.0,0.0,0.0
994018,64.0,0.0,474.0,4489.2307692307695,4164.615384615385,4295.384615384616,4819.48717948718,3795.3846153846157,4223.076923076924,4251.282051282052,4092.307692307693,4401.025641025642,4092.307692307693,4280.512820512821,4302.564102564103,4419.48717948718,4374.871794871796,1680.0,1685.0,995.683,956.6424560546875,0.0,0.0,0.0,0.0
994019,65.0,0.0,279.0,4493.846153846154,4167.179487179487,4292.307692307693,4818.461538461539,3798.9743589743593,4224.102564102564,4254.871794871796,4101.538461538462,4406.153846153847,4094.8717948717954,4286.666666666667,4308.717948717949,4416.923076923077,4376.923076923077,1679.0,1685.0,995.69,956.6424560546875,0.0,0.0,0.0,0.0
994019,66.0,0.0,448.0,4490.769230769231,4166.666666666667,4298.461538461539,4821.025641025642,3798.9743589743593,4218.461538461539,4257.435897435898,4101.538461538462,4408.717948717949,4103.076923076924,4288.205128205129,4311.794871794872,4422.051282051282,4383.589743589744,1680.0,1685.0,995.699,956.6424560546875,0.0,0.0,0.0,0.0
994019,67.0,0.0,353.0,4486.153846153847,4161.538461538462,4302.564102564103,4824.102564102564,3798.9743589743593,4223.589743589744,4257.435897435898,4089.7435897435903,4397.435897435898,4096.923076923077,4282.051282051282,4304.615384615385,4420.000000000001,4377.948717948719,1680.0,1684.0,995.706,956.6424560546875,0.0,0.0,0.0,0.0
994019,68.0,0.0,456.0,4486.666666666667,4160.000000000001,4296.410256410257,4818.974358974359,3797.435897435898,4229.74358974359,4256.410256410257,4081.538461538462,4389.743589743591,4086.666666666667,4279.48717948718,4300.000000000001,4413.333333333334,4370.256410256411,1680.0,1685.0,995.714,956.6424560546875,0.0,0.0,0.0,0.0
994020,69.0,0.0,548.0,4488.205128205129,4156.923076923077,4291.282051282052,4810.256410256411,3792.820512820513,4219.48717948718,4254.358974358975,4085.1282051282055,4394.871794871796,4089.23076923077,4280.000000000001,4305.641025641026,4413.333333333334,4374.358974358975,1681.0,1683.0,995.722,956.6424560546875,0.0,0.0,0.0,0.0
994020,70.0,0.0,533.0,4494.358974358975,4160.000000000001,4298.974358974359,4813.846153846154,3793.8461538461543,4212.307692307693,4256.410256410257,4098.461538461539,4411.794871794872,4100.000000000001,4286.153846153847,4312.820512820514,4423.076923076924,4386.153846153847,1679.0,1685.0,995.729,956.6424560546875,0.0,0.0,0.0,0.0
994020,71.0,0.0,478.0,4501.538461538462,4171.794871794872,4309.743589743591,4827.6923076923085,3800.0000000000005,4216.410256410257,4260.000000000001,4101.025641025642,4417.948717948719,4104.102564102564,4294.871794871796,4313.846153846154,4434.358974358975,4396.923076923077,1680.0,1684.0,995.737,956.6424560546875,0.0,0.0,0.0,0.0
994020,72.0,0.0,420.0,4495.8974358974365,4166.153846153847,4304.102564102564,4826.666666666667,3796.410256410257,4217.948717948719,4255.8974358974365,4080.5128205128212,4396.410256410257,4095.8974358974365,4285.641025641026,4306.153846153847,4426.153846153847,4392.307692307693,1680.0,1684.0,995.745,956.6424560546875,0.0,0.0,0.0,0.0
994021,73.0,0.0,455.0,4484.102564102564,4154.358974358975,4289.2307692307695,4815.384615384616,3791.7948717948725,4219.48717948718,4253.333333333334,4076.9230769230776,4384.615384615385,4086.1538461538466,4266.666666666667,4301.538461538462,4407.179487179487,4376.410256410257,1680.0,1685.0,995.753,956.6424560546875,0.0,0.0,0.0,0.0
994021,74.0,0.0,487.0,4486.666666666667,4162.564102564103,4290.769230769231,4817.435897435898,3795.3846153846157,4216.923076923077,4261.025641025642,4097.948717948719,4401.025641025642,4090.2564102564106,4272.820512820514,4308.205128205129,4410.256410256411,4377.435897435898,1680.0,1684.0,995.761,956.6424560546875,0.0,0.0,0.0,0.0
994021,75.0,0.0,438.0,4501.538461538462,4171.794871794872,4302.051282051282,4827.6923076923085,3794.8717948717954,4211.794871794872,4265.641025641026,4106.666666666667,4413.333333333334,4101.538461538462,4290.769230769231,4313.333333333334,4429.2307692307695,4392.820512820514,1679.0,1684.0,995.769,956.6424560546875,0.0,0.0,0.0,0.0
994136,76.0,0.0,449.0,4505.128205128206,4166.666666666667,4306.153846153847,4829.743589743591,3792.820512820513,4214.358974358975,4260.512820512821,4104.102564102564,4413.846153846154,4105.641025641026,4292.307692307693,4311.794871794872,4435.384615384616,4396.410256410257,1680.0,1684.0,995.776,956.7675170898438,0.0,0.0,0.0,0.0
994136,77.0,0.0,241.0,4500.000000000001,4167.179487179487,4304.615384615385,4827.6923076923085,3792.307692307693,4216.410256410257,4257.435897435898,4099.48717948718,4413.333333333334,4101.538461538462,4288.717948717949,4312.820512820514,4430.769230769231,4394.358974358975,1680.0,1685.0,995.784,956.7675170898438,0.0,0.0,0.0,0.0
994136,78.0,0.0,487.0,4494.358974358975,4168.205128205129,4299.48717948718,4820.512820512821,3787.692307692308,4215.384615384616,4257.435897435898,4091.7948717948725,4406.666666666667,4097.435897435898,4288.205128205129,4311.794871794872,4423.589743589744,4391.282051282052,1680.0,1686.0,995.792,956.7675170898438,0.0,0.0,0.0,0.0
994136,79.0,0.0,438.0,4490.256410256411,4160.512820512821,4296.923076923077,4817.948717948719,3786.1538461538466,4217.435897435898,4255.384615384616,4092.307692307693,4405.641025641026,4098.461538461539,4288.205128205129,4309.2307692307695,4420.000000000001,4388.717948717949,1680.0,1687.0,995.801,956.7675170898438,0.0,0.0,0.0,0.0
994136,80.0,0.0,449.0,4494.358974358975,4160.000000000001,4302.564102564103,4823.589743589744,3790.2564102564106,4220.000000000001,4254.871794871796,4094.358974358975,4408.717948717949,4101.025641025642,4288.205128205129,4310.256410256411,4426.153846153847,4394.871794871796,1681.0,1687.0,995.807,956.7675170898438,0.0,0.0,0.0,0.0
994137,81.0,0.0,241.0,4495.384615384616,4162.564102564103,4301.025641025642,4821.025641025642,3789.2307692307695,4226.153846153847,4255.8974358974365,4087.1794871794878,4398.974358974359,4096.410256410257,4284.615384615385,4306.666666666667,4421.538461538462,4389.743589743591,1680.0,1687.0,995.816,956.7675170898438,0.0,0.0,0.0,0.0
994137,82.0,0.0,487.0,4490.256410256411,4161.538461538462,4294.871794871796,4814.871794871796,3788.717948717949,4228.205128205129,4255.8974358974365,4091.7948717948725,4395.8974358974365,4092.307692307693,4281.025641025642,4305.641025641026,4411.794871794872,4378.974358974359,1682.0,1686.0,995.823,956.7675170898438,0.0,0.0,0.0,0.0
994137,83.0,0.0,438.0,4497.435897435898,4167.6923076923085,4307.179487179487,4826.153846153847,3792.820512820513,4213.846153846154,4258.974358974359,4101.025641025642,4406.153846153847,4098.461538461539,4289.2307692307695,4313.333333333334,4424.102564102564,4392.820512820514,1682.0,1685.0,995.832,956.7675170898438,0.0,0.0,0.0,0.0
994137,84.0,0.0,449.0,4510.256410256411,4174.871794871796,4319.48717948718,4835.384615384616,3795.3846153846157,4204.102564102564,4261.025641025642,4098.461538461539,4411.282051282052,4105.128205128206,4295.8974358974365,4315.384615384616,4438.974358974359,4409.743589743591,1682.0,1686.0,995.839,956.7675170898438,0.0,0.0,0.0,0.0
994137,85.0,0.0,241.0,4505.641025641026,4170.769230769231,4311.282051282052,4829.2307692307695,3795.3846153846157,4213.846153846154,4256.410256410257,4091.7948717948725,4403.076923076924,4103.076923076924,4289.2307692307695,4310.769230769231,4432.307692307693,4401.025641025642,1682.0,1684.0,995.847,956.7675170898438,0.0,0.0,0.0,0.0
994137,86.0,0.0,487.0,4499.48717948718,4168.717948717949,4306.153846153847,4827.6923076923085,3793.333333333334,4220.000000000001,4253.333333333334,4084.1025641025644,4399.48717948718,4101.025641025642,4287.179487179487,4310.769230769231,4428.205128205129,4395.384615384616,1681.0,1686.0,995.854,956.7675170898438,0.0,0.0,0.0,0.0
994137,87.0,0.0,438.0,4507.6923076923085,4174.358974358975,4316.923076923077,4833.846153846154,3794.8717948717954,4220.512820512821,4258.974358974359,4087.692307692308,4407.179487179487,4104.615384615385,4296.410256410257,4314.358974358975,4439.48717948718,4407.6923076923085,1682.0,1685.0,995.862,956.7675170898438,0.0,0.0,0.0,0.0
994138,88.0,0.0,449.0,4509.743589743591,4171.282051282052,4315.384615384616,4832.820512820514,3799.48717948718,4223.076923076924,4261.025641025642,4093.8461538461543,4409.2307692307695,4104.615384615385,4293.846153846154,4310.769230769231,4440.000000000001,4406.153846153847,1681.0,1686.0,995.87,956.7675170898438,0.0,0.0,0.0,0.0
994138,89.0,0.0,241.0,4498.974358974359,4166.666666666667,4302.564102564103,4825.128205128206,3801.0256410256416,4223.589743589744,4255.8974358974365,4089.7435897435903,4403.589743589744,4098.974358974359,4280.512820512821,4304.615384615385,4425.641025641026,4391.794871794872,1681.0,1685.0,995.878,956.7675170898438,0.0,0.0,0.0,0.0
994138,90.0,0.0,487.0,4493.333333333334,4169.2307692307695,4305.641025641026,4825.128205128206,3798.9743589743593,4225.641025641026,4257.948717948719,4088.717948717949,4402.564102564103,4097.435897435898,4280.000000000001,4307.179487179487,4424.102564102564,4394.358974358975,1681.0,1686.0,995.886,956.7675170898438,0.0,0.0,0.0,0.0
994139,91.0,0.0,438.0,4496.410256410257,4168.717948717949,4310.769230769231,4830.769230769231,3797.9487179487182,4225.128205128206,4261.025641025642,4089.7435897435903,4403.589743589744,4101.025641025642,4289.2307692307695,4310.256410256411,4430.769230769231,4401.538461538462,1682.0,1685.0,995.893,956.7675170898438,0.0,0.0,0.0,0.0
994257,92.0,0.0,449.0,4497.435897435898,4166.666666666667,4305.128205128206,4828.205128205129,3794.8717948717954,4220.000000000001,4255.384615384616,4086.1538461538466,4399.48717948718,4101.025641025642,4289.2307692307695,4306.153846153847,4432.307692307693,4395.8974358974365,1680.0,1685.0,995.901,956.8926391601562,0.0,0.0,0.0,0.0
994258,93.0,0.0,241.0,4494.871794871796,4168.205128205129,4303.076923076924,4823.589743589744,3796.410256410257,4222.564102564103,4256.923076923077,4090.7692307692314,4401.025641025642,4098.461538461539,4285.128205128206,4303.076923076924,4430.769230769231,4391.282051282052,1681.0,1684.0,995.909,956.8926391601562,0.0,0.0,0.0,0.0
994258,94.0,0.0,487.0,4498.974358974359,4169.2307692307695,4307.179487179487,4829.2307692307695,3801.538461538462,4227.6923076923085,4264.102564102564,4098.461538461539,4404.615384615385,4100.512820512821,4288.205128205129,4308.205128205129,4433.846153846154,4398.461538461539,1680.0,1684.0,995.918,956.8926391601562,0.0,0.0,0.0,0.0
994258,95.0,0.0,438.0,4509.2307692307695,4171.794871794872,4312.820512820514,4840.000000000001,3801.0256410256416,4223.076923076924,4265.128205128206,4094.8717948717954,4407.6923076923085,4105.641025641026,4300.000000000001,4315.8974358974365,4444.615384615385,4406.666666666667,1680.0,1684.0,995.925,956.8926391601562,0.0,0.0,0.0,0.0
994258,96.0,0.0,449.0,4511.282051282052,4175.384615384616,4319.48717948718,4840.512820512821,3798.9743589743593,4215.8974358974365,4263.589743589744,4103.589743589744,4417.948717948719,4108.717948717949,4309.743589743591,4317.435897435898,4456.410256410257,4411.282051282052,1680.0,1685.0,995.934,956.8926391601562,0.0,0.0,0.0,0.0
994259,97.0,0.0,241.0,4500.000000000001,4168.717948717949,4314.871794871796,4830.256410256411,3798.461538461539,4215.8974358974365,4261.025641025642,4112.307692307693,4418.974358974359,4105.641025641026,4304.615384615385,4310.769230769231,4448.205128205129,4404.615384615385,1680.0,1684.0,995.94,956.8926391601562,0.0,0.0,0.0,0.0
994259,98.0,0.0,487.0,4489.743589743591,4162.564102564103,4298.974358974359,4819.48717948718,3794.8717948717954,4222.051282051282,4256.923076923077,4096.410256410257,4401.538461538462,4097.435897435898,4287.179487179487,4303.589743589744,4426.153846153847,4390.256410256411,1680.0,1685.0,995.949,956.8926391601562,0.0,0.0,0.0,0.0
994259,99.0,0.0,438.0,4485.128205128206,4163.589743589744,4291.794871794872,4815.8974358974365,3794.358974358975,4227.179487179487,4258.461538461539,4084.1025641025644,4392.307692307693,4091.7948717948725,4273.846153846154,4302.051282051282,4412.820512820514,4382.564102564103,1681.0,1684.0,995.956,956.8926391601562,0.0,0.0,0.0,0.0
994260,100.0,0.0,449.0,4479.48717948718,4158.974358974359,4291.282051282052,4813.333333333334,3797.435897435898,4226.666666666667,4260.512820512821,4091.2820512820517,4396.923076923077,4090.7692307692314,4269.74358974359,4304.102564102564,4411.282051282052,4382.564102564103,1680.0,1685.0,995.964,956.8926391601562,0.0,0.0,0.0,0.0
994260,101.0,0.0,241.0,4483.076923076924,4157.435897435898,4293.333333333334,4811.794871794872,3798.461538461539,4227.179487179487,4262.051282051282,4099.48717948718,4397.948717948719,4094.358974358975,4275.384615384616,4305.641025641026,4420.512820512821,4386.666666666667,1682.0,1686.0,995.972,956.8926391601562,0.0,0.0,0.0,0.0
994260,102.0,0.0,487.0,4496.923076923077,4167.179487179487,4302.564102564103,4820.512820512821,3798.461538461539,4229.2307692307695,4266.666666666667,4100.000000000001,4405.641025641026,4102.564102564103,4294.871794871796,4309.743589743591,4441.538461538462,4397.948717948719,1681.0,1685.0,995.979,956.8926391601562,0.0,0.0,0.0,0.0
994261,103.0,0.0,438.0,4504.615384615385,4173.333333333334,4312.820512820514,4830.769230769231,3801.0256410256416,4225.641025641026,4267.6923076923085,4103.076923076924,4417.435897435898,4106.666666666667,4309.2307692307695,4314.358974358975,4452.820512820514,4406.153846153847,1682.0,1686.0,995.988,956.8926391601562,0.0,0.0,0.0,0.0
994261,104.0,0.0,449.0,4499.48717948718,4169.2307692307695,4313.333333333334,4831.282051282052,3803.076923076924,4220.000000000001,4262.051282051282,4108.205128205129,4416.410256410257,4104.102564102564,4302.564102564103,4315.8974358974365,4446.153846153847,4402.051282051282,1682.0,1684.0,995.995,956.8926391601562,0.0,0.0,0.0,0.0
994261,105.0,0.0,241.0,4492.820512820514,4167.6923076923085,4306.153846153847,4826.666666666667,3800.0000000000005,4217.948717948719,4257.948717948719,4105.641025641026,4411.794871794872,4102.051282051282,4297.435897435898,4312.307692307693,4442.051282051282,4397.948717948719,1681.0,1685.0,996.003,956.8926391601562,0.0,0.0,0.0,0.0
994262,106.0,0.0,487.0,4494.358974358975,4172.820512820514,4307.179487179487,4829.743589743591,3793.333333333334,4213.846153846154,4256.923076923077,4097.435897435898,4411.794871794872,4103.589743589744,4306.153846153847,4310.769230769231,4452.307692307693,4404.102564102564,1682.0,1684.0,996.012,956.8926391601562,0.0,0.0,0.0,0.0
994262,107.0,0.0,438.0,4496.923076923077,4170.769230769231,4312.307692307693,4831.794871794872,3795.8974358974365,4209.74358974359,4257.948717948719,4093.333333333334,4409.743589743591,4101.025641025642,4305.641025641026,4308.717948717949,4451.794871794872,4405.641025641026,1681.0,1683.0,996.019,956.8926391601562,0.0,0.0,0.0,0.0
994388,108.0,0.0,449.0,4490.769230769231,4163.076923076924,4304.615384615385,4822.564102564103,3799.48717948718,4213.846153846154,4254.358974358975,4087.1794871794878,4399.48717948718,4093.333333333334,4287.6923076923085,4305.128205128206,4428.717948717949,4390.769230769231,1682.0,1684.0,996.026,957.0177612304688,0.0,0.0,0.0,0.0
994388,109.0,0.0,241.0,4485.641025641026,4160.000000000001,4296.923076923077,4818.461538461539,3792.307692307693,4214.358974358975,4247.6923076923085,4084.1025641025644,4395.8974358974365,4090.2564102564106,4280.512820512821,4305.128205128206,4417.948717948719,4381.025641025642,1681.0,1684.0,996.034,957.0177612304688,0.0,0.0,0.0,0.0
994388,110.0,0.0,487.0,4493.333333333334,4168.717948717949,4303.589743589744,4826.666666666667,3786.666666666667,4206.153846153847,4250.769230769231,4096.410256410257,4404.102564102564,4097.435897435898,4290.256410256411,4307.179487179487,4431.282051282052,4390.256410256411,1683.0,1683.0,996.043,957.0177612304688,0.0,0.0,0.0,0.0
994388,111.0,0.0,438.0,4494.871794871796,4170.256410256411,4302.564102564103,4826.153846153847,3788.717948717949,4209.74358974359,4251.282051282052,4093.333333333334,4398.974358974359,4095.8974358974365,4289.74358974359,4305.128205128206,4431.282051282052,4393.333333333334,1680.0,1683.0,996.051,957.0177612304688,0.0,0.0,0.0,0.0
994389,112.0,0.0,449.0,4487.179487179488,4158.461538461539,4291.282051282052,4819.48717948718,3789.7435897435903,4217.948717948719,4245.128205128206,4076.9230769230776,4386.666666666667,4086.666666666667,4273.846153846154,4301.025641025642,4417.948717948719,4382.051282051282,1681.0,1684.0,996.059,957.0177612304688,0.0,0.0,0.0,0.0
994390,113.0,0.0,241.0,4487.6923076923085,4156.410256410257,4293.846153846154,4819.48717948718,3788.717948717949,4210.256410256411,4249.2307692307695,4083.076923076924,4392.820512820514,4088.205128205129,4270.769230769231,4302.564102564103,4420.000000000001,4383.076923076924,1680.0,1684.0,996.067,957.0177612304688,0.0,0.0,0.0,0.0
994390,114.0,0.0,487.0,4489.2307692307695,4164.615384615385,4296.923076923077,4817.948717948719,3788.205128205129,4204.102564102564,4251.794871794872,4084.615384615385,4395.384615384616,4089.7435897435903,4275.8974358974365,4304.615384615385,4424.615384615385,4388.205128205129,1680.0,1686.0,996.074,957.0177612304688,0.0,0.0,0.0,0.0
994390,115.0,0.0,438.0,4486.666666666667,4166.153846153847,4290.256410256411,4816.923076923077,3785.6410256410263,4214.871794871796,4243.589743589744,4068.205128205129,4382.051282051282,4085.6410256410263,4269.2307692307695,4302.564102564103,4417.435897435898,4380.000000000001,1681.0,1685.0,996.082,957.0177612304688,0.0,0.0,0.0,0.0
994391,116.0,0.0,449.0,4495.384615384616,4166.153846153847,4299.48717948718,4825.641025641026,3785.1282051282055,4217.435897435898,4243.076923076924,4076.9230769230776,4392.820512820514,4095.3846153846157,4273.846153846154,4304.615384615385,4425.128205128206,4385.128205128206,1680.0,1687.0,996.089,957.0177612304688,0.0,0.0,0.0,0.0
994391,117.0,0.0,241.0,4505.641025641026,4170.769230769231,4314.871794871796,4833.333333333334,3787.1794871794878,4203.589743589744,4247.6923076923085,4098.974358974359,4412.820512820514,4106.153846153847,4290.769230769231,4311.794871794872,4442.564102564103,4405.641025641026,1681.0,1687.0,996.097,957.0177612304688,0.0,0.0,0.0,0.0
994391,118.0,0.0,487.0,4498.461538461539,4166.666666666667,4307.6923076923085,4828.717948717949,3787.692307692308,4201.025641025642,4245.128205128206,4103.076923076924,4407.179487179487,4100.000000000001,4287.6923076923085,4312.820512820514,4441.025641025642,4403.589743589744,1681.0,1688.0,996.105,957.0177612304688,0.0,0.0,0.0,0.0
994391,119.0,0.0,438.0,4487.6923076923085,4156.410256410257,4292.820512820514,4820.512820512821,3788.205128205129,4213.333333333334,4245.128205128206,4095.3846153846157,4397.948717948719,4090.2564102564106,4273.333333333334,4305.641025641026,4427.179487179487,4384.615384615385,1683.0,1689.0,996.112,957.0177612304688,0.0,0.0,0.0,0.0
994392,120.0,0.0,449.0,4487.6923076923085,4155.384615384616,4291.794871794872,4818.461538461539,3785.6410256410263,4218.461538461539,4247.6923076923085,4086.666666666667,4391.794871794872,4089.7435897435903,4270.769230769231,4304.102564102564,4421.538461538462,4385.128205128206,1682.0,1689.0,996.12,957.0177612304688,0.0,0.0,0.0,0.0
994392,121.0,0.0,241.0,4491.794871794872,4157.435897435898,4294.871794871796,4820.000000000001,3784.1025641025644,4209.74358974359,4244.102564102564,4082.0512820512827,4387.179487179487,4090.7692307692314,4274.871794871796,4307.6923076923085,4426.153846153847,4395.384615384616,1683.0,1689.0,996.128,957.0177612304688,0.0,0.0,0.0,0.0
994392,122.0,0.0,487.0,4492.307692307693,4155.8974358974365,4296.923076923077,4818.461538461539,3785.6410256410263,4205.128205128206,4241.538461538462,4083.589743589744,4389.743589743591,4090.2564102564106,4273.846153846154,4309.743589743591,4428.205128205129,4391.794871794872,1683.0,1688.0,996.136,957.0177612304688,0.0,0.0,0.0,0.0
994392,123.0,0.0,438.0,4483.589743589744,4152.820512820514,4293.333333333334,4812.307692307693,3786.1538461538466,4213.846153846154,4240.512820512821,4074.358974358975,4382.564102564103,4086.1538461538466,4268.717948717949,4310.256410256411,4418.974358974359,4382.564102564103,1684.0,1687.0,996.144,957.0177612304688,0.0,0.0,0.0,0.0
994519,124.0,0.0,449.0,4480.000000000001,4155.384615384616,4290.769230769231,4811.794871794872,3783.589743589744,4210.769230769231,4238.974358974359,4069.23076923077,4376.923076923077,4085.6410256410263,4269.2307692307695,4307.6923076923085,4417.435897435898,4381.538461538462,1683.0,1685.0,996.152,957.1428833007812,0.0,0.0,0.0,0.0
994520,125.0,0.0,241.0,4487.179487179488,4158.461538461539,4296.923076923077,4820.512820512821,3784.1025641025644,4195.384615384616,4245.641025641026,4094.358974358975,4399.48717948718,4094.358974358975,4277.948717948719,4308.205128205129,4431.282051282052,4388.205128205129,1682.0,1685.0,996.159,957.1428833007812,0.0,0.0,0.0,0.0
994521,126.0,0.0,487.0,4488.205128205129,4158.461538461539,4300.512820512821,4821.025641025642,3787.1794871794878,4202.564102564103,4253.846153846154,4114.871794871796,4414.358974358975,4098.974358974359,4282.564102564103,4310.769230769231,4435.8974358974365,4389.743589743591,1683.0,1683.0,996.167,957.1428833007812,0.0,0.0,0.0,0.0
994522,127.0,0.0,438.0,4485.128205128206,4159.48717948718,4298.974358974359,4816.410256410257,3790.7692307692314,4215.8974358974365,4253.333333333334,4102.564102564103,4401.025641025642,4095.3846153846157,4282.051282051282,4310.769230769231,4430.769230769231,4384.615384615385,1682.0,1684.0,996.175,957.1428833007812,0.0,0.0,0.0,0.0
994522,128.0,0.0,449.0,4488.205128205129,4161.538461538462,4304.615384615385,4818.974358974359,3796.410256410257,4213.846153846154,4255.384615384616,4087.692307692308,4398.974358974359,4096.410256410257,4287.179487179487,4312.307692307693,4434.358974358975,4385.641025641026,1682.0,1683.0,996.184,957.1428833007812,0.0,0.0,0.0,0.0
994523,0.0,0.0,474.0,4490.769230769231,4160.000000000001,4306.666666666667,4822.051282051282,3800.512820512821,4216.410256410257,4261.025641025642,4094.358974358975,4407.6923076923085,4098.974358974359,4290.256410256411,4312.307692307693,4432.820512820514,4386.666666666667,1682.0,1684.0,996.191,957.1428833007812,0.0,0.0,0.0,0.0
994524,1.0,0.0,279.0,4485.128205128206,4157.435897435898,4295.384615384616,4818.461538461539,3800.0000000000005,4221.538461538462,4254.871794871796,4095.3846153846157,4396.923076923077,4096.410256410257,4281.025641025642,4307.179487179487,4420.000000000001,4376.923076923077,1682.0,1684.0,996.199,957.1428833007812,0.0,0.0,0.0,0.0
994525,2.0,0.0,448.0,4482.051282051282,4154.871794871796,4292.307692307693,4817.435897435898,3797.435897435898,4217.435897435898,4246.666666666667,4081.0256410256416,4386.666666666667,4095.3846153846157,4277.948717948719,4306.666666666667,4417.435897435898,4368.717948717949,1680.0,1684.0,996.206,957.1428833007812,0.0,0.0,0.0,0.0
994525,3.0,0.0,353.0,4481.538461538462,4152.307692307693,4296.410256410257,4815.8974358974365,3793.8461538461543,4216.410256410257,4246.153846153847,4079.48717948718,4393.846153846154,4093.333333333334,4282.564102564103,4309.743589743591,4421.538461538462,4369.743589743591,1681.0,1684.0,996.214,957.1428833007812,0.0,0.0,0.0,0.0
994525,4.0,0.0,456.0,4480.512820512821,4152.820512820514,4291.794871794872,4809.743589743591,3789.2307692307695,4212.820512820514,4243.589743589744,4089.23076923077,4397.948717948719,4091.2820512820517,4280.000000000001,4305.641025641026,4419.48717948718,4370.769230769231,1681.0,1685.0,996.222,957.1428833007812,0.0,0.0,0.0,0.0
994525,5.0,0.0,548.0,4484.102564102564,4155.8974358974365,4291.282051282052,4811.794871794872,3785.1282051282055,4202.564102564103,4236.923076923077,4088.205128205129,4389.743589743591,4092.820512820513,4274.871794871796,4303.076923076924,4417.948717948719,4371.282051282052,1681.0,1685.0,996.23,957.1428833007812,0.0,0.0,0.0,0.0
994526,6.0,0.0,533.0,4485.128205128206,4154.871794871796,4294.871794871796,4816.923076923077,3788.205128205129,4204.615384615385,4239.48717948718,4087.692307692308,4385.128205128206,4093.8461538461543,4273.846153846154,4303.589743589744,4416.410256410257,4370.256410256411,1681.0,1684.0,996.237,957.1428833007812,0.0,0.0,0.0,0.0
994526,7.0,0.0,478.0,4485.128205128206,4156.410256410257,4298.461538461539,4813.846153846154,3793.8461538461543,4211.794871794872,4253.333333333334,4100.512820512821,4397.435897435898,4095.3846153846157,4275.8974358974365,4305.128205128206,4416.410256410257,4370.256410256411,1681.0,1685.0,996.245,957.1428833007812,0.0,0.0,0.0,0.0
994526,8.0,0.0,420.0,4488.717948717949,4165.641025641026,4305.128205128206,4814.871794871796,3793.333333333334,4207.179487179487,4252.820512820514,4092.307692307693,4396.923076923077,4095.3846153846157,4275.384615384616,4306.666666666667,4417.435897435898,4373.333333333334,1681.0,1683.0,996.253,957.1428833007812,0.0,0.0,0.0,0.0
994526,9.0,0.0,455.0,4492.820512820514,4164.615384615385,4304.615384615385,4821.538461538462,3788.205128205129,4204.102564102564,4235.8974358974365,4061.538461538462,4373.333333333334,4087.692307692308,4263.589743589744,4301.538461538462,4407.179487179487,4366.153846153847,1681.0,1684.0,996.261,957.1428833007812,0.0,0.0,0.0,0.0
994526,10.0,0.0,487.0,4489.2307692307695,4158.461538461539,4295.384615384616,4820.512820512821,3786.1538461538466,4209.74358974359,4233.333333333334,4061.538461538462,4370.256410256411,4083.076923076924,4255.384615384616,4298.974358974359,4397.435897435898,4358.974358974359,1682.0,1684.0,996.269,957.1428833007812,0.0,0.0,0.0,0.0
994633,11.0,0.0,438.0,4487.6923076923085,4163.076923076924,4297.948717948719,4820.512820512821,3791.7948717948725,4209.2307692307695,4246.666666666667,4088.205128205129,4390.769230769231,4090.7692307692314,4267.179487179487,4304.102564102564,4411.794871794872,4368.717948717949,1681.0,1684.0,996.277,957.2679443359375,0.0,0.0,0.0,0.0
994634,12.0,0.0,448.0,4493.333333333334,4162.564102564103,4302.564102564103,4823.589743589744,3796.9230769230776,4206.153846153847,4246.666666666667,4091.2820512820517,4393.333333333334,4093.333333333334,4271.282051282052,4306.153846153847,4418.974358974359,4369.743589743591,1682.0,1685.0,996.285,957.2679443359375,0.0,0.0,0.0,0.0
994634,13.0,0.0,241.0,4490.256410256411,4158.461538461539,4295.8974358974365,4818.974358974359,3791.2820512820517,4208.205128205129,4237.948717948719,4076.9230769230776,4380.512820512821,4086.666666666667,4257.948717948719,4301.025641025642,4402.564102564103,4358.974358974359,1682.0,1684.0,996.292,957.2679443359375,0.0,0.0,0.0,0.0
994634,14.0,0.0,487.0,4490.256410256411,4165.128205128206,4296.923076923077,4820.000000000001,3784.615384615385,4202.564102564103,4241.025641025642,4080.5128205128212,4385.128205128206,4088.205128205129,4263.076923076924,4303.076923076924,4404.615384615385,4366.153846153847,1682.0,1686.0,996.3,957.2679443359375,0.0,0.0,0.0,0.0
994634,15.0,0.0,438.0,4495.384615384616,4165.641025641026,4302.564102564103,4825.641025641026,3787.1794871794878,4197.435897435898,4245.128205128206,4090.2564102564106,4391.282051282052,4094.358974358975,4276.410256410257,4308.205128205129,4421.025641025642,4376.410256410257,1682.0,1685.0,996.308,957.2679443359375,0.0,0.0,0.0,0.0
994634,16.0,0.0,0.0,4489.2307692307695,4151.282051282052,4292.307692307693,4817.435897435898,3789.2307692307695,4205.128205128206,4237.435897435898,4076.410256410257,4376.410256410257,4088.205128205129,4260.000000000001,4305.128205128206,4408.205128205129,4363.589743589744,1682.0,1685.0,996.317,957.2679443359375,0.0,0.0,0.0,0.0
994634,17.0,0.0,0.0,4482.051282051282,4154.358974358975,4285.641025641026,4811.794871794872,3785.1282051282055,4206.153846153847,4231.282051282052,4064.615384615385,4366.153846153847,4079.48717948718,4246.153846153847,4306.153846153847,4392.820512820514,4358.974358974359,1682.0,1685.0,996.323,957.2679443359375,0.0,0.0,0.0,0.0
994634,18.0,0.0,0.0,4492.820512820514,4169.2307692307695,4300.000000000001,4821.538461538462,3784.615384615385,4197.948717948719,4240.000000000001,4087.1794871794878,4383.076923076924,4087.692307692308,4265.641025641026,4311.794871794872,4410.769230769231,4376.410256410257,1681.0,1684.0,996.332,957.2679443359375,0.0,0.0,0.0,0.0
994635,19.0,0.0,0.0,4502.051282051282,4169.2307692307695,4308.205128205129,4825.128205128206,3790.7692307692314,4205.128205128206,4249.2307692307695,4103.076923076924,4395.384615384616,4097.435897435898,4282.564102564103,4313.846153846154,4427.6923076923085,4385.128205128206,1681.0,1684.0,996.339,957.2679443359375,0.0,0.0,0.0,0.0
994635,20.0,0.0,0.0,4495.8974358974365,4166.666666666667,4301.025641025642,4825.641025641026,3796.9230769230776,4217.435897435898,4248.205128205129,4081.538461538462,4382.564102564103,4094.8717948717954,4275.8974358974365,4312.820512820514,4420.512820512821,4379.48717948718,1681.0,1685.0,996.347,957.2679443359375,0.0,0.0,0.0,0.0
994635,21.0,0.0,0.0,4492.307692307693,4167.179487179487,4296.923076923077,4829.2307692307695,3795.8974358974365,4212.820512820514,4245.128205128206,4074.358974358975,4380.512820512821,4093.333333333334,4269.74358974359,4309.743589743591,4413.333333333334,4375.384615384616,1680.0,1684.0,996.355,957.2679443359375,0.0,0.0,0.0,0.0
994635,22.0,0.0,0.0,4492.307692307693,4166.666666666667,4299.48717948718,4826.153846153847,3791.7948717948725,4205.641025641026,4249.2307692307695,4106.153846153847,4401.538461538462,4099.48717948718,4279.48717948718,4310.769230769231,4426.666666666667,4382.564102564103,1680.0,1685.0,996.363,957.2679443359375,0.0,0.0,0.0,0.0
994635,23.0,0.0,0.0,4497.435897435898,4168.717948717949,4306.153846153847,4828.717948717949,3796.410256410257,4210.769230769231,4256.410256410257,4120.512820512821,4412.307692307693,4104.615384615385,4287.6923076923085,4316.410256410257,4443.076923076924,4392.820512820514,1680.0,1685.0,996.37,957.2679443359375,0.0,0.0,0.0,0.0
994635,24.0,0.0,0.0,4500.000000000001,4167.6923076923085,4307.6923076923085,4832.307692307693,3801.0256410256416,4215.384615384616,4255.8974358974365,4108.717948717949,4406.153846153847,4103.076923076924,4280.000000000001,4311.794871794872,4437.948717948719,4389.2307692307695,1680.0,1686.0,996.378,957.2679443359375,0.0,0.0,0.0,0.0
994635,25.0,0.0,0.0,4493.846153846154,4157.435897435898,4299.48717948718,4820.512820512821,3795.3846153846157,4210.256410256411,4249.2307692307695,4100.000000000001,4400.000000000001,4092.820512820513,4260.512820512821,4301.025641025642,4417.435897435898,4374.358974358975,1680.0,1686.0,996.386,957.2679443359375,0.0,0.0,0.0,0.0
994635,26.0,0.0,0.0,4494.358974358975,4158.974358974359,4297.435897435898,4817.435897435898,3791.7948717948725,4207.6923076923085,4248.717948717949,4091.7948717948725,4398.461538461539,4088.717948717949,4255.8974358974365,4304.102564102564,4410.256410256411,4372.820512820514,1680.0,1687.0,996.394,957.2679443359375,0.0,0.0,0.0,0.0
994761,27.0,0.0,0.0,4497.948717948719,4169.74358974359,4306.153846153847,4829.2307692307695,3795.8974358974365,4215.384615384616,4253.333333333334,4085.6410256410263,4400.512820512821,4097.435897435898,4271.794871794872,4313.846153846154,4425.641025641026,4385.128205128206,1681.0,1685.0,996.402,957.39306640625,0.0,0.0,0.0,0.0
994761,28.0,0.0,0.0,4495.384615384616,4162.051282051282,4304.102564102564,4827.179487179488,3793.8461538461543,4216.410256410257,4248.205128205129,4094.8717948717954,4405.641025641026,4100.000000000001,4281.538461538462,4310.769230769231,4434.871794871796,4387.6923076923085,1680.0,1686.0,996.41,957.39306640625,0.0,0.0,0.0,0.0
994761,29.0,0.0,0.0,4493.846153846154,4152.307692307693,4292.307692307693,4814.871794871796,3788.205128205129,4208.205128205129,4242.564102564103,4094.8717948717954,4403.589743589744,4091.7948717948725,4271.794871794872,4304.615384615385,4422.564102564103,4382.051282051282,1681.0,1685.0,996.418,957.39306640625,0.0,0.0,0.0,0.0
994761,30.0,0.0,0.0,4497.948717948719,4162.564102564103,4294.358974358975,4821.025641025642,3794.358974358975,4207.179487179487,4249.2307692307695,4084.615384615385,4395.8974358974365,4089.7435897435903,4269.74358974359,4309.743589743591,4416.410256410257,4385.641025641026,1681.0,1684.0,996.425,957.39306640625,0.0,0.0,0.0,0.0
994761,31.0,0.0,0.0,4500.512820512821,4170.256410256411,4307.179487179487,4832.307692307693,3801.538461538462,4212.820512820514,4255.8974358974365,4102.051282051282,4406.153846153847,4098.974358974359,4284.615384615385,4314.871794871796,4429.2307692307695,4391.794871794872,1681.0,1684.0,996.434,957.39306640625,0.0,0.0,0.0,0.0
994762,32.0,0.0,0.0,4499.48717948718,4167.179487179487,4312.820512820514,4828.717948717949,3796.410256410257,4210.769230769231,4253.846153846154,4123.589743589744,4424.102564102564,4103.589743589744,4292.820512820514,4311.794871794872,4438.461538461539,4393.846153846154,1681.0,1683.0,996.442,957.39306640625,0.0,0.0,0.0,0.0
994762,33.0,0.0,0.0,4500.000000000001,4167.6923076923085,4312.307692307693,4826.153846153847,3795.3846153846157,4208.717948717949,4251.794871794872,4110.769230769231,4420.000000000001,4101.538461538462,4286.153846153847,4309.743589743591,4438.461538461539,4398.461538461539,1681.0,1683.0,996.45,957.39306640625,0.0,0.0,0.0,0.0
994762,34.0,0.0,0.0,4496.410256410257,4165.128205128206,4308.717948717949,4830.769230769231,3801.0256410256416,4217.435897435898,4255.384615384616,4088.205128205129,4404.102564102564,4097.435897435898,4275.8974358974365,4310.256410256411,4434.871794871796,4398.974358974359,1680.0,1682.0,996.457,957.39306640625,0.0,0.0,0.0,0.0
994762,35.0,0.0,0.0,4492.820512820514,4163.076923076924,4302.051282051282,4828.717948717949,3800.512820512821,4221.025641025642,4257.435897435898,4090.7692307692314,4400.512820512821,4095.3846153846157,4270.769230769231,4309.2307692307695,4427.6923076923085,4391.282051282052,1680.0,1683.0,996.465,957.39306640625,0.0,0.0,0.0,0.0
994762,36.0,0.0,0.0,4493.333333333334,4165.641025641026,4303.076923076924,4821.025641025642,3797.9487179487182,4213.846153846154,4257.435897435898,4103.076923076924,4404.102564102564,4097.948717948719,4272.307692307693,4307.6923076923085,4426.153846153847,4385.641025641026,1680.0,1682.0,996.473,957.39306640625,0.0,0.0,0.0,0.0
994763,37.0,0.0,0.0,4493.846153846154,4160.000000000001,4305.641025641026,4817.948717948719,3800.0000000000005,4210.769230769231,4256.410256410257,4105.128205128206,4406.666666666667,4100.512820512821,4271.794871794872,4306.153846153847,4427.179487179487,4386.153846153847,1680.0,1683.0,996.48,957.39306640625,0.0,0.0,0.0,0.0
994763,38.0,0.0,0.0,4493.846153846154,4154.871794871796,4301.025641025642,4817.435897435898,3797.9487179487182,4214.358974358975,4252.307692307693,4100.512820512821,4411.282051282052,4100.512820512821,4271.282051282052,4305.641025641026,4424.102564102564,4385.641025641026,1681.0,1682.0,996.488,957.39306640625,0.0,0.0,0.0,0.0
994763,39.0,0.0,0.0,4495.384615384616,4164.102564102564,4302.564102564103,4821.025641025642,3793.8461538461543,4214.358974358975,4251.794871794872,4097.435897435898,4412.307692307693,4099.48717948718,4278.461538461539,4306.153846153847,4425.641025641026,4387.179487179487,1679.0,1683.0,996.496,957.39306640625,0.0,0.0,0.0,0.0
994763,40.0,0.0,0.0,4497.948717948719,4170.769230769231,4313.846153846154,4827.179487179488,3795.8974358974365,4209.2307692307695,4255.8974358974365,4108.205128205129,4412.820512820514,4101.538461538462,4287.6923076923085,4309.2307692307695,4434.358974358975,4391.282051282052,1681.0,1683.0,996.503,957.39306640625,0.0,0.0,0.0,0.0
994763,41.0,0.0,0.0,4497.948717948719,4168.205128205129,4314.871794871796,4830.256410256411,3801.0256410256416,4208.717948717949,4259.48717948718,4116.923076923077,4417.435897435898,4104.102564102564,4286.153846153847,4311.794871794872,4437.948717948719,4393.333333333334,1679.0,1683.0,996.511,957.39306640625,0.0,0.0,0.0,0.0
994763,42.0,0.0,0.0,4500.512820512821,4166.153846153847,4306.153846153847,4830.769230769231,3802.564102564103,4215.384615384616,4260.000000000001,4107.179487179487,4416.410256410257,4101.538461538462,4283.589743589744,4310.769230769231,4438.974358974359,4394.871794871796,1680.0,1685.0,996.519,957.39306640625,0.0,0.0,0.0,0.0
994880,43.0,0.0,0.0,4497.435897435898,4162.051282051282,4302.564102564103,4827.179487179488,3800.0000000000005,4224.615384615385,4257.435897435898,4100.512820512821,4411.282051282052,4097.948717948719,4285.641025641026,4308.205128205129,4437.948717948719,4390.769230769231,1680.0,1684.0,996.527,957.5181884765625,0.0,0.0,0.0,0.0
994880,44.0,0.0,0.0,4487.6923076923085,4157.435897435898,4301.538461538462,4818.974358974359,3797.9487179487182,4226.666666666667,4255.384615384616,4110.256410256411,4408.205128205129,4097.948717948719,4283.589743589744,4306.153846153847,4428.205128205129,4385.128205128206,1679.0,1685.0,996.535,957.5181884765625,0.0,0.0,0.0,0.0
994880,45.0,0.0,0.0,4486.153846153847,4159.48717948718,4300.000000000001,4816.923076923077,3798.461538461539,4219.48717948718,4254.358974358975,4108.205128205129,4402.564102564103,4097.435897435898,4280.512820512821,4304.615384615385,4423.076923076924,4387.179487179487,1680.0,1685.0,996.543,957.5181884765625,0.0,0.0,0.0,0.0
994880,46.0,0.0,0.0,4494.358974358975,4164.615384615385,4304.102564102564,4821.025641025642,3797.9487179487182,4211.794871794872,4255.384615384616,4097.948717948719,4403.076923076924,4097.435897435898,4285.128205128206,4306.153846153847,4428.717948717949,4391.794871794872,1681.0,1685.0,996.551,957.5181884765625,0.0,0.0,0.0,0.0
994880,47.0,0.0,0.0,4497.948717948719,4167.179487179487,4307.6923076923085,4823.589743589744,3793.333333333334,4207.6923076923085,4254.358974358975,4112.307692307693,4417.948717948719,4101.025641025642,4292.307692307693,4310.769230769231,4432.820512820514,4395.384615384616,1681.0,1685.0,996.558,957.5181884765625,0.0,0.0,0.0,0.0
994881,48.0,0.0,0.0,4494.358974358975,4165.128205128206,4302.564102564103,4822.051282051282,3788.205128205129,4208.205128205129,4251.794871794872,4121.025641025642,4418.461538461539,4101.538461538462,4289.74358974359,4310.769230769231,4428.717948717949,4393.333333333334,1681.0,1685.0,996.567,957.5181884765625,0.0,0.0,0.0,0.0
994881,49.0,0.0,0.0,4493.846153846154,4166.666666666667,4301.025641025642,4821.025641025642,3789.7435897435903,4210.769230769231,4251.282051282052,4106.153846153847,4403.589743589744,4096.923076923077,4281.538461538462,4307.179487179487,4424.615384615385,4388.717948717949,1682.0,1684.0,996.575,957.5181884765625,0.0,0.0,0.0,0.0
994881,50.0,0.0,0.0,4494.358974358975,4165.641025641026,4302.051282051282,4821.025641025642,3793.8461538461543,4212.820512820514,4253.333333333334,4096.410256410257,4396.923076923077,4095.3846153846157,4273.846153846154,4305.641025641026,4420.000000000001,4386.666666666667,1681.0,1685.0,996.583,957.5181884765625,0.0,0.0,0.0,0.0
994881,51.0,0.0,0.0,4488.205128205129,4158.461538461539,4296.923076923077,4819.48717948718,3793.8461538461543,4218.461538461539,4256.410256410257,4097.948717948719,4399.48717948718,4096.410256410257,4270.256410256411,4304.102564102564,4414.871794871796,4385.128205128206,1682.0,1685.0,996.589,957.5181884765625,0.0,0.0,0.0,0.0
994881,52.0,0.0,0.0,4486.666666666667,4161.025641025642,4299.48717948718,4820.000000000001,3794.358974358975,4218.974358974359,4258.461538461539,4098.974358974359,4402.564102564103,4096.923076923077,4274.358974358975,4305.128205128206,4417.435897435898,4384.615384615385,1681.0,1684.0,996.597,957.5181884765625,0.0,0.0,0.0,0.0
994881,53.0,0.0,0.0,4492.307692307693,4169.74358974359,4309.2307692307695,4825.641025641026,3797.9487179487182,4212.820512820514,4258.461538461539,4094.8717948717954,4401.538461538462,4098.461538461539,4278.461538461539,4308.717948717949,4422.051282051282,4388.717948717949,1681.0,1686.0,996.605,957.5181884765625,0.0,0.0,0.0,0.0
994881,54.0,0.0,0.0,4500.000000000001,4168.717948717949,4307.179487179487,4830.769230769231,3800.512820512821,4216.410256410257,4258.974358974359,4094.358974358975,4402.564102564103,4099.48717948718,4275.8974358974365,4307.6923076923085,4420.000000000001,4390.256410256411,1681.0,1685.0,996.613,957.5181884765625,0.0,0.0,0.0,0.0
994881,55.0,0.0,0.0,4502.564102564103,4166.153846153847,4305.641025641026,4827.179487179488,3801.538461538462,4225.641025641026,4263.589743589744,4110.256410256411,4412.820512820514,4104.615384615385,4279.48717948718,4308.205128205129,4423.076923076924,4391.282051282052,1681.0,1687.0,996.621,957.5181884765625,0.0,0.0,0.0,0.0
994882,56.0,0.0,0.0,4496.923076923077,4167.6923076923085,4312.307692307693,4824.615384615386,3799.48717948718,4224.615384615385,4267.6923076923085,4128.717948717949,4422.051282051282,4109.74358974359,4290.256410256411,4311.794871794872,4432.307692307693,4396.923076923077,1681.0,1686.0,996.628,957.5181884765625,0.0,0.0,0.0,0.0
994882,57.0,0.0,0.0,4493.846153846154,4167.6923076923085,4309.2307692307695,4829.2307692307695,3795.3846153846157,4215.384615384616,4264.102564102564,4122.051282051282,4415.384615384616,4104.102564102564,4289.74358974359,4311.794871794872,4432.307692307693,4395.384615384616,1681.0,1687.0,996.636,957.5181884765625,0.0,0.0,0.0,0.0
994882,58.0,0.0,0.0,4500.000000000001,4166.153846153847,4302.051282051282,4829.743589743591,3794.8717948717954,4212.820512820514,4259.48717948718,4102.564102564103,4402.564102564103,4097.948717948719,4278.974358974359,4309.743589743591,4424.615384615385,4388.717948717949,1680.0,1687.0,996.644,957.5181884765625,0.0,0.0,0.0,0.0
995018,59.0,0.0,0.0,4493.333333333334,4160.512820512821,4297.435897435898,4822.564102564103,3794.358974358975,4214.358974358975,4253.846153846154,4096.923076923077,4393.333333333334,4093.8461538461543,4270.256410256411,4304.102564102564,4413.333333333334,4383.076923076924,1680.0,1687.0,996.653,957.643310546875,0.0,0.0,0.0,0.0
995018,60.0,0.0,0.0,4484.102564102564,4154.871794871796,4292.307692307693,4813.846153846154,3786.1538461538466,4210.769230769231,4248.205128205129,4094.8717948717954,4388.205128205129,4088.205128205129,4265.128205128206,4297.948717948719,4405.128205128206,4379.48717948718,1680.0,1686.0,996.66,957.643310546875,0.0,0.0,0.0,0.0
995018,61.0,0.0,0.0,4489.2307692307695,4158.974358974359,4294.358974358975,4815.8974358974365,3783.076923076924,4209.2307692307695,4249.2307692307695,4090.2564102564106,4391.794871794872,4091.7948717948725,4267.6923076923085,4298.974358974359,4411.794871794872,4384.102564102564,1679.0,1687.0,996.668,957.643310546875,0.0,0.0,0.0,0.0
995018,62.0,0.0,0.0,4492.820512820514,4160.000000000001,4298.461538461539,4817.435897435898,3787.692307692308,4212.820512820514,4253.846153846154,4095.3846153846157,4397.435897435898,4096.410256410257,4273.333333333334,4303.076923076924,4418.461538461539,4388.205128205129,1680.0,1686.0,996.676,957.643310546875,0.0,0.0,0.0,0.0
995018,63.0,0.0,0.0,4490.256410256411,4155.8974358974365,4297.948717948719,4812.307692307693,3786.666666666667,4210.256410256411,4255.384615384616,4109.2307692307695,4404.102564102564,4092.820512820513,4274.871794871796,4304.102564102564,4412.307692307693,4384.615384615385,1679.0,1686.0,996.684,957.643310546875,0.0,0.0,0.0,0.0
995018,64.0,0.0,474.0,4491.282051282052,4156.410256410257,4298.461538461539,4812.820512820514,3785.1282051282055,4205.641025641026,4255.384615384616,4105.641025641026,4403.589743589744,4089.23076923077,4273.333333333334,4305.641025641026,4411.282051282052,4384.102564102564,1679.0,1687.0,996.691,957.643310546875,0.0,0.0,0.0,0.0
995019,65.0,0.0,279.0,4489.2307692307695,4156.923076923077,4296.923076923077,4814.358974358975,3789.2307692307695,4212.820512820514,4256.923076923077,4091.7948717948725,4394.871794871796,4091.2820512820517,4271.282051282052,4304.615384615385,4416.923076923077,4385.641025641026,1680.0,1686.0,996.7,957.643310546875,0.0,0.0,0.0,0.0
995019,66.0,0.0,448.0,4490.769230769231,4152.820512820514,4293.846153846154,4809.2307692307695,3788.205128205129,4214.358974358975,4258.974358974359,4101.538461538462,4396.923076923077,4094.358974358975,4272.307692307693,4304.102564102564,4415.384615384616,4381.025641025642,1679.0,1687.0,996.707,957.643310546875,0.0,0.0,0.0,0.0
995019,67.0,0.0,353.0,4500.000000000001,4156.410256410257,4301.025641025642,4811.282051282052,3785.6410256410263,4203.076923076924,4258.461538461539,4109.74358974359,4402.564102564103,4096.410256410257,4273.333333333334,4307.6923076923085,4414.871794871796,4382.564102564103,1680.0,1686.0,996.714,957.643310546875,0.0,0.0,0.0,0.0
995019,68.0,0.0,456.0,4499.48717948718,4162.051282051282,4307.179487179487,4817.435897435898,3793.333333333334,4205.128205128206,4257.948717948719,4097.435897435898,4395.384615384616,4095.3846153846157,4271.282051282052,4307.6923076923085,4416.410256410257,4388.205128205129,1680.0,1686.0,996.722,957.643310546875,0.0,0.0,0.0,0.0
995019,69.0,0.0,548.0,4488.205128205129,4156.923076923077,4298.461538461539,4814.871794871796,3794.8717948717954,4219.48717948718,4256.410256410257,4088.205128205129,4386.666666666667,4093.8461538461543,4268.717948717949,4305.128205128206,4411.282051282052,4385.641025641026,1680.0,1686.0,996.73,957.643310546875,0.0,0.0,0.0,0.0
995019,70.0,0.0,533.0,4487.179487179488,4155.8974358974365,4292.820512820514,4812.820512820514,3788.717948717949,4226.153846153847,4253.846153846154,4088.205128205129,4387.179487179487,4095.8974358974365,4271.282051282052,4305.641025641026,4411.282051282052,4383.589743589744,1680.0,1685.0,996.738,957.643310546875,0.0,0.0,0.0,0.0
995020,71.0,0.0,478.0,4498.461538461539,4167.6923076923085,4307.179487179487,4822.564102564103,3794.358974358975,4221.025641025642,4262.564102564103,4101.538461538462,4403.076923076924,4105.128205128206,4280.512820512821,4311.282051282052,4428.205128205129,4396.410256410257,1681.0,1686.0,996.746,957.643310546875,0.0,0.0,0.0,0.0
995020,72.0,0.0,420.0,4507.6923076923085,4174.358974358975,4322.051282051282,4831.794871794872,3803.589743589744,4213.846153846154,4272.820512820514,4120.512820512821,4423.076923076924,4109.74358974359,4291.794871794872,4317.435897435898,4444.102564102564,4412.307692307693,1681.0,1685.0,996.754,957.643310546875,0.0,0.0,0.0,0.0
995020,73.0,0.0,455.0,4506.666666666667,4169.74358974359,4318.974358974359,4832.307692307693,3800.0000000000005,4214.358974358975,4265.641025641026,4114.871794871796,4418.461538461539,4105.128205128206,4294.358974358975,4315.384615384616,4441.025641025642,4411.794871794872,1681.0,1685.0,996.761,957.643310546875,0.0,0.0,0.0,0.0
995021,74.0,0.0,487.0,4504.615384615385,4169.74358974359,4312.307692307693,4826.153846153847,3796.9230769230776,4215.8974358974365,4259.48717948718,4108.205128205129,4408.205128205129,4103.076923076924,4286.153846153847,4308.717948717949,4433.333333333334,4400.512820512821,1681.0,1684.0,996.769,957.643310546875,0.0,0.0,0.0,0.0
995137,75.0,0.0,438.0,4499.48717948718,4167.6923076923085,4307.179487179487,4821.538461538462,3800.512820512821,4214.871794871796,4268.205128205129,4121.025641025642,4416.923076923077,4105.128205128206,4277.948717948719,4305.128205128206,4429.743589743591,4393.333333333334,1682.0,1684.0,996.778,957.7683715820312,0.0,0.0,0.0,0.0
995137,76.0,0.0,448.0,4493.846153846154,4161.025641025642,4301.025641025642,4819.48717948718,3801.0256410256416,4220.512820512821,4267.179487179487,4110.769230769231,4411.282051282052,4096.923076923077,4272.820512820514,4303.589743589744,4421.538461538462,4390.769230769231,1681.0,1684.0,996.786,957.7683715820312,0.0,0.0,0.0,0.0
995137,77.0,0.0,241.0,4494.358974358975,4161.025641025642,4300.512820512821,4816.923076923077,3796.9230769230776,4224.615384615385,4254.871794871796,4080.5128205128212,4386.666666666667,4086.666666666667,4267.6923076923085,4303.589743589744,4412.820512820514,4387.179487179487,1681.0,1684.0,996.793,957.7683715820312,0.0,0.0,0.0,0.0
995137,78.0,0.0,487.0,4494.871794871796,4160.512820512821,4302.564102564103,4816.410256410257,3794.8717948717954,4217.435897435898,4251.794871794872,4073.333333333334,4380.512820512821,4089.7435897435903,4264.102564102564,4305.641025641026,4411.794871794872,4384.615384615385,1680.0,1684.0,996.802,957.7683715820312,0.0,0.0,0.0,0.0
995137,79.0,0.0,438.0,4492.307692307693,4161.538461538462,4302.564102564103,4817.435897435898,3794.358974358975,4212.820512820514,4257.948717948719,4090.7692307692314,4398.461538461539,4096.410256410257,4264.615384615385,4305.128205128206,4410.769230769231,4385.128205128206,1681.0,1684.0,996.808,957.7683715820312,0.0,0.0,0.0,0.0
995138,80.0,0.0,448.0,4489.743589743591,4162.564102564103,4300.512820512821,4818.974358974359,3794.358974358975,4216.410256410257,4258.461538461539,4105.641025641026,4407.179487179487,4094.358974358975,4257.948717948719,4300.512820512821,4401.025641025642,4377.435897435898,1680.0,1684.0,996.817,957.7683715820312,0.0,0.0,0.0,0.0
995138,81.0,0.0,241.0,4484.615384615385,4157.948717948719,4299.48717948718,4816.923076923077,3796.410256410257,4223.589743589744,4254.358974358975,4096.923076923077,4393.333333333334,4086.666666666667,4246.666666666667,4298.461538461539,4392.307692307693,4369.2307692307695,1681.0,1684.0,996.824,957.7683715820312,0.0,0.0,0.0,0.0
995138,82.0,0.0,487.0,4486.666666666667,4157.435897435898,4299.48717948718,4813.846153846154,3799.48717948718,4227.6923076923085,4255.8974358974365,4086.1538461538466,4388.717948717949,4090.2564102564106,4255.384615384616,4304.102564102564,4404.615384615385,4375.384615384616,1680.0,1684.0,996.833,957.7683715820312,0.0,0.0,0.0,0.0
995139,83.0,0.0,438.0,4498.461538461539,4166.153846153847,4307.179487179487,4819.48717948718,3800.0000000000005,4219.48717948718,4263.076923076924,4106.666666666667,4411.794871794872,4102.051282051282,4275.8974358974365,4310.769230769231,4426.666666666667,4391.282051282052,1680.0,1685.0,996.84,957.7683715820312,0.0,0.0,0.0,0.0
995139,84.0,0.0,448.0,4499.48717948718,4170.769230769231,4314.871794871796,4827.179487179488,3797.435897435898,4210.769230769231,4265.641025641026,4122.564102564103,4423.076923076924,4105.128205128206,4278.974358974359,4310.769230769231,4428.717948717949,4395.8974358974365,1681.0,1683.0,996.847,957.7683715820312,0.0,0.0,0.0,0.0
995139,85.0,0.0,241.0,4488.717948717949,4164.102564102564,4311.794871794872,4821.025641025642,3798.9743589743593,4217.435897435898,4261.025641025642,4104.102564102564,4407.179487179487,4098.974358974359,4270.256410256411,4305.128205128206,4416.923076923077,4388.717948717949,1680.0,1684.0,996.855,957.7683715820312,0.0,0.0,0.0,0.0
995139,86.0,0.0,487.0,4487.179487179488,4156.410256410257,4302.051282051282,4809.2307692307695,3798.9743589743593,4227.6923076923085,4257.948717948719,4090.7692307692314,4399.48717948718,4092.307692307693,4264.102564102564,4301.025641025642,4410.769230769231,4384.102564102564,1680.0,1682.0,996.863,957.7683715820312,0.0,0.0,0.0,0.0
995140,87.0,0.0,438.0,4493.333333333334,4157.435897435898,4301.538461538462,4812.307692307693,3798.9743589743593,4226.153846153847,4258.974358974359,4092.820512820513,4402.051282051282,4092.820512820513,4263.076923076924,4305.641025641026,4413.333333333334,4385.128205128206,1680.0,1683.0,996.871,957.7683715820312,0.0,0.0,0.0,0.0
995141,88.0,0.0,448.0,4495.8974358974365,4167.179487179487,4309.2307692307695,4824.102564102564,3801.0256410256416,4223.589743589744,4258.974358974359,4096.923076923077,4405.128205128206,4102.051282051282,4270.256410256411,4311.794871794872,4417.948717948719,4391.282051282052,1681.0,1683.0,996.879,957.7683715820312,0.0,0.0,0.0,0.0
995141,89.0,0.0,241.0,4496.410256410257,4170.256410256411,4310.769230769231,4824.615384615386,3801.538461538462,4227.179487179487,4258.461538461539,4098.974358974359,4406.666666666667,4106.153846153847,4280.512820512821,4311.794871794872,4425.128205128206,4396.923076923077,1681.0,1682.0,996.887,957.7683715820312,0.0,0.0,0.0,0.0
995142,90.0,0.0,487.0,4499.48717948718,4165.641025641026,4312.307692307693,4821.538461538462,3802.0512820512827,4229.2307692307695,4264.615384615385,4093.8461538461543,4403.076923076924,4100.000000000001,4284.102564102564,4311.282051282052,4430.256410256411,4400.000000000001,1681.0,1683.0,996.895,957.7683715820312,0.0,0.0,0.0,0.0
995256,91.0,0.0,438.0,4498.461538461539,4169.2307692307695,4317.948717948719,4825.641025641026,3801.0256410256416,4223.589743589744,4270.256410256411,4102.051282051282,4405.128205128206,4102.564102564103,4283.589743589744,4314.871794871796,4429.743589743591,4402.051282051282,1680.0,1682.0,996.902,957.8934936523438,0.0,0.0,0.0,0.0
995257,92.0,0.0,448.0,4497.948717948719,4171.794871794872,4316.410256410257,4830.769230769231,3798.9743589743593,4215.384615384616,4264.615384615385,4116.923076923077,4414.358974358975,4108.205128205129,4285.128205128206,4314.358974358975,4427.6923076923085,4403.589743589744,1681.0,1682.0,996.91,957.8934936523438,0.0,0.0,0.0,0.0
995257,93.0,0.0,241.0,4500.000000000001,4168.717948717949,4311.282051282052,4826.666666666667,3798.9743589743593,4211.282051282052,4256.410256410257,4103.076923076924,4414.358974358975,4103.589743589744,4286.153846153847,4308.717948717949,4430.769230769231,4404.615384615385,1681.0,1682.0,996.918,957.8934936523438,0.0,0.0,0.0,0.0
995258,94.0,0.0,487.0,4500.000000000001,4169.2307692307695,4314.871794871796,4825.641025641026,3798.461538461539,4210.769230769231,4255.384615384616,4090.2564102564106,4411.794871794872,4102.564102564103,4288.717948717949,4309.2307692307695,4435.8974358974365,4406.666666666667,1680.0,1684.0,996.926,957.8934936523438,0.0,0.0,0.0,0.0
995258,95.0,0.0,438.0,4497.948717948719,4170.256410256411,4315.8974358974365,4830.256410256411,3797.9487179487182,4218.461538461539,4258.974358974359,4108.717948717949,4418.974358974359,4106.153846153847,4287.6923076923085,4312.820512820514,4435.8974358974365,4406.153846153847,1682.0,1683.0,996.934,957.8934936523438,0.0,0.0,0.0,0.0
995258,96.0,0.0,448.0,4493.846153846154,4169.2307692307695,4309.743589743591,4827.6923076923085,3800.0000000000005,4228.717948717949,4262.051282051282,4115.8974358974365,4419.48717948718,4106.153846153847,4283.589743589744,4312.820512820514,4431.794871794872,4401.538461538462,1680.0,1685.0,996.941,957.8934936523438,0.0,0.0,0.0,0.0
995259,97.0,0.0,241.0,4496.410256410257,4170.769230769231,4311.794871794872,4827.6923076923085,3801.538461538462,4232.307692307693,4266.666666666667,4107.179487179487,4413.846153846154,4108.205128205129,4289.2307692307695,4312.307692307693,4435.384615384616,4404.102564102564,1682.0,1685.0,996.95,957.8934936523438,0.0,0.0,0.0,0.0
995259,98.0,0.0,487.0,4500.000000000001,4171.282051282052,4318.974358974359,4831.282051282052,3801.538461538462,4231.794871794872,4269.74358974359,4107.6923076923085,4413.846153846154,4113.333333333334,4293.333333333334,4311.282051282052,4438.974358974359,4407.179487179487,1681.0,1686.0,996.957,957.8934936523438,0.0,0.0,0.0,0.0
995259,99.0,0.0,438.0,4496.410256410257,4168.205128205129,4316.923076923077,4828.717948717949,3802.0512820512827,4233.846153846154,4268.205128205129,4105.641025641026,4411.282051282052,4108.205128205129,4281.538461538462,4310.256410256411,4432.820512820514,4402.051282051282,1682.0,1687.0,996.966,957.8934936523438,0.0,0.0,0.0,0.0
995259,100.0,0.0,448.0,4491.282051282052,4168.205128205129,4311.794871794872,4825.641025641026,3800.512820512821,4234.871794871796,4267.6923076923085,4106.153846153847,4410.769230769231,4103.076923076924,4272.820512820514,4308.205128205129,4427.6923076923085,4397.435897435898,1681.0,1687.0,996.973,957.8934936523438,0.0,0.0,0.0,0.0
995259,101.0,0.0,241.0,4494.871794871796,4171.282051282052,4314.871794871796,4827.6923076923085,3800.512820512821,4233.846153846154,4268.717948717949,4112.820512820514,4415.8974358974365,4106.666666666667,4279.48717948718,4306.153846153847,4432.307692307693,4397.948717948719,1682.0,1687.0,996.98,957.8934936523438,0.0,0.0,0.0,0.0
