timestamp,cnt,inerpolated,raw_cq,af3,f7,f3,fc5,t7,p7,o1,o2,p8,t8,fc6,f4,f8,af4,gyrox,gyroy,epoc_timestamp,epoc_es_timestamp,func_id,func_value,marker,sync_signal
550698,59.0,0.0,0.0,4378.974358974359,4148.205128205129,4291.282051282052,4797.948717948719,3784.1025641025644,4216.410256410257,4221.025641025642,4078.9743589743593,4382.051282051282,4066.1538461538466,4209.2307692307695,4288.717948717949,4360.000000000001,4358.974358974359,1682.0,1683.0,552.323,526.0067138671875,0.0,0.0,0.0,0.0
550698,60.0,0.0,0.0,4384.615384615385,4155.384615384616,4297.948717948719,4808.717948717949,3785.1282051282055,4218.974358974359,4220.512820512821,4056.410256410257,4374.358974358975,4071.2820512820517,4220.000000000001,4293.333333333334,4370.256410256411,4366.153846153847,1681.0,1682.0,552.331,526.0067138671875,0.0,0.0,0.0,0.0
550698,61.0,0.0,0.0,4386.153846153847,4155.384615384616,4295.8974358974365,4814.358974358975,3781.538461538462,4217.948717948719,4216.410256410257,4053.333333333334,4370.256410256411,4068.717948717949,4228.205128205129,4293.333333333334,4376.923076923077,4362.564102564103,1682.0,1681.0,552.339,526.0067138671875,0.0,0.0,0.0,0.0
550698,62.0,0.0,0.0,4381.025641025642,4147.179487179487,4291.282051282052,4802.051282051282,3781.538461538462,4208.205128205129,4220.512820512821,4071.7948717948725,4372.820512820514,4062.564102564103,4221.025641025642,4292.307692307693,4368.205128205129,4352.307692307693,1681.0,1681.0,552.348,526.0067138671875,0.0,0.0,0.0,0.0
550698,63.0,0.0,0.0,4383.589743589744,4146.666666666667,4294.358974358975,4794.871794871796,3787.1794871794878,4205.641025641026,4231.282051282052,4093.8461538461543,4386.153846153847,4068.717948717949,4221.538461538462,4293.333333333334,4369.2307692307695,4353.333333333334,1680.0,1681.0,552.355,526.0067138671875,0.0,0.0,0.0,0.0
550699,64.0,0.0,475.0,4388.717948717949,4152.820512820514,4298.461538461539,4802.564102564103,3787.692307692308,4212.307692307693,4235.384615384616,4091.7948717948725,4390.769230769231,4073.333333333334,4228.717948717949,4293.333333333334,4375.8974358974365,4360.000000000001,1681.0,1682.0,552.362,526.0067138671875,0.0,0.0,0.0,0.0
550699,65.0,0.0,326.0,4395.384615384616,4154.358974358975,4305.641025641026,4811.282051282052,3785.1282051282055,4212.820512820514,4233.333333333334,4076.410256410257,4381.025641025642,4071.7948717948725,4230.769230769231,4294.871794871796,4374.871794871796,4365.641025641026,1681.0,1682.0,552.37,526.0067138671875,0.0,0.0,0.0,0.0
550699,66.0,0.0,447.0,4404.102564102564,4152.307692307693,4313.846153846154,4812.820512820514,3786.666666666667,4209.2307692307695,4233.333333333334,4077.435897435898,4383.589743589744,4075.8974358974365,4231.282051282052,4297.948717948719,4377.948717948719,4370.256410256411,1681.0,1682.0,552.378,526.0067138671875,0.0,0.0,0.0,0.0
550699,67.0,0.0,333.0,4404.102564102564,4154.358974358975,4313.846153846154,4810.256410256411,3786.1538461538466,4208.205128205129,4228.717948717949,4085.1282051282055,4395.384615384616,4078.9743589743593,4235.384615384616,4298.974358974359,4384.102564102564,4370.256410256411,1681.0,1683.0,552.386,526.0067138671875,0.0,0.0,0.0,0.0
550699,68.0,0.0,460.0,4400.512820512821,4154.358974358975,4310.256410256411,4810.769230769231,3783.076923076924,4209.74358974359,4224.615384615385,4081.0256410256416,4395.384615384616,4077.9487179487187,4236.410256410257,4296.923076923077,4384.102564102564,4370.256410256411,1681.0,1683.0,552.394,526.0067138671875,0.0,0.0,0.0,0.0
550700,69.0,0.0,550.0,4398.974358974359,4150.256410256411,4310.769230769231,4810.256410256411,3782.564102564103,4209.2307692307695,4226.666666666667,4071.2820512820517,4386.666666666667,4078.9743589743593,4231.282051282052,4294.871794871796,4384.615384615385,4372.820512820514,1681.0,1682.0,552.402,526.0067138671875,0.0,0.0,0.0,0.0
550700,70.0,0.0,532.0,4394.871794871796,4151.282051282052,4309.2307692307695,4808.205128205129,3782.0512820512827,4203.076923076924,4223.076923076924,4063.076923076924,4378.974358974359,4076.9230769230776,4228.717948717949,4295.8974358974365,4385.641025641026,4373.846153846154,1681.0,1683.0,552.409,526.0067138671875,0.0,0.0,0.0,0.0
550700,71.0,0.0,476.0,4395.8974358974365,4154.358974358975,4309.743589743591,4809.743589743591,3779.48717948718,4203.076923076924,4218.974358974359,4068.717948717949,4379.48717948718,4074.8717948717954,4234.358974358975,4299.48717948718,4386.153846153847,4379.48717948718,1682.0,1682.0,552.417,526.0067138671875,0.0,0.0,0.0,0.0
550700,72.0,0.0,415.0,4405.641025641026,4154.358974358975,4314.358974358975,4812.307692307693,3776.410256410257,4206.666666666667,4221.025641025642,4081.538461538462,4387.179487179487,4080.5128205128212,4241.538461538462,4299.48717948718,4392.307692307693,4385.128205128206,1681.0,1683.0,552.425,526.0067138671875,0.0,0.0,0.0,0.0
550700,73.0,0.0,412.0,4408.717948717949,4159.48717948718,4318.461538461539,4814.358974358975,3773.8461538461543,4209.2307692307695,4226.153846153847,4080.0000000000005,4387.179487179487,4084.1025641025644,4244.615384615385,4294.871794871796,4397.435897435898,4385.641025641026,1682.0,1684.0,552.433,526.0067138671875,0.0,0.0,0.0,0.0
550700,74.0,0.0,484.0,4408.205128205129,4165.128205128206,4321.025641025642,4816.410256410257,3779.48717948718,4209.2307692307695,4228.717948717949,4083.589743589744,4387.6923076923085,4083.076923076924,4245.641025641026,4295.8974358974365,4397.435897435898,4387.179487179487,1681.0,1683.0,552.441,526.0067138671875,0.0,0.0,0.0,0.0
550819,75.0,0.0,448.0,4410.769230769231,4160.000000000001,4322.564102564103,4816.923076923077,3784.1025641025644,4207.179487179487,4226.153846153847,4087.692307692308,4391.282051282052,4081.538461538462,4243.589743589744,4301.025641025642,4397.948717948719,4390.769230769231,1682.0,1684.0,552.448,526.1318359375,0.0,0.0,0.0,0.0
550820,76.0,0.0,454.0,4408.717948717949,4153.333333333334,4320.000000000001,4814.871794871796,3776.9230769230776,4203.076923076924,4221.538461538462,4072.820512820513,4386.666666666667,4078.9743589743593,4239.48717948718,4300.512820512821,4396.410256410257,4388.717948717949,1682.0,1685.0,552.456,526.1318359375,0.0,0.0,0.0,0.0
550821,77.0,0.0,188.0,4407.6923076923085,4153.846153846154,4316.923076923077,4814.358974358975,3776.9230769230776,4204.615384615385,4221.025641025642,4071.2820512820517,4384.615384615385,4079.48717948718,4241.025641025642,4300.000000000001,4395.384615384616,4386.666666666667,1682.0,1685.0,552.464,526.1318359375,0.0,0.0,0.0,0.0
550821,78.0,0.0,484.0,4412.307692307693,4156.923076923077,4323.076923076924,4814.871794871796,3782.564102564103,4207.179487179487,4223.589743589744,4085.1282051282055,4391.282051282052,4084.1025641025644,4248.205128205129,4301.025641025642,4400.512820512821,4392.307692307693,1683.0,1685.0,552.472,526.1318359375,0.0,0.0,0.0,0.0
550821,79.0,0.0,448.0,4411.794871794872,4155.384615384616,4325.641025641026,4813.846153846154,3777.9487179487182,4207.6923076923085,4224.615384615385,4084.615384615385,4390.769230769231,4082.564102564103,4248.717948717949,4299.48717948718,4402.564102564103,4392.307692307693,1683.0,1685.0,552.48,526.1318359375,0.0,0.0,0.0,0.0
550821,80.0,0.0,454.0,4406.666666666667,4152.820512820514,4316.923076923077,4813.333333333334,3776.410256410257,4216.923076923077,4229.74358974359,4086.1538461538466,4389.2307692307695,4080.5128205128212,4242.564102564103,4297.948717948719,4398.974358974359,4386.153846153847,1683.0,1684.0,552.489,526.1318359375,0.0,0.0,0.0,0.0
550822,81.0,0.0,188.0,4408.205128205129,4158.974358974359,4317.435897435898,4813.333333333334,3784.1025641025644,4222.051282051282,4232.307692307693,4101.025641025642,4398.974358974359,4087.1794871794878,4245.641025641026,4300.512820512821,4404.102564102564,4389.2307692307695,1682.0,1685.0,552.496,526.1318359375,0.0,0.0,0.0,0.0
550822,82.0,0.0,484.0,4412.820512820514,4162.051282051282,4322.564102564103,4814.358974358975,3784.615384615385,4214.358974358975,4231.282051282052,4097.948717948719,4400.000000000001,4088.717948717949,4251.794871794872,4302.051282051282,4408.717948717949,4393.846153846154,1683.0,1684.0,552.503,526.1318359375,0.0,0.0,0.0,0.0
550822,83.0,0.0,448.0,4411.794871794872,4158.461538461539,4315.8974358974365,4815.384615384616,3782.0512820512827,4211.282051282052,4229.74358974359,4076.9230769230776,4385.128205128206,4081.538461538462,4246.666666666667,4299.48717948718,4398.974358974359,4387.179487179487,1682.0,1685.0,552.511,526.1318359375,0.0,0.0,0.0,0.0
550822,84.0,0.0,454.0,4410.769230769231,4160.000000000001,4312.307692307693,4816.923076923077,3785.6410256410263,4212.820512820514,4227.6923076923085,4076.9230769230776,4385.641025641026,4080.5128205128212,4241.025641025642,4296.410256410257,4391.794871794872,4384.102564102564,1682.0,1685.0,552.519,526.1318359375,0.0,0.0,0.0,0.0
550823,85.0,0.0,188.0,4408.205128205129,4162.051282051282,4313.846153846154,4815.8974358974365,3787.1794871794878,4215.384615384616,4232.820512820514,4095.3846153846157,4399.48717948718,4082.0512820512827,4242.564102564103,4296.410256410257,4393.846153846154,4386.153846153847,1681.0,1684.0,552.527,526.1318359375,0.0,0.0,0.0,0.0
550823,86.0,0.0,484.0,4396.923076923077,4154.358974358975,4300.512820512821,4805.128205128206,3786.1538461538466,4222.564102564103,4235.384615384616,4088.717948717949,4390.256410256411,4076.410256410257,4233.846153846154,4293.846153846154,4389.2307692307695,4376.923076923077,1681.0,1686.0,552.534,526.1318359375,0.0,0.0,0.0,0.0
550823,87.0,0.0,448.0,4391.794871794872,4149.2307692307695,4290.769230769231,4796.923076923077,3785.1282051282055,4222.564102564103,4228.205128205129,4072.307692307693,4376.923076923077,4075.3846153846157,4223.076923076924,4291.282051282052,4385.641025641026,4370.769230769231,1682.0,1684.0,552.542,526.1318359375,0.0,0.0,0.0,0.0
550823,88.0,0.0,454.0,4402.564102564103,4153.846153846154,4304.615384615385,4802.051282051282,3787.692307692308,4209.2307692307695,4229.74358974359,4089.7435897435903,4393.846153846154,4084.615384615385,4233.846153846154,4298.974358974359,4397.435897435898,4382.564102564103,1680.0,1685.0,552.55,526.1318359375,0.0,0.0,0.0,0.0
550823,89.0,0.0,188.0,4413.333333333334,4160.000000000001,4316.923076923077,4814.871794871796,3790.2564102564106,4205.641025641026,4242.051282051282,4114.871794871796,4414.358974358975,4090.2564102564106,4248.717948717949,4303.076923076924,4408.717948717949,4395.384615384616,1682.0,1684.0,552.558,526.1318359375,0.0,0.0,0.0,0.0
550824,90.0,0.0,484.0,4409.2307692307695,4159.48717948718,4307.6923076923085,4814.871794871796,3787.1794871794878,4217.948717948719,4242.564102564103,4103.589743589744,4404.615384615385,4084.615384615385,4245.641025641026,4295.8974358974365,4405.128205128206,4392.820512820514,1681.0,1684.0,552.566,526.1318359375,0.0,0.0,0.0,0.0
550944,91.0,0.0,448.0,4397.948717948719,4152.307692307693,4294.358974358975,4802.051282051282,3782.564102564103,4220.512820512821,4236.923076923077,4080.0000000000005,4385.128205128206,4076.9230769230776,4233.333333333334,4292.307692307693,4393.846153846154,4381.538461538462,1681.0,1684.0,552.574,526.2569580078125,0.0,0.0,0.0,0.0
550944,92.0,0.0,454.0,4394.871794871796,4149.2307692307695,4294.358974358975,4800.000000000001,3783.076923076924,4208.205128205129,4239.48717948718,4085.1282051282055,4388.717948717949,4076.9230769230776,4234.871794871796,4293.333333333334,4388.205128205129,4376.410256410257,1680.0,1684.0,552.581,526.2569580078125,0.0,0.0,0.0,0.0
550944,93.0,0.0,188.0,4402.051282051282,4154.358974358975,4300.000000000001,4809.743589743591,3783.076923076924,4200.512820512821,4241.025641025642,4096.923076923077,4398.461538461539,4081.538461538462,4240.000000000001,4293.846153846154,4390.256410256411,4381.538461538462,1681.0,1684.0,552.589,526.2569580078125,0.0,0.0,0.0,0.0
550944,94.0,0.0,484.0,4409.2307692307695,4154.871794871796,4303.076923076924,4813.333333333334,3783.589743589744,4204.615384615385,4239.48717948718,4089.23076923077,4392.307692307693,4079.48717948718,4233.333333333334,4295.384615384616,4390.769230769231,4386.666666666667,1680.0,1684.0,552.597,526.2569580078125,0.0,0.0,0.0,0.0
550945,95.0,0.0,448.0,4413.333333333334,4152.820512820514,4307.6923076923085,4808.717948717949,3786.666666666667,4211.794871794872,4242.564102564103,4081.538461538462,4386.153846153847,4077.435897435898,4228.205128205129,4298.974358974359,4388.205128205129,4386.153846153847,1681.0,1685.0,552.605,526.2569580078125,0.0,0.0,0.0,0.0
550945,96.0,0.0,454.0,4413.846153846154,4154.358974358975,4312.820512820514,4810.256410256411,3786.666666666667,4212.820512820514,4247.179487179487,4089.7435897435903,4394.358974358975,4082.0512820512827,4235.384615384616,4300.512820512821,4390.769230769231,4388.205128205129,1680.0,1684.0,552.613,526.2569580078125,0.0,0.0,0.0,0.0
550945,97.0,0.0,188.0,4413.333333333334,4157.435897435898,4315.384615384616,4815.384615384616,3790.2564102564106,4212.307692307693,4248.717948717949,4095.3846153846157,4397.435897435898,4084.615384615385,4242.051282051282,4297.435897435898,4397.435897435898,4392.307692307693,1680.0,1684.0,552.62,526.2569580078125,0.0,0.0,0.0,0.0
550946,98.0,0.0,484.0,4414.871794871796,4156.923076923077,4314.871794871796,4814.871794871796,3795.3846153846157,4218.461538461539,4250.769230769231,4089.7435897435903,4389.743589743591,4082.0512820512827,4237.435897435898,4291.794871794872,4396.923076923077,4388.717948717949,1681.0,1683.0,552.628,526.2569580078125,0.0,0.0,0.0,0.0
550946,99.0,0.0,448.0,4413.333333333334,4153.846153846154,4307.6923076923085,4811.794871794872,3790.2564102564106,4219.48717948718,4248.205128205129,4086.1538461538466,4387.179487179487,4081.0256410256416,4229.2307692307695,4291.282051282052,4390.256410256411,4381.025641025642,1681.0,1683.0,552.636,526.2569580078125,0.0,0.0,0.0,0.0
550946,100.0,0.0,454.0,4408.205128205129,4152.307692307693,4298.974358974359,4810.769230769231,3789.2307692307695,4214.871794871796,4245.128205128206,4087.692307692308,4388.205128205129,4083.589743589744,4230.769230769231,4296.410256410257,4391.282051282052,4383.076923076924,1682.0,1683.0,552.644,526.2569580078125,0.0,0.0,0.0,0.0
550946,101.0,0.0,188.0,4407.6923076923085,4156.410256410257,4298.461538461539,4813.846153846154,3794.8717948717954,4217.948717948719,4248.717948717949,4088.717948717949,4389.2307692307695,4085.6410256410263,4241.025641025642,4297.435897435898,4397.435897435898,4388.717948717949,1681.0,1683.0,552.652,526.2569580078125,0.0,0.0,0.0,0.0
550946,102.0,0.0,484.0,4412.307692307693,4161.025641025642,4304.102564102564,4815.384615384616,3791.2820512820517,4218.461538461539,4249.2307692307695,4090.2564102564106,4394.871794871796,4085.6410256410263,4247.179487179487,4296.410256410257,4399.48717948718,4389.743589743591,1682.0,1684.0,552.66,526.2569580078125,0.0,0.0,0.0,0.0
550946,103.0,0.0,448.0,4415.384615384616,4159.48717948718,4307.179487179487,4813.846153846154,3784.1025641025644,4206.153846153847,4241.538461538462,4097.435897435898,4401.538461538462,4086.666666666667,4246.153846153847,4298.461538461539,4401.538461538462,4391.794871794872,1683.0,1684.0,552.667,526.2569580078125,0.0,0.0,0.0,0.0
550947,104.0,0.0,454.0,4414.871794871796,4154.871794871796,4299.48717948718,4812.307692307693,3783.076923076924,4201.538461538462,4236.410256410257,4094.358974358975,4396.410256410257,4085.6410256410263,4244.615384615385,4298.974358974359,4398.461538461539,4390.769230769231,1682.0,1683.0,552.675,526.2569580078125,0.0,0.0,0.0,0.0
550947,105.0,0.0,188.0,4412.820512820514,4152.307692307693,4291.794871794872,4811.282051282052,3788.205128205129,4211.282051282052,4244.615384615385,4086.666666666667,4389.743589743591,4082.564102564103,4242.051282051282,4296.410256410257,4390.769230769231,4386.153846153847,1682.0,1684.0,552.683,526.2569580078125,0.0,0.0,0.0,0.0
550947,106.0,0.0,484.0,4414.871794871796,4155.8974358974365,4296.410256410257,4813.846153846154,3794.8717948717954,4214.871794871796,4251.794871794872,4087.1794871794878,4390.769230769231,4082.0512820512827,4238.974358974359,4296.410256410257,4390.769230769231,4388.205128205129,1683.0,1685.0,552.691,526.2569580078125,0.0,0.0,0.0,0.0
550978,107.0,0.0,448.0,4416.410256410257,4163.589743589744,4302.564102564103,4816.923076923077,3796.9230769230776,4214.871794871796,4244.102564102564,4076.410256410257,4383.076923076924,4082.564102564103,4240.000000000001,4296.923076923077,4394.871794871796,4391.794871794872,1683.0,1684.0,552.699,526.382080078125,0.0,0.0,0.0,0.0
550978,108.0,0.0,454.0,4415.8974358974365,4162.051282051282,4300.512820512821,4815.8974358974365,3793.8461538461543,4219.48717948718,4243.589743589744,4070.7692307692314,4378.974358974359,4082.0512820512827,4240.512820512821,4297.435897435898,4395.384615384616,4390.769230769231,1682.0,1686.0,552.706,526.382080078125,0.0,0.0,0.0,0.0
550978,109.0,0.0,188.0,4415.8974358974365,4152.820512820514,4298.974358974359,4812.307692307693,3796.410256410257,4220.000000000001,4252.820512820514,4093.8461538461543,4394.871794871796,4085.6410256410263,4241.538461538462,4298.461538461539,4396.923076923077,4391.794871794872,1683.0,1684.0,552.715,526.382080078125,0.0,0.0,0.0,0.0
550978,110.0,0.0,484.0,4411.794871794872,4150.769230769231,4298.461538461539,4811.282051282052,3795.3846153846157,4215.384615384616,4251.282051282052,4101.025641025642,4400.000000000001,4086.666666666667,4240.000000000001,4299.48717948718,4395.384615384616,4392.307692307693,1682.0,1686.0,552.722,526.382080078125,0.0,0.0,0.0,0.0
551073,111.0,0.0,448.0,4408.205128205129,4154.871794871796,4295.384615384616,4809.2307692307695,3784.615384615385,4211.794871794872,4244.102564102564,4089.7435897435903,4390.769230769231,4081.0256410256416,4232.820512820514,4300.000000000001,4390.256410256411,4389.743589743591,1682.0,1685.0,552.73,526.413330078125,0.0,0.0,0.0,0.0
551074,112.0,0.0,454.0,4414.358974358975,4154.358974358975,4298.974358974359,4809.2307692307695,3783.589743589744,4210.256410256411,4247.179487179487,4107.6923076923085,4402.051282051282,4083.076923076924,4234.871794871796,4299.48717948718,4395.384615384616,4396.410256410257,1681.0,1685.0,552.739,526.413330078125,0.0,0.0,0.0,0.0
551074,113.0,0.0,188.0,4425.128205128206,4154.871794871796,4309.2307692307695,4816.410256410257,3788.717948717949,4212.307692307693,4251.282051282052,4119.48717948718,4414.871794871796,4094.358974358975,4245.128205128206,4302.564102564103,4404.615384615385,4409.2307692307695,1681.0,1685.0,552.746,526.413330078125,0.0,0.0,0.0,0.0
551074,114.0,0.0,484.0,4428.717948717949,4161.025641025642,4312.307692307693,4820.000000000001,3788.205128205129,4216.923076923077,4248.717948717949,4091.7948717948725,4401.025641025642,4094.8717948717954,4248.717948717949,4304.102564102564,4407.179487179487,4411.794871794872,1681.0,1684.0,552.754,526.413330078125,0.0,0.0,0.0,0.0
551074,115.0,0.0,448.0,4422.564102564103,4161.025641025642,4304.102564102564,4816.410256410257,3789.7435897435903,4217.948717948719,4247.179487179487,4071.2820512820517,4386.666666666667,4083.589743589744,4243.076923076924,4300.000000000001,4402.564102564103,4404.615384615385,1681.0,1684.0,552.761,526.413330078125,0.0,0.0,0.0,0.0
551074,116.0,0.0,454.0,4418.974358974359,4157.948717948719,4301.538461538462,4815.8974358974365,3791.2820512820517,4212.820512820514,4247.179487179487,4080.5128205128212,4390.769230769231,4084.1025641025644,4242.051282051282,4300.000000000001,4402.051282051282,4403.589743589744,1681.0,1684.0,552.769,526.413330078125,0.0,0.0,0.0,0.0
551075,117.0,0.0,188.0,4424.615384615385,4158.974358974359,4305.641025641026,4818.461538461539,3789.2307692307695,4208.205128205129,4250.256410256411,4086.666666666667,4393.846153846154,4086.666666666667,4245.128205128206,4304.615384615385,4408.205128205129,4408.717948717949,1681.0,1685.0,552.778,526.413330078125,0.0,0.0,0.0,0.0
551075,118.0,0.0,484.0,4424.615384615385,4156.410256410257,4304.102564102564,4816.410256410257,3789.7435897435903,4215.384615384616,4251.794871794872,4074.8717948717954,4382.564102564103,4078.461538461539,4241.538461538462,4300.512820512821,4404.615384615385,4402.564102564103,1681.0,1685.0,552.785,526.413330078125,0.0,0.0,0.0,0.0
551075,119.0,0.0,448.0,4415.8974358974365,4153.333333333334,4297.435897435898,4814.358974358975,3791.2820512820517,4223.076923076924,4251.794871794872,4068.717948717949,4377.435897435898,4076.9230769230776,4234.358974358975,4292.820512820514,4395.8974358974365,4393.333333333334,1682.0,1686.0,552.792,526.413330078125,0.0,0.0,0.0,0.0
551075,120.0,0.0,454.0,4416.923076923077,4160.000000000001,4295.384615384616,4815.384615384616,3786.1538461538466,4212.820512820514,4254.358974358975,4084.1025641025644,4390.256410256411,4083.589743589744,4235.384615384616,4295.384615384616,4400.000000000001,4395.8974358974365,1682.0,1687.0,552.801,526.413330078125,0.0,0.0,0.0,0.0
551076,121.0,0.0,188.0,4422.051282051282,4161.538461538462,4298.974358974359,4816.410256410257,3782.564102564103,4199.48717948718,4253.846153846154,4097.435897435898,4400.512820512821,4084.615384615385,4241.025641025642,4301.025641025642,4408.205128205129,4398.974358974359,1682.0,1687.0,552.81,526.413330078125,0.0,0.0,0.0,0.0
551076,122.0,0.0,484.0,4415.384615384616,4152.820512820514,4297.435897435898,4814.871794871796,3786.1538461538466,4205.641025641026,4248.717948717949,4081.0256410256416,4391.282051282052,4080.5128205128212,4234.871794871796,4297.435897435898,4403.589743589744,4392.307692307693,1682.0,1687.0,552.817,526.413330078125,0.0,0.0,0.0,0.0
551451,123.0,0.0,448.0,4409.2307692307695,4151.282051282052,4286.666666666667,4810.256410256411,3785.6410256410263,4213.333333333334,4239.48717948718,4062.0512820512827,4376.923076923077,4076.410256410257,4221.025641025642,4290.769230769231,4389.743589743591,4383.589743589744,1682.0,1686.0,552.824,526.5071411132812,0.0,0.0,0.0,0.0
551451,124.0,0.0,454.0,4410.256410256411,4155.384615384616,4278.974358974359,4809.2307692307695,3785.1282051282055,4206.666666666667,4232.820512820514,4064.1025641025644,4372.820512820514,4071.2820512820517,4213.333333333334,4292.307692307693,4381.538461538462,4380.512820512821,1681.0,1687.0,552.833,526.5071411132812,0.0,0.0,0.0,0.0
551451,125.0,0.0,188.0,4411.794871794872,4153.846153846154,4279.48717948718,4813.333333333334,3785.6410256410263,4201.025641025642,4234.871794871796,4073.8461538461543,4373.333333333334,4073.333333333334,4214.358974358975,4295.384615384616,4383.076923076924,4381.538461538462,1683.0,1687.0,552.839,526.5071411132812,0.0,0.0,0.0,0.0
551451,126.0,0.0,484.0,4412.820512820514,4152.307692307693,4281.025641025642,4812.307692307693,3784.1025641025644,4203.076923076924,4240.000000000001,4081.0256410256416,4381.025641025642,4076.9230769230776,4217.948717948719,4294.871794871796,4383.589743589744,4382.564102564103,1683.0,1686.0,552.847,526.5071411132812,0.0,0.0,0.0,0.0
551452,127.0,0.0,448.0,4417.435897435898,4157.435897435898,4284.615384615385,4811.282051282052,3783.076923076924,4205.641025641026,4243.076923076924,4079.48717948718,4386.666666666667,4075.3846153846157,4221.538461538462,4295.8974358974365,4387.6923076923085,4385.128205128206,1682.0,1687.0,552.855,526.5071411132812,0.0,0.0,0.0,0.0
551452,128.0,0.0,454.0,4423.589743589744,4162.564102564103,4291.794871794872,4823.076923076924,3784.1025641025644,4203.589743589744,4245.641025641026,4084.1025641025644,4390.256410256411,4078.461538461539,4227.6923076923085,4300.000000000001,4404.102564102564,4393.846153846154,1683.0,1685.0,552.864,526.5071411132812,0.0,0.0,0.0,0.0
551453,0.0,0.0,475.0,4428.205128205129,4160.000000000001,4296.923076923077,4828.717948717949,3785.1282051282055,4200.512820512821,4252.307692307693,4101.025641025642,4401.538461538462,4086.666666666667,4237.435897435898,4303.076923076924,4416.923076923077,4405.641025641026,1682.0,1686.0,552.871,526.5071411132812,0.0,0.0,0.0,0.0
551453,1.0,0.0,326.0,4424.102564102564,4156.410256410257,4292.820512820514,4817.948717948719,3784.615384615385,4204.102564102564,4259.48717948718,4095.3846153846157,4400.000000000001,4084.615384615385,4237.948717948719,4300.512820512821,4409.2307692307695,4402.051282051282,1683.0,1686.0,552.879,526.5071411132812,0.0,0.0,0.0,0.0
551454,2.0,0.0,447.0,4410.256410256411,4152.820512820514,4282.051282051282,4810.769230769231,3784.1025641025644,4211.282051282052,4256.410256410257,4065.6410256410263,4378.461538461539,4071.2820512820517,4221.538461538462,4291.794871794872,4393.333333333334,4383.589743589744,1682.0,1685.0,552.886,526.5071411132812,0.0,0.0,0.0,0.0
551454,3.0,0.0,333.0,4404.615384615385,4149.2307692307695,4275.8974358974365,4810.256410256411,3782.564102564103,4206.666666666667,4251.282051282052,4065.1282051282055,4373.846153846154,4069.23076923077,4213.333333333334,4289.2307692307695,4388.717948717949,4377.948717948719,1682.0,1685.0,552.894,526.5071411132812,0.0,0.0,0.0,0.0
551454,4.0,0.0,460.0,4412.307692307693,4152.307692307693,4282.051282051282,4809.743589743591,3782.564102564103,4198.461538461539,4255.384615384616,4088.717948717949,4390.256410256411,4079.48717948718,4226.153846153847,4293.846153846154,4395.384615384616,4390.769230769231,1682.0,1686.0,552.902,526.5071411132812,0.0,0.0,0.0,0.0
551455,5.0,0.0,550.0,4413.846153846154,4156.410256410257,4283.076923076924,4812.820512820514,3782.0512820512827,4202.564102564103,4260.000000000001,4092.307692307693,4390.769230769231,4080.0000000000005,4229.2307692307695,4295.8974358974365,4395.8974358974365,4392.307692307693,1682.0,1686.0,552.91,526.5071411132812,0.0,0.0,0.0,0.0
551455,6.0,0.0,532.0,4405.128205128206,4151.282051282052,4270.769230769231,4811.282051282052,3779.48717948718,4204.102564102564,4257.435897435898,4081.538461538462,4378.461538461539,4067.1794871794878,4213.333333333334,4293.846153846154,4384.102564102564,4377.435897435898,1682.0,1685.0,552.918,526.5071411132812,0.0,0.0,0.0,0.0
551455,7.0,0.0,476.0,4405.128205128206,4149.2307692307695,4264.102564102564,4802.051282051282,3780.512820512821,4201.025641025642,4261.538461538462,4087.692307692308,4379.48717948718,4064.615384615385,4211.282051282052,4292.307692307693,4377.435897435898,4375.384615384616,1681.0,1686.0,552.925,526.5071411132812,0.0,0.0,0.0,0.0
551456,8.0,0.0,415.0,4408.717948717949,4153.846153846154,4269.2307692307695,4799.48717948718,3784.615384615385,4202.564102564103,4265.128205128206,4097.948717948719,4387.179487179487,4072.307692307693,4220.512820512821,4292.820512820514,4379.48717948718,4381.025641025642,1681.0,1685.0,552.934,526.5071411132812,0.0,0.0,0.0,0.0
551456,9.0,0.0,412.0,4401.025641025642,4150.256410256411,4268.205128205129,4800.000000000001,3784.615384615385,4205.641025641026,4262.564102564103,4089.7435897435903,4385.128205128206,4071.2820512820517,4215.8974358974365,4293.333333333334,4378.461538461539,4373.333333333334,1681.0,1686.0,552.941,526.5071411132812,0.0,0.0,0.0,0.0
551456,10.0,0.0,484.0,4400.000000000001,4144.615384615385,4264.102564102564,4797.435897435898,3780.0000000000005,4203.589743589744,4263.589743589744,4076.9230769230776,4379.48717948718,4067.1794871794878,4210.769230769231,4293.333333333334,4376.923076923077,4370.769230769231,1682.0,1685.0,552.95,526.5071411132812,0.0,0.0,0.0,0.0
551457,11.0,0.0,448.0,4409.743589743591,4146.666666666667,4267.6923076923085,4801.025641025642,3776.9230769230776,4201.538461538462,4262.051282051282,4078.9743589743593,4376.923076923077,4069.23076923077,4214.358974358975,4293.846153846154,4375.8974358974365,4379.48717948718,1680.0,1685.0,552.957,526.5071411132812,0.0,0.0,0.0,0.0
551457,12.0,0.0,454.0,4416.410256410257,4152.820512820514,4276.923076923077,4809.2307692307695,3775.3846153846157,4201.538461538462,4259.48717948718,4088.205128205129,4379.48717948718,4072.307692307693,4215.384615384616,4296.410256410257,4378.461538461539,4384.102564102564,1681.0,1685.0,552.965,526.5071411132812,0.0,0.0,0.0,0.0
551457,13.0,0.0,188.0,4417.435897435898,4153.846153846154,4284.615384615385,4811.282051282052,3774.358974358975,4198.461538461539,4264.102564102564,4091.7948717948725,4386.153846153847,4073.8461538461543,4220.000000000001,4297.435897435898,4387.6923076923085,4386.153846153847,1680.0,1684.0,552.973,526.5071411132812,0.0,0.0,0.0,0.0
551457,14.0,0.0,484.0,4420.512820512821,4152.307692307693,4287.179487179487,4812.307692307693,3778.9743589743593,4197.435897435898,4268.205128205129,4088.205128205129,4389.743589743591,4077.435897435898,4227.6923076923085,4295.384615384616,4392.307692307693,4391.282051282052,1681.0,1685.0,552.98,526.5071411132812,0.0,0.0,0.0,0.0
551458,15.0,0.0,448.0,4419.48717948718,4154.358974358975,4282.564102564103,4811.794871794872,3782.564102564103,4203.589743589744,4257.948717948719,4075.8974358974365,4378.461538461539,4074.8717948717954,4220.000000000001,4294.871794871796,4383.589743589744,4389.2307692307695,1681.0,1684.0,552.988,526.5071411132812,0.0,0.0,0.0,0.0
551458,16.0,0.0,0.0,4411.794871794872,4153.846153846154,4276.923076923077,4803.076923076924,3777.9487179487182,4207.179487179487,4251.282051282052,4063.589743589744,4362.564102564103,4065.6410256410263,4204.615384615385,4293.333333333334,4373.846153846154,4374.871794871796,1682.0,1685.0,552.996,526.5071411132812,0.0,0.0,0.0,0.0
551458,17.0,0.0,0.0,4412.820512820514,4152.820512820514,4284.615384615385,4803.589743589744,3777.435897435898,4198.461538461539,4255.8974358974365,4071.2820512820517,4371.282051282052,4066.1538461538466,4208.717948717949,4291.794871794872,4376.923076923077,4373.333333333334,1681.0,1685.0,553.004,526.5071411132812,0.0,0.0,0.0,0.0
551458,18.0,0.0,0.0,4420.512820512821,4154.358974358975,4292.307692307693,4813.333333333334,3783.076923076924,4193.846153846154,4261.025641025642,4087.692307692308,4390.769230769231,4074.8717948717954,4221.538461538462,4294.871794871796,4387.6923076923085,4388.205128205129,1682.0,1686.0,553.011,526.5071411132812,0.0,0.0,0.0,0.0
551458,19.0,0.0,0.0,4422.051282051282,4154.871794871796,4286.153846153847,4816.923076923077,3781.0256410256416,4198.974358974359,4259.48717948718,4084.1025641025644,4388.717948717949,4075.8974358974365,4223.076923076924,4297.948717948719,4390.256410256411,4391.282051282052,1682.0,1685.0,553.019,526.5071411132812,0.0,0.0,0.0,0.0
551458,20.0,0.0,0.0,4417.948717948719,4152.820512820514,4280.000000000001,4808.205128205129,3774.358974358975,4198.974358974359,4253.846153846154,4076.410256410257,4380.000000000001,4073.8461538461543,4220.512820512821,4298.461538461539,4386.666666666667,4381.025641025642,1682.0,1686.0,553.027,526.5071411132812,0.0,0.0,0.0,0.0
551459,21.0,0.0,0.0,4412.820512820514,4150.769230769231,4280.512820512821,4800.000000000001,3773.333333333334,4194.871794871796,4254.358974358975,4085.6410256410263,4385.641025641026,4072.307692307693,4218.461538461539,4297.948717948719,4386.153846153847,4378.974358974359,1683.0,1685.0,553.035,526.5071411132812,0.0,0.0,0.0,0.0
551459,22.0,0.0,0.0,4412.307692307693,4151.794871794872,4279.48717948718,4803.076923076924,3774.8717948717954,4195.8974358974365,4256.923076923077,4092.820512820513,4390.769230769231,4070.2564102564106,4213.846153846154,4295.8974358974365,4384.102564102564,4384.615384615385,1682.0,1685.0,553.043,526.5071411132812,0.0,0.0,0.0,0.0
551459,23.0,0.0,0.0,4413.846153846154,4153.846153846154,4279.48717948718,4807.6923076923085,3776.410256410257,4199.48717948718,4260.512820512821,4089.23076923077,4387.179487179487,4073.333333333334,4214.871794871796,4294.871794871796,4380.512820512821,4383.076923076924,1683.0,1685.0,553.053,526.5071411132812,0.0,0.0,0.0,0.0
551459,24.0,0.0,0.0,4412.307692307693,4151.794871794872,4278.974358974359,4801.025641025642,3773.333333333334,4200.512820512821,4261.538461538462,4087.1794871794878,4384.615384615385,4075.3846153846157,4222.051282051282,4294.358974358975,4383.076923076924,4377.948717948719,1682.0,1685.0,553.059,526.5071411132812,0.0,0.0,0.0,0.0
551459,25.0,0.0,0.0,4412.307692307693,4149.74358974359,4272.820512820514,4795.8974358974365,3767.692307692308,4194.358974358975,4255.8974358974365,4079.48717948718,4381.538461538462,4071.7948717948725,4224.102564102564,4294.871794871796,4389.2307692307695,4376.410256410257,1683.0,1685.0,553.067,526.5071411132812,0.0,0.0,0.0,0.0
551459,26.0,0.0,0.0,4415.8974358974365,4151.282051282052,4272.820512820514,4802.564102564103,3771.2820512820517,4190.769230769231,4249.74358974359,4070.2564102564106,4378.974358974359,4068.717948717949,4218.461538461539,4293.846153846154,4386.666666666667,4376.410256410257,1683.0,1684.0,553.074,526.5071411132812,0.0,0.0,0.0,0.0
551459,27.0,0.0,0.0,4412.820512820514,4150.769230769231,4272.820512820514,4799.48717948718,3774.8717948717954,4195.8974358974365,4245.641025641026,4072.307692307693,4377.435897435898,4067.1794871794878,4210.256410256411,4291.794871794872,4377.435897435898,4372.307692307693,1682.0,1685.0,553.083,526.5071411132812,0.0,0.0,0.0,0.0
551459,28.0,0.0,0.0,4412.307692307693,4150.256410256411,4272.820512820514,4791.794871794872,3768.205128205129,4200.000000000001,4243.076923076924,4073.333333333334,4377.948717948719,4068.717948717949,4214.871794871796,4293.846153846154,4380.512820512821,4373.846153846154,1682.0,1684.0,553.09,526.5071411132812,0.0,0.0,0.0,0.0
551460,29.0,0.0,0.0,4424.102564102564,4153.333333333334,4285.128205128206,4803.589743589744,3769.7435897435903,4196.410256410257,4246.153846153847,4077.435897435898,4387.179487179487,4076.410256410257,4234.871794871796,4301.025641025642,4395.8974358974365,4387.6923076923085,1682.0,1685.0,553.097,526.5071411132812,0.0,0.0,0.0,0.0
551460,30.0,0.0,0.0,4429.2307692307695,4154.871794871796,4294.871794871796,4814.358974358975,3782.0512820512827,4199.48717948718,4255.8974358974365,4095.3846153846157,4395.384615384616,4082.564102564103,4242.564102564103,4301.025641025642,4402.564102564103,4395.8974358974365,1682.0,1684.0,553.105,526.5071411132812,0.0,0.0,0.0,0.0
551461,31.0,0.0,0.0,4418.461538461539,4154.358974358975,4282.051282051282,4805.641025641026,3784.1025641025644,4210.769230769231,4254.358974358975,4093.8461538461543,4384.615384615385,4076.410256410257,4226.666666666667,4293.333333333334,4386.153846153847,4386.666666666667,1682.0,1685.0,553.114,526.5071411132812,0.0,0.0,0.0,0.0
551461,32.0,0.0,0.0,4408.717948717949,4148.205128205129,4270.769230769231,4795.8974358974365,3775.8974358974365,4216.410256410257,4245.128205128206,4070.2564102564106,4370.769230769231,4065.6410256410263,4212.307692307693,4288.717948717949,4367.179487179487,4373.846153846154,1682.0,1684.0,553.121,526.5071411132812,0.0,0.0,0.0,0.0
551461,33.0,0.0,0.0,4412.307692307693,4145.128205128206,4277.435897435898,4798.974358974359,3774.358974358975,4211.282051282052,4248.205128205129,4072.307692307693,4376.923076923077,4065.1282051282055,4216.410256410257,4292.820512820514,4369.2307692307695,4376.410256410257,1681.0,1685.0,553.129,526.5071411132812,0.0,0.0,0.0,0.0
551462,34.0,0.0,0.0,4414.871794871796,4149.74358974359,4280.000000000001,4801.025641025642,3774.8717948717954,4202.051282051282,4252.820512820514,4096.410256410257,4387.6923076923085,4072.307692307693,4224.102564102564,4295.8974358974365,4377.948717948719,4382.564102564103,1681.0,1685.0,553.138,526.5071411132812,0.0,0.0,0.0,0.0
551462,35.0,0.0,0.0,4406.666666666667,4145.641025641026,4271.282051282052,4796.410256410257,3770.7692307692314,4197.948717948719,4244.102564102564,4090.2564102564106,4381.025641025642,4072.820512820513,4220.512820512821,4293.846153846154,4373.846153846154,4378.461538461539,1681.0,1683.0,553.144,526.5071411132812,0.0,0.0,0.0,0.0
551462,36.0,0.0,0.0,4404.102564102564,4140.512820512821,4264.615384615385,4793.333333333334,3767.692307692308,4195.8974358974365,4237.948717948719,4071.7948717948725,4374.358974358975,4068.205128205129,4218.974358974359,4292.820512820514,4368.205128205129,4373.333333333334,1681.0,1685.0,553.152,526.5071411132812,0.0,0.0,0.0,0.0
551462,37.0,0.0,0.0,4410.769230769231,4148.717948717949,4269.2307692307695,4794.358974358975,3770.2564102564106,4194.871794871796,4243.076923076924,4081.0256410256416,4381.025641025642,4070.7692307692314,4225.128205128206,4294.358974358975,4374.871794871796,4374.358974358975,1681.0,1683.0,553.16,526.5071411132812,0.0,0.0,0.0,0.0
551462,38.0,0.0,0.0,4415.8974358974365,4151.282051282052,4277.948717948719,4796.923076923077,3772.307692307693,4200.512820512821,4243.589743589744,4093.8461538461543,4388.717948717949,4076.9230769230776,4229.2307692307695,4295.384615384616,4381.025641025642,4377.948717948719,1680.0,1684.0,553.169,526.5071411132812,0.0,0.0,0.0,0.0
551462,39.0,0.0,0.0,4420.512820512821,4143.076923076924,4280.000000000001,4796.923076923077,3773.333333333334,4204.102564102564,4242.051282051282,4086.666666666667,4386.153846153847,4074.358974358975,4227.179487179487,4293.846153846154,4377.435897435898,4381.538461538462,1681.0,1683.0,553.176,526.5071411132812,0.0,0.0,0.0,0.0
551462,40.0,0.0,0.0,4423.076923076924,4146.666666666667,4280.000000000001,4795.384615384616,3776.9230769230776,4198.461538461539,4246.153846153847,4072.820512820513,4378.461538461539,4068.717948717949,4229.2307692307695,4294.358974358975,4376.410256410257,4385.128205128206,1681.0,1684.0,553.184,526.5071411132812,0.0,0.0,0.0,0.0
551462,41.0,0.0,0.0,4424.615384615385,4153.846153846154,4284.102564102564,4798.461538461539,3781.538461538462,4200.000000000001,4245.641025641026,4072.307692307693,4381.025641025642,4073.333333333334,4240.512820512821,4296.923076923077,4387.179487179487,4389.2307692307695,1681.0,1683.0,553.191,526.5071411132812,0.0,0.0,0.0,0.0
551472,42.0,0.0,0.0,4425.128205128206,4150.769230769231,4287.179487179487,4800.512820512821,3779.48717948718,4208.717948717949,4242.564102564103,4083.076923076924,4389.743589743591,4078.461538461539,4248.717948717949,4300.000000000001,4395.384615384616,4391.794871794872,1681.0,1684.0,553.199,526.8825073242188,0.0,0.0,0.0,0.0
551472,43.0,0.0,0.0,4423.589743589744,4150.256410256411,4285.128205128206,4796.410256410257,3774.358974358975,4207.179487179487,4247.179487179487,4093.333333333334,4390.256410256411,4074.358974358975,4243.076923076924,4297.948717948719,4388.717948717949,4386.153846153847,1682.0,1684.0,553.208,526.8825073242188,0.0,0.0,0.0,0.0
551473,44.0,0.0,0.0,4424.615384615385,4153.846153846154,4290.769230769231,4798.974358974359,3775.3846153846157,4204.102564102564,4249.74358974359,4095.3846153846157,4387.179487179487,4074.8717948717954,4236.410256410257,4294.358974358975,4383.076923076924,4385.641025641026,1682.0,1683.0,553.216,526.8825073242188,0.0,0.0,0.0,0.0
551473,45.0,0.0,0.0,4429.2307692307695,4152.820512820514,4300.000000000001,4810.256410256411,3782.564102564103,4209.74358974359,4245.641025641026,4085.6410256410263,4387.179487179487,4081.0256410256416,4241.538461538462,4298.461538461539,4391.794871794872,4399.48717948718,1682.0,1683.0,553.223,526.8825073242188,0.0,0.0,0.0,0.0
551827,46.0,0.0,0.0,4431.794871794872,4154.871794871796,4300.000000000001,4815.384615384616,3787.1794871794878,4213.333333333334,4244.615384615385,4075.8974358974365,4384.102564102564,4082.564102564103,4248.717948717949,4303.589743589744,4401.025641025642,4405.641025641026,1682.0,1683.0,553.23,526.9137573242188,0.0,0.0,0.0,0.0
551827,47.0,0.0,0.0,4434.871794871796,4160.512820512821,4301.538461538462,4813.846153846154,3786.1538461538466,4212.307692307693,4253.333333333334,4086.666666666667,4385.641025641026,4082.564102564103,4253.333333333334,4302.051282051282,4404.102564102564,4403.589743589744,1682.0,1683.0,553.238,526.9137573242188,0.0,0.0,0.0,0.0
551827,48.0,0.0,0.0,4434.358974358975,4157.948717948719,4305.128205128206,4814.358974358975,3785.6410256410263,4216.410256410257,4258.974358974359,4105.128205128206,4397.948717948719,4082.564102564103,4249.74358974359,4298.974358974359,4402.564102564103,4404.102564102564,1682.0,1684.0,553.246,526.9137573242188,0.0,0.0,0.0,0.0
551827,49.0,0.0,0.0,4429.2307692307695,4156.923076923077,4298.461538461539,4816.410256410257,3787.692307692308,4221.538461538462,4253.333333333334,4094.8717948717954,4399.48717948718,4080.5128205128212,4242.564102564103,4298.974358974359,4395.8974358974365,4403.076923076924,1682.0,1684.0,553.255,526.9137573242188,0.0,0.0,0.0,0.0
551828,50.0,0.0,0.0,4430.769230769231,4163.076923076924,4292.307692307693,4815.384615384616,3786.666666666667,4217.948717948719,4247.6923076923085,4074.358974358975,4387.179487179487,4081.0256410256416,4238.974358974359,4299.48717948718,4393.333333333334,4397.948717948719,1682.0,1685.0,553.262,526.9137573242188,0.0,0.0,0.0,0.0
551828,51.0,0.0,0.0,4430.769230769231,4161.025641025642,4297.435897435898,4813.846153846154,3783.076923076924,4210.769230769231,4249.74358974359,4087.1794871794878,4387.179487179487,4081.0256410256416,4235.384615384616,4300.000000000001,4393.333333333334,4397.948717948719,1682.0,1684.0,553.269,526.9137573242188,0.0,0.0,0.0,0.0
551828,52.0,0.0,0.0,4425.128205128206,4153.333333333334,4297.435897435898,4812.820512820514,3783.076923076924,4207.6923076923085,4252.307692307693,4108.205128205129,4396.410256410257,4077.9487179487187,4233.846153846154,4298.461538461539,4391.282051282052,4395.384615384616,1681.0,1686.0,553.277,526.9137573242188,0.0,0.0,0.0,0.0
551829,53.0,0.0,0.0,4423.076923076924,4151.282051282052,4289.74358974359,4811.794871794872,3784.1025641025644,4213.846153846154,4251.794871794872,4091.7948717948725,4390.256410256411,4074.358974358975,4234.358974358975,4293.846153846154,4388.717948717949,4386.666666666667,1683.0,1685.0,553.285,526.9137573242188,0.0,0.0,0.0,0.0
551829,54.0,0.0,0.0,4426.666666666667,4157.435897435898,4291.282051282052,4812.307692307693,3784.615384615385,4217.948717948719,4248.717948717949,4067.692307692308,4379.48717948718,4073.8461538461543,4236.923076923077,4294.871794871796,4389.2307692307695,4385.641025641026,1681.0,1684.0,553.293,526.9137573242188,0.0,0.0,0.0,0.0
551829,55.0,0.0,0.0,4426.153846153847,4162.051282051282,4297.435897435898,4812.820512820514,3785.1282051282055,4213.333333333334,4244.102564102564,4073.8461538461543,4382.564102564103,4078.461538461539,4238.974358974359,4298.974358974359,4393.333333333334,4390.769230769231,1681.0,1686.0,553.301,526.9137573242188,0.0,0.0,0.0,0.0
551830,56.0,0.0,0.0,4427.179487179487,4161.025641025642,4300.000000000001,4815.8974358974365,3785.6410256410263,4212.820512820514,4246.666666666667,4086.666666666667,4389.743589743591,4081.0256410256416,4242.564102564103,4300.000000000001,4396.923076923077,4391.282051282052,1681.0,1684.0,553.309,526.9137573242188,0.0,0.0,0.0,0.0
551830,57.0,0.0,0.0,4429.2307692307695,4163.076923076924,4302.051282051282,4817.948717948719,3785.6410256410263,4220.512820512821,4256.923076923077,4094.358974358975,4392.820512820514,4079.48717948718,4246.153846153847,4299.48717948718,4399.48717948718,4388.717948717949,1681.0,1684.0,553.317,526.9137573242188,0.0,0.0,0.0,0.0
551830,58.0,0.0,0.0,4425.128205128206,4164.102564102564,4303.589743589744,4816.410256410257,3786.1538461538466,4224.615384615385,4260.000000000001,4100.512820512821,4391.282051282052,4079.48717948718,4246.666666666667,4300.512820512821,4399.48717948718,4388.205128205129,1681.0,1684.0,553.324,526.9137573242188,0.0,0.0,0.0,0.0
551830,59.0,0.0,0.0,4421.025641025642,4162.051282051282,4301.025641025642,4814.358974358975,3785.6410256410263,4218.461538461539,4252.820512820514,4092.820512820513,4387.179487179487,4082.564102564103,4249.74358974359,4301.538461538462,4400.512820512821,4389.743589743591,1680.0,1684.0,553.333,526.9137573242188,0.0,0.0,0.0,0.0
551830,60.0,0.0,0.0,4417.948717948719,4160.512820512821,4297.435897435898,4815.8974358974365,3783.589743589744,4212.307692307693,4244.102564102564,4077.9487179487187,4384.102564102564,4080.0000000000005,4253.846153846154,4300.512820512821,4399.48717948718,4383.076923076924,1680.0,1683.0,553.341,526.9137573242188,0.0,0.0,0.0,0.0
551830,61.0,0.0,0.0,4413.846153846154,4158.461538461539,4295.8974358974365,4814.358974358975,3781.538461538462,4215.8974358974365,4243.589743589744,4071.7948717948725,4376.923076923077,4070.7692307692314,4247.179487179487,4297.948717948719,4391.794871794872,4370.256410256411,1679.0,1684.0,553.349,526.9137573242188,0.0,0.0,0.0,0.0
551831,62.0,0.0,0.0,4417.948717948719,4155.384615384616,4297.948717948719,4812.307692307693,3783.076923076924,4223.589743589744,4253.333333333334,4073.333333333334,4375.384615384616,4068.717948717949,4235.8974358974365,4295.8974358974365,4384.102564102564,4367.6923076923085,1680.0,1683.0,553.355,526.9137573242188,0.0,0.0,0.0,0.0
551831,63.0,0.0,0.0,4428.205128205129,4163.589743589744,4306.666666666667,4819.48717948718,3786.1538461538466,4217.948717948719,4262.051282051282,4084.615384615385,4388.717948717949,4080.5128205128212,4242.564102564103,4298.461538461539,4390.769230769231,4381.025641025642,1680.0,1682.0,553.363,526.9137573242188,0.0,0.0,0.0,0.0
551831,64.0,0.0,475.0,4433.333333333334,4171.794871794872,4315.8974358974365,4823.589743589744,3787.1794871794878,4208.717948717949,4265.128205128206,4098.974358974359,4401.025641025642,4088.717948717949,4261.538461538462,4303.076923076924,4404.615384615385,4393.333333333334,1681.0,1683.0,553.371,526.9137573242188,0.0,0.0,0.0,0.0
551831,65.0,0.0,326.0,4426.666666666667,4161.025641025642,4309.743589743591,4816.410256410257,3785.1282051282055,4212.820512820514,4267.179487179487,4097.435897435898,4395.8974358974365,4081.538461538462,4261.025641025642,4298.974358974359,4401.538461538462,4385.128205128206,1680.0,1682.0,553.379,526.9137573242188,0.0,0.0,0.0,0.0
551831,66.0,0.0,447.0,4417.435897435898,4149.74358974359,4295.384615384616,4809.2307692307695,3783.076923076924,4212.820512820514,4264.102564102564,4081.0256410256416,4380.512820512821,4072.820512820513,4242.051282051282,4292.820512820514,4385.128205128206,4365.641025641026,1680.0,1683.0,553.387,526.9137573242188,0.0,0.0,0.0,0.0
551831,67.0,0.0,333.0,4416.410256410257,4156.410256410257,4295.8974358974365,4810.256410256411,3783.076923076924,4207.6923076923085,4257.435897435898,4069.7435897435903,4371.282051282052,4073.8461538461543,4237.435897435898,4294.358974358975,4380.000000000001,4362.564102564103,1681.0,1682.0,553.395,526.9137573242188,0.0,0.0,0.0,0.0
551831,68.0,0.0,460.0,4427.179487179487,4166.666666666667,4312.820512820514,4818.461538461539,3784.615384615385,4210.769230769231,4258.974358974359,4076.9230769230776,4382.564102564103,4080.0000000000005,4251.794871794872,4300.512820512821,4393.333333333334,4376.923076923077,1680.0,1683.0,553.402,526.9137573242188,0.0,0.0,0.0,0.0
551832,69.0,0.0,550.0,4433.846153846154,4163.589743589744,4319.48717948718,4820.512820512821,3786.1538461538466,4213.333333333334,4267.6923076923085,4097.948717948719,4398.461538461539,4084.1025641025644,4258.461538461539,4301.025641025642,4402.564102564103,4385.641025641026,1682.0,1683.0,553.41,526.9137573242188,0.0,0.0,0.0,0.0
551832,70.0,0.0,532.0,4426.666666666667,4156.923076923077,4309.743589743591,4814.358974358975,3785.1282051282055,4214.871794871796,4266.153846153847,4091.2820512820517,4389.743589743591,4077.9487179487187,4255.384615384616,4296.923076923077,4393.846153846154,4379.48717948718,1681.0,1683.0,553.418,526.9137573242188,0.0,0.0,0.0,0.0
551832,71.0,0.0,476.0,4422.051282051282,4159.48717948718,4305.641025641026,4812.820512820514,3783.589743589744,4214.358974358975,4257.948717948719,4068.205128205129,4376.923076923077,4073.333333333334,4258.974358974359,4296.923076923077,4390.769230769231,4374.871794871796,1681.0,1683.0,553.426,526.9137573242188,0.0,0.0,0.0,0.0
551832,72.0,0.0,415.0,4425.128205128206,4159.48717948718,4310.769230769231,4814.871794871796,3783.076923076924,4208.717948717949,4256.410256410257,4073.8461538461543,4385.128205128206,4078.461538461539,4264.102564102564,4301.538461538462,4398.461538461539,4378.461538461539,1681.0,1683.0,553.434,526.9137573242188,0.0,0.0,0.0,0.0
551832,73.0,0.0,412.0,4426.153846153847,4153.846153846154,4307.179487179487,4811.794871794872,3783.589743589744,4208.717948717949,4261.025641025642,4091.2820512820517,4391.282051282052,4082.0512820512827,4258.974358974359,4300.512820512821,4396.923076923077,4380.512820512821,1682.0,1683.0,553.441,526.9137573242188,0.0,0.0,0.0,0.0
551832,74.0,0.0,484.0,4423.589743589744,4155.384615384616,4301.538461538462,4809.743589743591,3782.0512820512827,4211.794871794872,4265.128205128206,4091.7948717948725,4385.128205128206,4078.9743589743593,4256.923076923077,4296.410256410257,4395.8974358974365,4380.000000000001,1681.0,1683.0,553.45,526.9137573242188,0.0,0.0,0.0,0.0
551832,75.0,0.0,448.0,4424.615384615385,4158.974358974359,4305.128205128206,4811.282051282052,3777.435897435898,4204.102564102564,4262.564102564103,4082.0512820512827,4384.102564102564,4076.410256410257,4260.000000000001,4297.435897435898,4403.589743589744,4379.48717948718,1681.0,1684.0,553.457,526.9137573242188,0.0,0.0,0.0,0.0
551832,76.0,0.0,454.0,4425.128205128206,4157.435897435898,4305.128205128206,4810.769230769231,3777.9487179487182,4198.974358974359,4258.974358974359,4075.3846153846157,4383.076923076924,4076.410256410257,4257.435897435898,4298.974358974359,4402.564102564103,4377.948717948719,1681.0,1683.0,553.466,526.9137573242188,0.0,0.0,0.0,0.0
551832,77.0,0.0,188.0,4422.051282051282,4156.410256410257,4300.000000000001,4811.282051282052,3782.0512820512827,4206.153846153847,4261.025641025642,4076.9230769230776,4376.923076923077,4076.410256410257,4254.358974358975,4297.435897435898,4393.846153846154,4377.948717948719,1681.0,1685.0,553.473,526.9137573242188,0.0,0.0,0.0,0.0
551833,78.0,0.0,484.0,4422.051282051282,4153.846153846154,4302.051282051282,4810.769230769231,3780.0000000000005,4210.256410256411,4262.564102564103,4088.717948717949,4378.974358974359,4076.9230769230776,4256.923076923077,4294.358974358975,4392.820512820514,4376.410256410257,1682.0,1684.0,553.482,526.9137573242188,0.0,0.0,0.0,0.0
551833,79.0,0.0,448.0,4424.615384615385,4151.282051282052,4305.128205128206,4806.153846153847,3776.9230769230776,4205.641025641026,4262.051282051282,4092.307692307693,4381.025641025642,4076.410256410257,4254.358974358975,4292.820512820514,4390.769230769231,4371.282051282052,1682.0,1685.0,553.488,526.9137573242188,0.0,0.0,0.0,0.0
551833,80.0,0.0,454.0,4430.769230769231,4157.948717948719,4307.6923076923085,4808.717948717949,3781.538461538462,4207.179487179487,4265.641025641026,4083.076923076924,4377.435897435898,4076.9230769230776,4249.74358974359,4295.8974358974365,4388.717948717949,4375.384615384616,1682.0,1685.0,553.496,526.9137573242188,0.0,0.0,0.0,0.0
551833,81.0,0.0,188.0,4438.974358974359,4165.128205128206,4314.871794871796,4819.48717948718,3787.1794871794878,4213.333333333334,4271.282051282052,4089.23076923077,4386.153846153847,4083.589743589744,4261.025641025642,4302.051282051282,4395.384615384616,4388.205128205129,1681.0,1685.0,553.504,526.9137573242188,0.0,0.0,0.0,0.0
551833,82.0,0.0,484.0,4436.923076923077,4163.076923076924,4316.923076923077,4821.025641025642,3784.615384615385,4215.384615384616,4267.6923076923085,4095.3846153846157,4393.846153846154,4085.6410256410263,4269.74358974359,4301.025641025642,4397.948717948719,4386.153846153847,1682.0,1685.0,553.512,526.9137573242188,0.0,0.0,0.0,0.0
551833,83.0,0.0,448.0,4423.589743589744,4160.512820512821,4306.666666666667,4814.358974358975,3782.564102564103,4219.48717948718,4264.102564102564,4085.1282051282055,4382.564102564103,4078.461538461539,4261.025641025642,4294.871794871796,4390.256410256411,4372.307692307693,1682.0,1684.0,553.52,526.9137573242188,0.0,0.0,0.0,0.0
551833,84.0,0.0,454.0,4424.102564102564,4160.000000000001,4305.128205128206,4812.307692307693,3784.1025641025644,4220.512820512821,4268.717948717949,4083.589743589744,4380.000000000001,4076.9230769230776,4260.512820512821,4296.410256410257,4388.205128205129,4374.358974358975,1681.0,1684.0,553.527,526.9137573242188,0.0,0.0,0.0,0.0
551833,85.0,0.0,188.0,4437.948717948719,4159.48717948718,4315.384615384616,4815.8974358974365,3782.564102564103,4211.794871794872,4267.179487179487,4089.23076923077,4388.205128205129,4083.589743589744,4268.717948717949,4300.000000000001,4393.333333333334,4387.6923076923085,1681.0,1684.0,553.535,526.9137573242188,0.0,0.0,0.0,0.0
551833,86.0,0.0,484.0,4440.000000000001,4160.512820512821,4317.948717948719,4815.384615384616,3779.48717948718,4204.102564102564,4261.538461538462,4090.7692307692314,4386.153846153847,4082.564102564103,4267.6923076923085,4299.48717948718,4394.871794871796,4388.717948717949,1681.0,1684.0,553.543,526.9137573242188,0.0,0.0,0.0,0.0
551834,87.0,0.0,448.0,4431.282051282052,4159.48717948718,4311.794871794872,4813.846153846154,3779.48717948718,4208.717948717949,4264.102564102564,4091.2820512820517,4384.615384615385,4077.9487179487187,4268.205128205129,4298.974358974359,4393.333333333334,4383.076923076924,1680.0,1684.0,553.552,526.9137573242188,0.0,0.0,0.0,0.0
551834,88.0,0.0,454.0,4426.153846153847,4154.871794871796,4307.6923076923085,4814.871794871796,3780.512820512821,4212.820512820514,4269.2307692307695,4092.307692307693,4391.282051282052,4080.0000000000005,4275.384615384616,4299.48717948718,4394.871794871796,4385.641025641026,1680.0,1685.0,553.559,526.9137573242188,0.0,0.0,0.0,0.0
551834,89.0,0.0,188.0,4424.102564102564,4153.846153846154,4305.128205128206,4812.820512820514,3781.538461538462,4210.769230769231,4269.2307692307695,4096.410256410257,4396.410256410257,4082.0512820512827,4275.8974358974365,4298.974358974359,4399.48717948718,4386.666666666667,1681.0,1683.0,553.568,526.9137573242188,0.0,0.0,0.0,0.0
551950,90.0,0.0,484.0,4423.589743589744,4157.435897435898,4305.128205128206,4810.769230769231,3782.564102564103,4212.307692307693,4271.794871794872,4101.538461538462,4395.384615384616,4081.538461538462,4275.384615384616,4299.48717948718,4401.025641025642,4386.153846153847,1679.0,1685.0,553.575,527.2578125,0.0,0.0,0.0,0.0
551950,91.0,0.0,448.0,4427.179487179487,4155.384615384616,4308.717948717949,4812.820512820514,3782.564102564103,4214.358974358975,4272.820512820514,4085.6410256410263,4383.076923076924,4080.5128205128212,4274.871794871796,4298.974358974359,4395.384615384616,4387.179487179487,1681.0,1685.0,553.583,527.2578125,0.0,0.0,0.0,0.0
551950,92.0,0.0,454.0,4428.717948717949,4154.871794871796,4307.6923076923085,4814.358974358975,3781.538461538462,4212.820512820514,4266.666666666667,4074.358974358975,4372.820512820514,4080.0000000000005,4269.74358974359,4296.923076923077,4391.794871794872,4383.589743589744,1681.0,1684.0,553.59,527.2578125,0.0,0.0,0.0,0.0
551950,93.0,0.0,188.0,4426.153846153847,4162.564102564103,4306.153846153847,4812.307692307693,3778.461538461539,4205.641025641026,4261.538461538462,4090.7692307692314,4386.153846153847,4081.538461538462,4270.769230769231,4296.923076923077,4400.512820512821,4384.615384615385,1680.0,1685.0,553.6,527.2578125,0.0,0.0,0.0,0.0
551951,94.0,0.0,484.0,4427.6923076923085,4167.179487179487,4307.6923076923085,4814.358974358975,3774.358974358975,4202.564102564103,4261.025641025642,4094.8717948717954,4396.923076923077,4081.538461538462,4276.923076923077,4300.000000000001,4404.102564102564,4389.743589743591,1681.0,1685.0,553.606,527.2578125,0.0,0.0,0.0,0.0
551951,95.0,0.0,448.0,4425.128205128206,4157.435897435898,4303.076923076924,4816.410256410257,3776.410256410257,4209.74358974359,4263.076923076924,4084.615384615385,4385.641025641026,4080.0000000000005,4273.846153846154,4297.948717948719,4394.871794871796,4385.641025641026,1681.0,1685.0,553.615,527.2578125,0.0,0.0,0.0,0.0
551951,96.0,0.0,454.0,4420.512820512821,4151.794871794872,4300.512820512821,4811.282051282052,3783.589743589744,4222.564102564103,4264.615384615385,4095.3846153846157,4386.666666666667,4081.538461538462,4271.282051282052,4294.871794871796,4391.282051282052,4382.051282051282,1681.0,1685.0,553.622,527.2578125,0.0,0.0,0.0,0.0
551951,97.0,0.0,188.0,4429.743589743591,4165.641025641026,4311.282051282052,4814.358974358975,3787.692307692308,4225.641025641026,4267.179487179487,4103.076923076924,4400.000000000001,4087.1794871794878,4281.538461538462,4299.48717948718,4402.564102564103,4393.333333333334,1681.0,1685.0,553.629,527.2578125,0.0,0.0,0.0,0.0
551952,98.0,0.0,484.0,4438.974358974359,4172.820512820514,4316.410256410257,4824.615384615386,3786.1538461538466,4213.333333333334,4273.333333333334,4090.7692307692314,4397.435897435898,4087.692307692308,4287.6923076923085,4303.589743589744,4409.743589743591,4401.538461538462,1681.0,1685.0,553.637,527.2578125,0.0,0.0,0.0,0.0
551952,99.0,0.0,448.0,4430.256410256411,4161.025641025642,4309.2307692307695,4821.538461538462,3784.615384615385,4215.8974358974365,4275.384615384616,4087.1794871794878,4386.153846153847,4085.1282051282055,4277.435897435898,4300.000000000001,4401.025641025642,4392.820512820514,1681.0,1685.0,553.645,527.2578125,0.0,0.0,0.0,0.0
551952,100.0,0.0,454.0,4422.051282051282,4158.461538461539,4306.153846153847,4812.307692307693,3786.1538461538466,4225.641025641026,4273.333333333334,4099.48717948718,4387.179487179487,4084.615384615385,4271.282051282052,4294.871794871796,4392.820512820514,4381.538461538462,1681.0,1684.0,553.653,527.2578125,0.0,0.0,0.0,0.0
551953,101.0,0.0,188.0,4428.205128205129,4165.641025641026,4307.6923076923085,4813.333333333334,3786.666666666667,4219.48717948718,4275.8974358974365,4100.512820512821,4391.794871794872,4084.1025641025644,4274.358974358975,4294.358974358975,4392.307692307693,4378.461538461539,1682.0,1684.0,553.66,527.2578125,0.0,0.0,0.0,0.0
551953,102.0,0.0,484.0,4429.743589743591,4161.025641025642,4306.153846153847,4815.8974358974365,3786.1538461538466,4213.846153846154,4275.8974358974365,4091.7948717948725,4389.2307692307695,4084.1025641025644,4269.74358974359,4296.410256410257,4390.256410256411,4380.000000000001,1681.0,1683.0,553.668,527.2578125,0.0,0.0,0.0,0.0
551953,103.0,0.0,448.0,4427.6923076923085,4157.435897435898,4306.666666666667,4812.820512820514,3784.615384615385,4217.435897435898,4269.2307692307695,4094.358974358975,4387.179487179487,4084.1025641025644,4262.564102564103,4296.410256410257,4389.2307692307695,4383.076923076924,1682.0,1683.0,553.676,527.2578125,0.0,0.0,0.0,0.0
551954,104.0,0.0,454.0,4431.282051282052,4162.564102564103,4306.666666666667,4811.794871794872,3782.564102564103,4216.923076923077,4265.641025641026,4104.102564102564,4391.794871794872,4083.076923076924,4268.205128205129,4296.923076923077,4393.333333333334,4388.717948717949,1681.0,1683.0,553.684,527.2578125,0.0,0.0,0.0,0.0
551954,105.0,0.0,188.0,4434.358974358975,4164.615384615385,4301.538461538462,4813.846153846154,3781.0256410256416,4209.2307692307695,4267.179487179487,4098.461538461539,4387.6923076923085,4081.0256410256416,4274.358974358975,4297.948717948719,4394.871794871796,4390.256410256411,1681.0,1683.0,553.692,527.2578125,0.0,0.0,0.0,0.0
551975,106.0,0.0,484.0,4432.307692307693,4164.102564102564,4303.076923076924,4813.846153846154,3781.0256410256416,4204.102564102564,4268.717948717949,4085.1282051282055,4380.000000000001,4081.538461538462,4275.384615384616,4296.923076923077,4399.48717948718,4389.2307692307695,1681.0,1682.0,553.701,527.3829345703125,0.0,0.0,0.0,0.0
551976,107.0,0.0,448.0,4433.846153846154,4165.641025641026,4309.743589743591,4812.307692307693,3782.564102564103,4204.615384615385,4271.794871794872,4091.7948717948725,4391.282051282052,4084.615384615385,4276.410256410257,4296.923076923077,4409.2307692307695,4394.358974358975,1680.0,1684.0,553.707,527.3829345703125,0.0,0.0,0.0,0.0
551976,108.0,0.0,454.0,4438.974358974359,4166.666666666667,4311.794871794872,4811.794871794872,3785.1282051282055,4208.717948717949,4277.435897435898,4104.615384615385,4399.48717948718,4086.1538461538466,4276.410256410257,4298.974358974359,4408.717948717949,4396.410256410257,1681.0,1683.0,553.716,527.3829345703125,0.0,0.0,0.0,0.0
551977,109.0,0.0,188.0,4438.974358974359,4165.128205128206,4311.282051282052,4813.333333333334,3785.1282051282055,4215.384615384616,4276.410256410257,4090.2564102564106,4383.589743589744,4083.589743589744,4274.871794871796,4298.974358974359,4401.025641025642,4394.871794871796,1680.0,1685.0,553.723,527.3829345703125,0.0,0.0,0.0,0.0
552075,110.0,0.0,484.0,4432.820512820514,4161.538461538462,4312.307692307693,4814.358974358975,3783.076923076924,4218.461538461539,4271.794871794872,4075.3846153846157,4373.333333333334,4082.0512820512827,4274.871794871796,4296.923076923077,4401.025641025642,4396.410256410257,1681.0,1685.0,553.733,527.4141845703125,0.0,0.0,0.0,0.0
552075,111.0,0.0,448.0,4432.307692307693,4158.974358974359,4308.717948717949,4814.358974358975,3784.1025641025644,4217.435897435898,4271.794871794872,4090.2564102564106,4380.000000000001,4081.538461538462,4274.871794871796,4297.435897435898,4402.564102564103,4393.846153846154,1680.0,1684.0,553.74,527.4141845703125,0.0,0.0,0.0,0.0
552075,112.0,0.0,454.0,4432.307692307693,4157.435897435898,4301.538461538462,4813.333333333334,3785.6410256410263,4214.358974358975,4271.794871794872,4105.128205128206,4386.666666666667,4082.564102564103,4274.871794871796,4299.48717948718,4400.512820512821,4387.179487179487,1681.0,1686.0,553.746,527.4141845703125,0.0,0.0,0.0,0.0
552076,113.0,0.0,188.0,4430.769230769231,4158.461538461539,4301.538461538462,4810.769230769231,3785.1282051282055,4213.333333333334,4272.307692307693,4104.615384615385,4387.179487179487,4084.1025641025644,4273.846153846154,4301.025641025642,4397.435897435898,4385.641025641026,1680.0,1685.0,553.754,527.4141845703125,0.0,0.0,0.0,0.0
552076,114.0,0.0,484.0,4433.846153846154,4161.538461538462,4309.743589743591,4811.794871794872,3783.076923076924,4212.820512820514,4270.256410256411,4098.461538461539,4382.051282051282,4083.076923076924,4275.8974358974365,4300.000000000001,4395.8974358974365,4391.282051282052,1681.0,1686.0,553.763,527.4141845703125,0.0,0.0,0.0,0.0
552076,115.0,0.0,448.0,4436.923076923077,4164.615384615385,4315.384615384616,4814.871794871796,3782.564102564103,4218.461538461539,4269.2307692307695,4091.7948717948725,4378.974358974359,4083.076923076924,4280.512820512821,4300.512820512821,4400.512820512821,4394.358974358975,1680.0,1685.0,553.77,527.4141845703125,0.0,0.0,0.0,0.0
552076,116.0,0.0,454.0,4435.384615384616,4163.076923076924,4311.282051282052,4815.384615384616,3784.1025641025644,4219.48717948718,4270.256410256411,4101.025641025642,4388.205128205129,4086.666666666667,4285.128205128206,4302.564102564103,4404.615384615385,4392.820512820514,1680.0,1686.0,553.778,527.4141845703125,0.0,0.0,0.0,0.0
552076,117.0,0.0,188.0,4437.435897435898,4164.102564102564,4309.2307692307695,4814.871794871796,3783.076923076924,4207.6923076923085,4270.256410256411,4113.333333333334,4397.948717948719,4089.23076923077,4291.794871794872,4301.538461538462,4409.743589743591,4394.871794871796,1680.0,1685.0,553.787,527.4141845703125,0.0,0.0,0.0,0.0
552077,118.0,0.0,484.0,4437.948717948719,4167.179487179487,4311.282051282052,4816.410256410257,3778.461538461539,4204.102564102564,4271.282051282052,4103.589743589744,4394.358974358975,4087.692307692308,4297.948717948719,4298.461538461539,4415.8974358974365,4397.948717948719,1679.0,1687.0,553.793,527.4141845703125,0.0,0.0,0.0,0.0
552077,119.0,0.0,448.0,4429.2307692307695,4162.051282051282,4308.205128205129,4815.384615384616,3775.3846153846157,4214.871794871796,4268.205128205129,4096.410256410257,4386.153846153847,4084.615384615385,4293.333333333334,4293.846153846154,4408.205128205129,4393.333333333334,1681.0,1686.0,553.801,527.4141845703125,0.0,0.0,0.0,0.0
552077,120.0,0.0,454.0,4426.153846153847,4154.871794871796,4304.615384615385,4811.794871794872,3771.794871794872,4213.333333333334,4260.000000000001,4106.153846153847,4385.128205128206,4079.48717948718,4287.6923076923085,4293.846153846154,4395.384615384616,4387.179487179487,1680.0,1686.0,553.809,527.4141845703125,0.0,0.0,0.0,0.0
552077,121.0,0.0,188.0,4433.846153846154,4160.512820512821,4305.128205128206,4813.333333333334,3768.717948717949,4198.974358974359,4253.333333333334,4095.3846153846157,4381.538461538462,4077.435897435898,4290.769230769231,4297.948717948719,4401.538461538462,4389.743589743591,1681.0,1686.0,553.818,527.4141845703125,0.0,0.0,0.0,0.0
552192,122.0,0.0,484.0,4436.410256410257,4164.615384615385,4308.717948717949,4815.8974358974365,3769.7435897435903,4195.384615384616,4254.871794871796,4080.5128205128212,4377.435897435898,4082.0512820512827,4293.846153846154,4297.435897435898,4410.256410256411,4391.282051282052,1679.0,1686.0,553.825,527.5079956054688,0.0,0.0,0.0,0.0
552192,123.0,0.0,448.0,4431.282051282052,4160.512820512821,4311.794871794872,4813.846153846154,3771.794871794872,4204.615384615385,4260.512820512821,4091.7948717948725,4381.025641025642,4085.1282051282055,4295.384615384616,4294.358974358975,4405.128205128206,4389.743589743591,1680.0,1687.0,553.833,527.5079956054688,0.0,0.0,0.0,0.0
552192,124.0,0.0,454.0,4431.282051282052,4160.512820512821,4310.256410256411,4812.307692307693,3772.307692307693,4210.256410256411,4259.48717948718,4092.820512820513,4378.974358974359,4080.5128205128212,4291.794871794872,4294.871794871796,4401.025641025642,4388.717948717949,1681.0,1685.0,553.84,527.5079956054688,0.0,0.0,0.0,0.0
552192,125.0,0.0,188.0,4441.025641025642,4162.051282051282,4308.205128205129,4814.871794871796,3773.8461538461543,4207.179487179487,4256.923076923077,4074.358974358975,4369.743589743591,4077.435897435898,4284.615384615385,4297.948717948719,4404.102564102564,4389.743589743591,1680.0,1686.0,553.849,527.5079956054688,0.0,0.0,0.0,0.0
552192,126.0,0.0,484.0,4446.666666666667,4162.564102564103,4312.307692307693,4817.435897435898,3777.435897435898,4210.256410256411,4258.461538461539,4084.615384615385,4380.512820512821,4083.076923076924,4287.179487179487,4300.000000000001,4409.2307692307695,4395.8974358974365,1680.0,1686.0,553.856,527.5079956054688,0.0,0.0,0.0,0.0
552193,127.0,0.0,448.0,4438.461538461539,4165.128205128206,4312.307692307693,4815.8974358974365,3780.0000000000005,4215.384615384616,4263.589743589744,4107.6923076923085,4392.307692307693,4085.1282051282055,4297.948717948719,4297.948717948719,4410.769230769231,4399.48717948718,1681.0,1686.0,553.865,527.5079956054688,0.0,0.0,0.0,0.0
552193,128.0,0.0,454.0,4432.307692307693,4163.589743589744,4306.666666666667,4814.358974358975,3776.410256410257,4212.820512820514,4265.641025641026,4100.512820512821,4384.102564102564,4083.076923076924,4300.000000000001,4292.820512820514,4407.6923076923085,4398.461538461539,1681.0,1685.0,553.872,527.5079956054688,0.0,0.0,0.0,0.0
552193,0.0,0.0,475.0,4434.871794871796,4160.512820512821,4309.2307692307695,4814.871794871796,3777.9487179487182,4211.282051282052,4267.6923076923085,4093.8461538461543,4382.564102564103,4084.1025641025644,4292.307692307693,4294.871794871796,4404.615384615385,4398.974358974359,1681.0,1686.0,553.879,527.5079956054688,0.0,0.0,0.0,0.0
552193,1.0,0.0,326.0,4437.948717948719,4161.538461538462,4315.8974358974365,4814.358974358975,3785.1282051282055,4210.256410256411,4269.74358974359,4097.435897435898,4387.179487179487,4084.1025641025644,4288.717948717949,4301.538461538462,4405.641025641026,4402.051282051282,1682.0,1685.0,553.887,527.5079956054688,0.0,0.0,0.0,0.0
552193,2.0,0.0,447.0,4433.333333333334,4156.410256410257,4313.846153846154,4811.794871794872,3779.48717948718,4205.128205128206,4264.615384615385,4094.8717948717954,4381.538461538462,4081.538461538462,4290.769230769231,4300.512820512821,4403.589743589744,4404.102564102564,1681.0,1685.0,553.895,527.5079956054688,0.0,0.0,0.0,0.0
552193,3.0,0.0,333.0,4425.128205128206,4147.6923076923085,4304.102564102564,4808.205128205129,3769.7435897435903,4204.615384615385,4259.48717948718,4092.307692307693,4375.384615384616,4078.461538461539,4290.256410256411,4296.923076923077,4395.384615384616,4398.461538461539,1682.0,1686.0,553.903,527.5079956054688,0.0,0.0,0.0,0.0
552193,4.0,0.0,460.0,4428.717948717949,4153.846153846154,4305.641025641026,4809.743589743591,3776.410256410257,4211.794871794872,4261.025641025642,4096.923076923077,4382.051282051282,4080.5128205128212,4291.794871794872,4299.48717948718,4396.410256410257,4394.871794871796,1681.0,1685.0,553.911,527.5079956054688,0.0,0.0,0.0,0.0
552193,5.0,0.0,550.0,4441.538461538462,4162.564102564103,4315.8974358974365,4814.358974358975,3786.1538461538466,4212.820512820514,4261.538461538462,4109.74358974359,4395.8974358974365,4088.205128205129,4301.538461538462,4301.538461538462,4408.717948717949,4402.051282051282,1681.0,1686.0,553.918,527.5079956054688,0.0,0.0,0.0,0.0
552193,6.0,0.0,532.0,4443.076923076924,4158.461538461539,4316.923076923077,4814.358974358975,3783.076923076924,4216.410256410257,4263.076923076924,4112.307692307693,4397.948717948719,4090.7692307692314,4307.179487179487,4298.461538461539,4412.307692307693,4407.179487179487,1682.0,1685.0,553.926,527.5079956054688,0.0,0.0,0.0,0.0
552194,7.0,0.0,476.0,4430.256410256411,4156.923076923077,4309.743589743591,4811.794871794872,3781.0256410256416,4219.48717948718,4263.076923076924,4093.333333333334,4380.000000000001,4081.0256410256416,4297.435897435898,4295.8974358974365,4402.564102564103,4397.435897435898,1681.0,1685.0,553.934,527.5079956054688,0.0,0.0,0.0,0.0
552194,8.0,0.0,415.0,4426.666666666667,4161.025641025642,4306.153846153847,4812.307692307693,3784.1025641025644,4215.384615384616,4258.461538461539,4088.717948717949,4372.307692307693,4077.9487179487187,4288.205128205129,4292.820512820514,4393.333333333334,4386.153846153847,1682.0,1684.0,553.942,527.5079956054688,0.0,0.0,0.0,0.0
552321,9.0,0.0,412.0,4435.384615384616,4161.025641025642,4306.153846153847,4813.846153846154,3783.076923076924,4214.358974358975,4255.384615384616,4106.153846153847,4385.128205128206,4084.615384615385,4291.282051282052,4291.282051282052,4391.794871794872,4387.179487179487,1682.0,1685.0,553.951,527.6331176757812,0.0,0.0,0.0,0.0
552322,10.0,0.0,484.0,4440.000000000001,4158.461538461539,4307.179487179487,4815.384615384616,3779.48717948718,4216.410256410257,4255.384615384616,4097.435897435898,4387.179487179487,4083.076923076924,4299.48717948718,4291.282051282052,4396.923076923077,4391.282051282052,1682.0,1684.0,553.959,527.6331176757812,0.0,0.0,0.0,0.0
552322,11.0,0.0,448.0,4440.512820512821,4162.051282051282,4310.769230769231,4816.410256410257,3783.076923076924,4212.307692307693,4257.948717948719,4087.692307692308,4383.589743589744,4081.538461538462,4303.589743589744,4292.820512820514,4402.051282051282,4394.358974358975,1682.0,1685.0,553.966,527.6331176757812,0.0,0.0,0.0,0.0
552323,12.0,0.0,454.0,4437.948717948719,4158.461538461539,4313.333333333334,4815.384615384616,3785.1282051282055,4210.769230769231,4264.102564102564,4108.205128205129,4390.769230769231,4086.666666666667,4298.974358974359,4293.846153846154,4396.923076923077,4392.307692307693,1682.0,1685.0,553.973,527.6331176757812,0.0,0.0,0.0,0.0
552323,13.0,0.0,188.0,4430.769230769231,4152.820512820514,4306.666666666667,4813.333333333334,3780.512820512821,4210.769230769231,4264.102564102564,4105.128205128206,4386.153846153847,4082.564102564103,4292.820512820514,4292.307692307693,4387.6923076923085,4384.615384615385,1681.0,1684.0,553.982,527.6331176757812,0.0,0.0,0.0,0.0
552323,14.0,0.0,484.0,4430.256410256411,4156.923076923077,4301.025641025642,4813.333333333334,3781.538461538462,4208.717948717949,4255.384615384616,4089.23076923077,4380.512820512821,4079.48717948718,4296.410256410257,4293.333333333334,4391.794871794872,4383.076923076924,1683.0,1684.0,553.989,527.6331176757812,0.0,0.0,0.0,0.0
552323,15.0,0.0,448.0,4435.8974358974365,4156.410256410257,4306.666666666667,4812.820512820514,3787.692307692308,4214.871794871796,4254.871794871796,4105.641025641026,4392.307692307693,4084.615384615385,4303.589743589744,4295.384615384616,4400.000000000001,4390.256410256411,1681.0,1683.0,553.998,527.6331176757812,0.0,0.0,0.0,0.0
552324,16.0,0.0,0.0,4432.307692307693,4152.820512820514,4307.179487179487,4809.2307692307695,3786.666666666667,4224.615384615385,4259.48717948718,4105.641025641026,4385.641025641026,4081.538461538462,4295.384615384616,4291.282051282052,4392.820512820514,4388.205128205129,1681.0,1684.0,554.004,527.6331176757812,0.0,0.0,0.0,0.0
552324,17.0,0.0,0.0,4424.615384615385,4156.923076923077,4298.974358974359,4808.205128205129,3775.8974358974365,4216.410256410257,4251.794871794872,4073.333333333334,4358.461538461539,4071.2820512820517,4280.512820512821,4289.2307692307695,4381.025641025642,4381.025641025642,1681.0,1682.0,554.012,527.6331176757812,0.0,0.0,0.0,0.0
552324,18.0,0.0,0.0,4431.282051282052,4161.538461538462,4302.564102564103,4811.794871794872,3769.7435897435903,4199.48717948718,4242.564102564103,4078.9743589743593,4363.076923076924,4074.358974358975,4281.538461538462,4292.307692307693,4384.615384615385,4383.589743589744,1680.0,1684.0,554.021,527.6331176757812,0.0,0.0,0.0,0.0
552325,19.0,0.0,0.0,4438.974358974359,4159.48717948718,4309.743589743591,4814.358974358975,3773.333333333334,4197.435897435898,4248.205128205129,4104.102564102564,4384.102564102564,4081.538461538462,4289.74358974359,4293.333333333334,4391.794871794872,4388.717948717949,1682.0,1683.0,554.029,527.6331176757812,0.0,0.0,0.0,0.0
552325,20.0,0.0,0.0,4430.769230769231,4153.846153846154,4303.076923076924,4812.820512820514,3775.8974358974365,4204.615384615385,4250.769230769231,4087.1794871794878,4374.358974358975,4076.9230769230776,4290.256410256411,4291.282051282052,4389.743589743591,4384.615384615385,1681.0,1683.0,554.036,527.6331176757812,0.0,0.0,0.0,0.0
552325,21.0,0.0,0.0,4423.589743589744,4154.871794871796,4293.846153846154,4811.282051282052,3772.307692307693,4204.102564102564,4244.102564102564,4066.666666666667,4358.461538461539,4069.7435897435903,4285.641025641026,4290.769230769231,4383.589743589744,4378.974358974359,1682.0,1684.0,554.044,527.6331176757812,0.0,0.0,0.0,0.0
552325,22.0,0.0,0.0,4429.743589743591,4155.8974358974365,4296.923076923077,4809.2307692307695,3771.794871794872,4200.512820512821,4247.179487179487,4082.564102564103,4367.6923076923085,4072.307692307693,4283.076923076924,4291.282051282052,4382.051282051282,4378.974358974359,1682.0,1685.0,554.052,527.6331176757812,0.0,0.0,0.0,0.0
552326,23.0,0.0,0.0,4431.794871794872,4153.846153846154,4304.102564102564,4809.743589743591,3772.820512820513,4201.538461538462,4252.307692307693,4101.538461538462,4379.48717948718,4076.410256410257,4283.589743589744,4293.333333333334,4384.102564102564,4384.102564102564,1682.0,1685.0,554.06,527.6331176757812,0.0,0.0,0.0,0.0
552326,24.0,0.0,0.0,4428.205128205129,4152.820512820514,4305.641025641026,4810.769230769231,3775.3846153846157,4205.128205128206,4248.717948717949,4095.3846153846157,4378.974358974359,4075.3846153846157,4285.128205128206,4294.358974358975,4385.641025641026,4385.128205128206,1682.0,1685.0,554.068,527.6331176757812,0.0,0.0,0.0,0.0
552454,25.0,0.0,0.0,4431.282051282052,4155.8974358974365,4304.615384615385,4809.2307692307695,3781.0256410256416,4208.717948717949,4249.74358974359,4088.205128205129,4376.923076923077,4077.435897435898,4285.641025641026,4294.871794871796,4389.2307692307695,4384.615384615385,1682.0,1685.0,554.077,527.7582397460938,0.0,0.0,0.0,0.0
552455,26.0,0.0,0.0,4435.8974358974365,4157.948717948719,4306.666666666667,4809.743589743591,3778.9743589743593,4209.74358974359,4254.358974358975,4091.7948717948725,4377.948717948719,4082.0512820512827,4284.102564102564,4295.8974358974365,4393.333333333334,4384.615384615385,1681.0,1685.0,554.084,527.7582397460938,0.0,0.0,0.0,0.0
552455,27.0,0.0,0.0,4435.384615384616,4155.8974358974365,4310.256410256411,4812.820512820514,3775.3846153846157,4209.74358974359,4252.307692307693,4098.974358974359,4381.538461538462,4079.48717948718,4281.025641025642,4293.846153846154,4391.282051282052,4382.051282051282,1681.0,1684.0,554.09,527.7582397460938,0.0,0.0,0.0,0.0
552456,28.0,0.0,0.0,4436.410256410257,4160.000000000001,4313.846153846154,4814.871794871796,3782.0512820512827,4213.846153846154,4253.333333333334,4098.974358974359,4384.615384615385,4078.461538461539,4282.564102564103,4292.820512820514,4392.307692307693,4385.128205128206,1681.0,1685.0,554.099,527.7582397460938,0.0,0.0,0.0,0.0
552456,29.0,0.0,0.0,4440.512820512821,4168.205128205129,4316.410256410257,4814.871794871796,3787.692307692308,4213.846153846154,4255.8974358974365,4091.7948717948725,4381.538461538462,4083.076923076924,4290.256410256411,4295.8974358974365,4400.512820512821,4394.871794871796,1681.0,1684.0,554.106,527.7582397460938,0.0,0.0,0.0,0.0
552457,30.0,0.0,0.0,4441.025641025642,4166.666666666667,4312.820512820514,4815.384615384616,3785.1282051282055,4210.256410256411,4256.923076923077,4097.948717948719,4385.128205128206,4086.666666666667,4294.358974358975,4296.410256410257,4398.461538461539,4394.871794871796,1681.0,1685.0,554.115,527.7582397460938,0.0,0.0,0.0,0.0
552457,31.0,0.0,0.0,4441.538461538462,4163.589743589744,4314.358974358975,4814.871794871796,3783.589743589744,4210.769230769231,4256.410256410257,4106.153846153847,4389.743589743591,4086.666666666667,4294.358974358975,4296.410256410257,4394.358974358975,4390.769230769231,1682.0,1685.0,554.122,527.7582397460938,0.0,0.0,0.0,0.0
552457,32.0,0.0,0.0,4446.153846153847,4169.74358974359,4324.102564102564,4816.410256410257,3783.076923076924,4208.717948717949,4254.358974358975,4099.48717948718,4383.589743589744,4087.1794871794878,4299.48717948718,4300.000000000001,4403.076923076924,4397.435897435898,1680.0,1685.0,554.131,527.7582397460938,0.0,0.0,0.0,0.0
552457,33.0,0.0,0.0,4447.6923076923085,4169.74358974359,4323.076923076924,4818.461538461539,3784.1025641025644,4206.153846153847,4254.871794871796,4090.7692307692314,4378.974358974359,4084.615384615385,4298.461538461539,4298.974358974359,4400.512820512821,4397.435897435898,1682.0,1686.0,554.138,527.7582397460938,0.0,0.0,0.0,0.0
552457,34.0,0.0,0.0,4438.974358974359,4157.948717948719,4310.769230769231,4814.358974358975,3783.589743589744,4215.8974358974365,4255.384615384616,4091.2820512820517,4380.000000000001,4078.9743589743593,4286.153846153847,4294.358974358975,4380.000000000001,4382.051282051282,1681.0,1685.0,554.146,527.7582397460938,0.0,0.0,0.0,0.0
552458,35.0,0.0,0.0,4431.282051282052,4151.794871794872,4305.641025641026,4809.2307692307695,3777.9487179487182,4223.589743589744,4254.871794871796,4091.7948717948725,4372.307692307693,4075.3846153846157,4276.923076923077,4292.820512820514,4369.2307692307695,4372.820512820514,1681.0,1686.0,554.154,527.7582397460938,0.0,0.0,0.0,0.0
552458,36.0,0.0,0.0,4435.384615384616,4155.384615384616,4309.2307692307695,4809.2307692307695,3776.410256410257,4216.923076923077,4254.358974358975,4091.2820512820517,4368.205128205129,4076.410256410257,4281.538461538462,4293.846153846154,4380.000000000001,4378.461538461539,1682.0,1683.0,554.162,527.7582397460938,0.0,0.0,0.0,0.0
552459,37.0,0.0,0.0,4444.615384615385,4162.051282051282,4314.358974358975,4813.333333333334,3776.9230769230776,4212.820512820514,4253.333333333334,4092.820512820513,4382.051282051282,4083.076923076924,4291.794871794872,4297.435897435898,4397.435897435898,4389.743589743591,1680.0,1685.0,554.169,527.7582397460938,0.0,0.0,0.0,0.0
552459,38.0,0.0,0.0,4448.717948717949,4169.2307692307695,4320.512820512821,4815.8974358974365,3772.820512820513,4213.333333333334,4247.179487179487,4087.692307692308,4387.179487179487,4085.1282051282055,4296.410256410257,4299.48717948718,4404.102564102564,4394.871794871796,1682.0,1684.0,554.178,527.7582397460938,0.0,0.0,0.0,0.0
552459,39.0,0.0,0.0,4451.282051282052,4166.666666666667,4324.102564102564,4816.410256410257,3770.2564102564106,4206.153846153847,4247.6923076923085,4095.8974358974365,4382.564102564103,4084.1025641025644,4294.358974358975,4297.948717948719,4400.000000000001,4393.846153846154,1681.0,1683.0,554.185,527.7582397460938,0.0,0.0,0.0,0.0
552460,40.0,0.0,0.0,4449.743589743591,4162.051282051282,4323.589743589744,4815.8974358974365,3771.2820512820517,4200.512820512821,4252.820512820514,4107.6923076923085,4383.589743589744,4084.615384615385,4291.794871794872,4295.8974358974365,4395.384615384616,4390.769230769231,1681.0,1683.0,554.192,527.7582397460938,0.0,0.0,0.0,0.0
552482,41.0,0.0,0.0,4445.641025641026,4166.153846153847,4321.025641025642,4816.410256410257,3769.2307692307695,4205.128205128206,4248.205128205129,4100.512820512821,4382.564102564103,4083.076923076924,4290.256410256411,4294.358974358975,4395.384615384616,4390.769230769231,1681.0,1683.0,554.201,527.8833618164062,0.0,0.0,0.0,0.0
552482,42.0,0.0,0.0,4446.666666666667,4165.641025641026,4320.000000000001,4815.8974358974365,3769.7435897435903,4208.205128205129,4245.641025641026,4088.205128205129,4374.358974358975,4080.0000000000005,4289.2307692307695,4293.846153846154,4397.435897435898,4394.358974358975,1682.0,1683.0,554.209,527.8833618164062,0.0,0.0,0.0,0.0
552482,43.0,0.0,0.0,4446.666666666667,4162.051282051282,4322.051282051282,4815.384615384616,3775.3846153846157,4209.2307692307695,4249.74358974359,4084.1025641025644,4369.743589743591,4080.0000000000005,4290.256410256411,4294.871794871796,4397.435897435898,4396.410256410257,1681.0,1683.0,554.217,527.8833618164062,0.0,0.0,0.0,0.0
552482,44.0,0.0,0.0,4443.589743589744,4164.615384615385,4321.025641025642,4818.974358974359,3775.8974358974365,4207.6923076923085,4248.205128205129,4084.1025641025644,4373.846153846154,4084.1025641025644,4290.256410256411,4293.846153846154,4394.871794871796,4394.871794871796,1682.0,1684.0,554.224,527.8833618164062,0.0,0.0,0.0,0.0
552569,45.0,0.0,0.0,4444.102564102564,4163.589743589744,4316.410256410257,4819.48717948718,3771.794871794872,4201.538461538462,4243.076923076924,4087.1794871794878,4376.410256410257,4083.589743589744,4286.153846153847,4292.307692307693,4390.769230769231,4392.820512820514,1682.0,1684.0,554.232,527.9146118164062,0.0,0.0,0.0,0.0
552569,46.0,0.0,0.0,4442.564102564103,4157.948717948719,4310.256410256411,4813.333333333334,3768.205128205129,4200.512820512821,4240.512820512821,4080.5128205128212,4368.205128205129,4076.9230769230776,4278.974358974359,4290.769230769231,4385.641025641026,4386.153846153847,1681.0,1684.0,554.24,527.9146118164062,0.0,0.0,0.0,0.0
552569,47.0,0.0,0.0,4434.871794871796,4155.8974358974365,4306.153846153847,4808.205128205129,3771.794871794872,4210.256410256411,4243.589743589744,4060.0000000000005,4354.871794871796,4069.7435897435903,4274.871794871796,4288.717948717949,4377.435897435898,4376.410256410257,1683.0,1683.0,554.249,527.9146118164062,0.0,0.0,0.0,0.0
552570,48.0,0.0,0.0,4440.000000000001,4161.538461538462,4314.871794871796,4811.794871794872,3781.0256410256416,4216.923076923077,4255.8974358974365,4082.564102564103,4370.256410256411,4078.9743589743593,4285.641025641026,4294.358974358975,4386.153846153847,4387.179487179487,1682.0,1684.0,554.255,527.9146118164062,0.0,0.0,0.0,0.0
552571,49.0,0.0,0.0,4453.333333333334,4166.666666666667,4328.717948717949,4821.025641025642,3787.1794871794878,4211.282051282052,4264.102564102564,4128.717948717949,4400.512820512821,4093.8461538461543,4298.461538461539,4300.512820512821,4405.641025641026,4406.153846153847,1683.0,1683.0,554.264,527.9146118164062,0.0,0.0,0.0,0.0
552573,50.0,0.0,0.0,4451.794871794872,4166.153846153847,4326.153846153847,4822.051282051282,3777.9487179487182,4205.128205128206,4253.333333333334,4112.307692307693,4392.820512820514,4088.717948717949,4292.307692307693,4295.384615384616,4404.615384615385,4402.051282051282,1682.0,1684.0,554.27,527.9146118164062,0.0,0.0,0.0,0.0
552573,51.0,0.0,0.0,4444.615384615385,4163.076923076924,4316.923076923077,4813.846153846154,3767.1794871794878,4203.076923076924,4243.076923076924,4073.8461538461543,4369.743589743591,4076.9230769230776,4282.051282051282,4292.307692307693,4391.794871794872,4392.820512820514,1683.0,1685.0,554.278,527.9146118164062,0.0,0.0,0.0,0.0
552573,52.0,0.0,0.0,4446.153846153847,4162.051282051282,4319.48717948718,4810.769230769231,3770.7692307692314,4203.076923076924,4248.205128205129,4084.615384615385,4372.820512820514,4078.461538461539,4283.076923076924,4296.923076923077,4388.717948717949,4395.384615384616,1682.0,1685.0,554.286,527.9146118164062,0.0,0.0,0.0,0.0
552573,53.0,0.0,0.0,4447.6923076923085,4165.128205128206,4323.589743589744,4815.8974358974365,3775.8974358974365,4207.6923076923085,4251.794871794872,4107.6923076923085,4384.102564102564,4084.615384615385,4287.6923076923085,4297.435897435898,4393.333333333334,4399.48717948718,1682.0,1685.0,554.294,527.9146118164062,0.0,0.0,0.0,0.0
552573,54.0,0.0,0.0,4446.153846153847,4167.179487179487,4321.025641025642,4817.948717948719,3773.8461538461543,4208.717948717949,4247.179487179487,4095.8974358974365,4378.974358974359,4082.0512820512827,4287.179487179487,4295.384615384616,4394.871794871796,4400.512820512821,1682.0,1685.0,554.302,527.9146118164062,0.0,0.0,0.0,0.0
552574,55.0,0.0,0.0,4444.615384615385,4161.538461538462,4314.358974358975,4813.846153846154,3770.2564102564106,4209.74358974359,4245.641025641026,4078.461538461539,4369.2307692307695,4077.435897435898,4282.564102564103,4294.871794871796,4388.205128205129,4397.435897435898,1683.0,1686.0,554.309,527.9146118164062,0.0,0.0,0.0,0.0
552574,56.0,0.0,0.0,4440.000000000001,4157.948717948719,4309.2307692307695,4811.282051282052,3773.8461538461543,4213.846153846154,4246.666666666667,4093.8461538461543,4374.871794871796,4077.435897435898,4275.8974358974365,4292.820512820514,4381.025641025642,4387.6923076923085,1683.0,1686.0,554.319,527.9146118164062,0.0,0.0,0.0,0.0
552694,57.0,0.0,0.0,4442.051282051282,4165.641025641026,4313.333333333334,4814.358974358975,3779.48717948718,4211.282051282052,4249.74358974359,4114.358974358975,4388.205128205129,4084.1025641025644,4278.974358974359,4294.358974358975,4387.179487179487,4388.717948717949,1682.0,1687.0,554.325,528.0084228515625,0.0,0.0,0.0,0.0
552694,58.0,0.0,0.0,4450.256410256411,4172.307692307693,4321.025641025642,4820.512820512821,3778.461538461539,4207.6923076923085,4252.307692307693,4096.923076923077,4386.153846153847,4088.717948717949,4290.769230769231,4298.461538461539,4400.512820512821,4398.974358974359,1683.0,1685.0,554.334,528.0084228515625,0.0,0.0,0.0,0.0
552694,59.0,0.0,0.0,4445.128205128206,4166.666666666667,4317.435897435898,4817.435897435898,3775.8974358974365,4210.256410256411,4248.205128205129,4076.9230769230776,4377.948717948719,4084.615384615385,4289.74358974359,4295.384615384616,4396.410256410257,4393.333333333334,1682.0,1685.0,554.341,528.0084228515625,0.0,0.0,0.0,0.0
552694,60.0,0.0,0.0,4436.410256410257,4157.435897435898,4311.794871794872,4812.307692307693,3780.512820512821,4208.717948717949,4246.666666666667,4095.8974358974365,4382.564102564103,4078.9743589743593,4282.051282051282,4292.307692307693,4386.666666666667,4381.025641025642,1683.0,1684.0,554.349,528.0084228515625,0.0,0.0,0.0,0.0
552695,61.0,0.0,0.0,4438.974358974359,4160.000000000001,4313.846153846154,4814.871794871796,3786.666666666667,4206.153846153847,4248.205128205129,4099.48717948718,4378.974358974359,4076.9230769230776,4282.051282051282,4294.871794871796,4387.6923076923085,4381.538461538462,1681.0,1683.0,554.356,528.0084228515625,0.0,0.0,0.0,0.0
552695,62.0,0.0,0.0,4439.48717948718,4165.128205128206,4314.358974358975,4817.435897435898,3788.205128205129,4211.282051282052,4243.076923076924,4084.1025641025644,4370.256410256411,4080.0000000000005,4284.102564102564,4298.461538461539,4394.358974358975,4383.589743589744,1681.0,1683.0,554.365,528.0084228515625,0.0,0.0,0.0,0.0
552695,63.0,0.0,0.0,4433.846153846154,4161.025641025642,4312.307692307693,4816.410256410257,3792.307692307693,4215.8974358974365,4241.538461538462,4091.7948717948725,4374.871794871796,4082.0512820512827,4282.564102564103,4295.8974358974365,4393.333333333334,4378.461538461539,1681.0,1682.0,554.373,528.0084228515625,0.0,0.0,0.0,0.0
552695,64.0,0.0,475.0,4435.384615384616,4158.974358974359,4314.871794871796,4814.358974358975,3795.3846153846157,4213.333333333334,4247.6923076923085,4093.333333333334,4377.435897435898,4080.5128205128212,4285.641025641026,4294.358974358975,4390.769230769231,4378.461538461539,1680.0,1683.0,554.38,528.0084228515625,0.0,0.0,0.0,0.0
552695,65.0,0.0,326.0,4445.641025641026,4167.179487179487,4323.076923076924,4813.846153846154,3792.820512820513,4207.179487179487,4249.74358974359,4089.7435897435903,4378.974358974359,4081.538461538462,4291.282051282052,4298.974358974359,4397.435897435898,4387.6923076923085,1680.0,1682.0,554.388,528.0084228515625,0.0,0.0,0.0,0.0
552696,66.0,0.0,447.0,4446.666666666667,4170.769230769231,4325.641025641026,4815.384615384616,3793.333333333334,4203.589743589744,4248.205128205129,4098.974358974359,4385.128205128206,4085.1282051282055,4291.282051282052,4300.512820512821,4403.589743589744,4390.256410256411,1680.0,1684.0,554.395,528.0084228515625,0.0,0.0,0.0,0.0
552696,67.0,0.0,333.0,4436.410256410257,4164.102564102564,4317.948717948719,4815.384615384616,3791.7948717948725,4204.102564102564,4245.128205128206,4086.666666666667,4372.820512820514,4078.9743589743593,4282.051282051282,4294.871794871796,4396.410256410257,4383.076923076924,1680.0,1683.0,554.404,528.0084228515625,0.0,0.0,0.0,0.0
552696,68.0,0.0,460.0,4433.846153846154,4157.948717948719,4311.794871794872,4811.282051282052,3785.6410256410263,4202.051282051282,4240.000000000001,4070.2564102564106,4359.48717948718,4072.820512820513,4272.307692307693,4291.282051282052,4389.743589743591,4377.948717948719,1680.0,1684.0,554.411,528.0084228515625,0.0,0.0,0.0,0.0
552696,69.0,0.0,550.0,4442.051282051282,4160.512820512821,4317.435897435898,4814.358974358975,3790.7692307692314,4203.076923076924,4243.589743589744,4090.7692307692314,4372.307692307693,4076.410256410257,4277.435897435898,4293.333333333334,4396.410256410257,4381.538461538462,1681.0,1683.0,554.419,528.0084228515625,0.0,0.0,0.0,0.0
552696,70.0,0.0,532.0,4446.666666666667,4169.2307692307695,4323.076923076924,4818.974358974359,3800.0000000000005,4216.923076923077,4250.769230769231,4102.564102564103,4381.025641025642,4082.564102564103,4288.717948717949,4297.948717948719,4402.564102564103,4388.205128205129,1680.0,1684.0,554.427,528.0084228515625,0.0,0.0,0.0,0.0
552697,71.0,0.0,476.0,4449.2307692307695,4169.2307692307695,4323.076923076924,4817.948717948719,3792.307692307693,4220.000000000001,4249.74358974359,4084.1025641025644,4371.794871794872,4083.076923076924,4286.153846153847,4302.051282051282,4401.538461538462,4390.769230769231,1681.0,1684.0,554.436,528.0084228515625,0.0,0.0,0.0,0.0
552697,72.0,0.0,415.0,4450.769230769231,4165.641025641026,4322.051282051282,4821.025641025642,3783.589743589744,4212.820512820514,4245.128205128206,4076.410256410257,4370.256410256411,4081.538461538462,4277.435897435898,4301.538461538462,4403.076923076924,4387.6923076923085,1680.0,1683.0,554.442,528.0084228515625,0.0,0.0,0.0,0.0
552828,73.0,0.0,412.0,4445.128205128206,4168.205128205129,4320.000000000001,4824.615384615386,3788.717948717949,4218.974358974359,4250.256410256411,4094.358974358975,4383.589743589744,4083.589743589744,4278.974358974359,4297.948717948719,4402.564102564103,4383.589743589744,1681.0,1684.0,554.451,528.133544921875,0.0,0.0,0.0,0.0
552828,74.0,0.0,484.0,4444.102564102564,4167.179487179487,4320.512820512821,4822.564102564103,3789.7435897435903,4220.000000000001,4261.538461538462,4113.333333333334,4393.333333333334,4086.1538461538466,4285.128205128206,4296.410256410257,4400.512820512821,4384.615384615385,1681.0,1683.0,554.458,528.133544921875,0.0,0.0,0.0,0.0
552828,75.0,0.0,448.0,4452.307692307693,4166.666666666667,4324.615384615385,4824.615384615386,3783.589743589744,4208.205128205129,4257.948717948719,4109.2307692307695,4392.307692307693,4086.666666666667,4288.717948717949,4297.435897435898,4405.641025641026,4389.2307692307695,1682.0,1685.0,554.467,528.133544921875,0.0,0.0,0.0,0.0
552828,76.0,0.0,454.0,4450.256410256411,4168.717948717949,4322.051282051282,4827.179487179488,3783.589743589744,4207.179487179487,4246.666666666667,4098.974358974359,4389.2307692307695,4086.1538461538466,4291.794871794872,4296.410256410257,4408.717948717949,4390.256410256411,1682.0,1684.0,554.475,528.133544921875,0.0,0.0,0.0,0.0
552828,77.0,0.0,188.0,4441.538461538462,4168.717948717949,4317.435897435898,4824.102564102564,3784.615384615385,4216.923076923077,4251.282051282052,4095.8974358974365,4386.666666666667,4086.666666666667,4291.282051282052,4296.410256410257,4404.102564102564,4390.769230769231,1682.0,1685.0,554.483,528.133544921875,0.0,0.0,0.0,0.0
552828,78.0,0.0,484.0,4443.589743589744,4168.205128205129,4320.000000000001,4823.589743589744,3783.076923076924,4218.974358974359,4257.948717948719,4097.435897435898,4384.615384615385,4087.692307692308,4289.74358974359,4298.461538461539,4404.615384615385,4395.384615384616,1682.0,1685.0,554.489,528.133544921875,0.0,0.0,0.0,0.0
552828,79.0,0.0,448.0,4452.307692307693,4167.6923076923085,4324.102564102564,4826.666666666667,3784.615384615385,4216.923076923077,4249.2307692307695,4097.948717948719,4385.128205128206,4086.666666666667,4290.256410256411,4296.923076923077,4409.743589743591,4395.384615384616,1682.0,1686.0,554.499,528.133544921875,0.0,0.0,0.0,0.0
552829,80.0,0.0,454.0,4453.846153846154,4168.205128205129,4326.153846153847,4826.153846153847,3785.6410256410263,4218.461538461539,4243.076923076924,4105.128205128206,4395.384615384616,4086.666666666667,4289.2307692307695,4297.435897435898,4411.282051282052,4389.743589743591,1682.0,1685.0,554.505,528.133544921875,0.0,0.0,0.0,0.0
552829,81.0,0.0,188.0,4451.794871794872,4169.74358974359,4327.179487179487,4827.179487179488,3786.666666666667,4220.000000000001,4254.358974358975,4112.820512820514,4398.974358974359,4089.23076923077,4288.205128205129,4301.538461538462,4408.717948717949,4388.717948717949,1682.0,1685.0,554.513,528.133544921875,0.0,0.0,0.0,0.0
552830,82.0,0.0,484.0,4454.358974358975,4170.256410256411,4326.153846153847,4828.205128205129,3785.6410256410263,4220.000000000001,4261.538461538462,4104.615384615385,4386.666666666667,4087.692307692308,4292.307692307693,4300.000000000001,4406.666666666667,4390.256410256411,1682.0,1684.0,554.521,528.133544921875,0.0,0.0,0.0,0.0
552830,83.0,0.0,448.0,4460.000000000001,4171.282051282052,4329.743589743591,4829.2307692307695,3783.589743589744,4215.8974358974365,4254.358974358975,4095.3846153846157,4383.589743589744,4087.692307692308,4293.846153846154,4301.538461538462,4411.282051282052,4388.717948717949,1682.0,1685.0,554.528,528.133544921875,0.0,0.0,0.0,0.0
552830,84.0,0.0,454.0,4460.000000000001,4171.794871794872,4334.871794871796,4831.794871794872,3783.076923076924,4218.461538461539,4256.923076923077,4108.205128205129,4398.461538461539,4093.8461538461543,4292.820512820514,4306.666666666667,4418.461538461539,4387.6923076923085,1682.0,1684.0,554.536,528.133544921875,0.0,0.0,0.0,0.0
552830,85.0,0.0,188.0,4458.974358974359,4170.769230769231,4340.000000000001,4832.307692307693,3785.6410256410263,4225.641025641026,4268.717948717949,4123.589743589744,4404.615384615385,4097.435897435898,4295.8974358974365,4306.153846153847,4420.000000000001,4394.358974358975,1681.0,1684.0,554.544,528.133544921875,0.0,0.0,0.0,0.0
552830,86.0,0.0,484.0,4462.564102564103,4172.820512820514,4344.102564102564,4833.333333333334,3789.7435897435903,4231.282051282052,4266.666666666667,4108.717948717949,4395.8974358974365,4095.8974358974365,4298.461538461539,4304.102564102564,4421.025641025642,4405.128205128206,1681.0,1684.0,554.552,528.133544921875,0.0,0.0,0.0,0.0
552831,87.0,0.0,448.0,4462.564102564103,4173.846153846154,4342.051282051282,4837.948717948719,3792.820512820513,4237.948717948719,4260.000000000001,4103.589743589744,4397.948717948719,4093.8461538461543,4292.307692307693,4304.102564102564,4422.564102564103,4405.641025641026,1680.0,1685.0,554.56,528.133544921875,0.0,0.0,0.0,0.0
552831,88.0,0.0,454.0,4462.564102564103,4171.282051282052,4340.000000000001,4837.948717948719,3795.8974358974365,4231.282051282052,4264.102564102564,4130.769230769231,4413.846153846154,4095.3846153846157,4289.74358974359,4300.512820512821,4422.564102564103,4400.000000000001,1681.0,1684.0,554.567,528.133544921875,0.0,0.0,0.0,0.0
552951,89.0,0.0,188.0,4462.051282051282,4170.256410256411,4340.000000000001,4831.794871794872,3794.8717948717954,4220.000000000001,4267.6923076923085,4130.769230769231,4412.307692307693,4095.8974358974365,4293.846153846154,4301.538461538462,4422.051282051282,4403.076923076924,1679.0,1685.0,554.575,528.2586669921875,0.0,0.0,0.0,0.0
552952,90.0,0.0,484.0,4457.948717948719,4170.256410256411,4332.820512820514,4828.205128205129,3789.2307692307695,4226.153846153847,4261.538461538462,4099.48717948718,4395.8974358974365,4089.7435897435903,4290.256410256411,4302.051282051282,4416.923076923077,4402.051282051282,1681.0,1685.0,554.584,528.2586669921875,0.0,0.0,0.0,0.0
552952,91.0,0.0,448.0,4456.923076923077,4169.2307692307695,4327.179487179487,4828.205128205129,3784.1025641025644,4229.2307692307695,4254.358974358975,4094.8717948717954,4391.282051282052,4086.666666666667,4283.589743589744,4298.461538461539,4413.333333333334,4396.923076923077,1680.0,1684.0,554.591,528.2586669921875,0.0,0.0,0.0,0.0
552952,92.0,0.0,454.0,4461.025641025642,4168.717948717949,4331.282051282052,4828.717948717949,3783.076923076924,4215.384615384616,4254.358974358975,4113.846153846154,4395.384615384616,4089.7435897435903,4286.153846153847,4298.974358974359,4414.871794871796,4398.461538461539,1680.0,1687.0,554.6,528.2586669921875,0.0,0.0,0.0,0.0
552953,93.0,0.0,188.0,4457.948717948719,4168.717948717949,4329.2307692307695,4827.6923076923085,3783.589743589744,4211.282051282052,4253.846153846154,4112.820512820514,4393.333333333334,4089.7435897435903,4290.769230769231,4299.48717948718,4412.307692307693,4396.410256410257,1681.0,1684.0,554.607,528.2586669921875,0.0,0.0,0.0,0.0
552953,94.0,0.0,484.0,4453.333333333334,4167.6923076923085,4324.615384615385,4826.153846153847,3785.1282051282055,4215.384615384616,4250.256410256411,4104.615384615385,4390.769230769231,4088.205128205129,4285.641025641026,4295.384615384616,4408.205128205129,4390.256410256411,1681.0,1686.0,554.615,528.2586669921875,0.0,0.0,0.0,0.0
552953,95.0,0.0,448.0,4452.307692307693,4167.179487179487,4327.6923076923085,4826.666666666667,3787.1794871794878,4216.923076923077,4254.358974358975,4113.846153846154,4393.846153846154,4089.7435897435903,4280.000000000001,4295.8974358974365,4409.2307692307695,4390.769230769231,1682.0,1685.0,554.622,528.2586669921875,0.0,0.0,0.0,0.0
552953,96.0,0.0,454.0,4448.717948717949,4168.205128205129,4326.153846153847,4824.615384615386,3786.666666666667,4221.025641025642,4256.923076923077,4115.384615384616,4395.384615384616,4088.205128205129,4283.076923076924,4301.025641025642,4407.179487179487,4391.794871794872,1682.0,1685.0,554.63,528.2586669921875,0.0,0.0,0.0,0.0
552954,97.0,0.0,188.0,4449.2307692307695,4166.666666666667,4321.025641025642,4817.948717948719,3785.6410256410263,4215.8974358974365,4250.256410256411,4101.025641025642,4391.282051282052,4081.538461538462,4281.538461538462,4296.923076923077,4397.948717948719,4388.205128205129,1682.0,1685.0,554.638,528.2586669921875,0.0,0.0,0.0,0.0
552954,98.0,0.0,484.0,4451.282051282052,4166.666666666667,4324.102564102564,4819.48717948718,3788.205128205129,4213.333333333334,4248.205128205129,4098.461538461539,4387.179487179487,4080.5128205128212,4271.282051282052,4291.282051282052,4393.846153846154,4384.615384615385,1681.0,1686.0,554.646,528.2586669921875,0.0,0.0,0.0,0.0
552955,99.0,0.0,448.0,4452.820512820514,4169.2307692307695,4329.743589743591,4828.717948717949,3792.307692307693,4219.48717948718,4255.384615384616,4108.717948717949,4391.794871794872,4086.666666666667,4271.794871794872,4294.871794871796,4398.461538461539,4388.205128205129,1683.0,1684.0,554.654,528.2586669921875,0.0,0.0,0.0,0.0
552955,100.0,0.0,454.0,4458.974358974359,4169.74358974359,4331.282051282052,4831.794871794872,3797.435897435898,4218.461538461539,4259.48717948718,4110.769230769231,4398.974358974359,4091.7948717948725,4280.512820512821,4300.000000000001,4407.6923076923085,4399.48717948718,1681.0,1685.0,554.667,528.2586669921875,0.0,0.0,0.0,0.0
552955,101.0,0.0,188.0,4461.538461538462,4169.2307692307695,4333.846153846154,4830.256410256411,3797.9487179487182,4214.871794871796,4258.461538461539,4104.102564102564,4395.384615384616,4089.7435897435903,4278.974358974359,4298.974358974359,4411.282051282052,4405.641025641026,1683.0,1685.0,554.669,528.2586669921875,0.0,0.0,0.0,0.0
552955,102.0,0.0,484.0,4455.384615384616,4168.717948717949,4329.743589743591,4829.2307692307695,3792.307692307693,4218.974358974359,4255.8974358974365,4097.435897435898,4385.641025641026,4081.0256410256416,4266.666666666667,4295.384615384616,4402.564102564103,4393.333333333334,1681.0,1684.0,554.677,528.2586669921875,0.0,0.0,0.0,0.0
552955,103.0,0.0,448.0,4449.2307692307695,4168.717948717949,4321.025641025642,4826.666666666667,3789.2307692307695,4216.923076923077,4250.256410256411,4097.435897435898,4381.025641025642,4078.9743589743593,4261.538461538462,4292.307692307693,4394.871794871796,4383.076923076924,1682.0,1684.0,554.686,528.2586669921875,0.0,0.0,0.0,0.0
552956,104.0,0.0,454.0,4449.2307692307695,4168.205128205129,4322.051282051282,4826.666666666667,3791.2820512820517,4211.794871794872,4249.74358974359,4110.256410256411,4388.717948717949,4083.076923076924,4266.666666666667,4293.846153846154,4397.435897435898,4388.717948717949,1683.0,1682.0,554.694,528.2586669921875,0.0,0.0,0.0,0.0
552978,105.0,0.0,188.0,4453.333333333334,4168.205128205129,4327.179487179487,4828.717948717949,3790.7692307692314,4211.794871794872,4251.282051282052,4110.256410256411,4395.384615384616,4087.1794871794878,4270.769230769231,4297.948717948719,4404.615384615385,4395.384615384616,1681.0,1684.0,554.7,528.3837890625,0.0,0.0,0.0,0.0
552978,106.0,0.0,484.0,4462.051282051282,4168.205128205129,4325.641025641026,4826.153846153847,3788.717948717949,4215.384615384616,4251.282051282052,4093.8461538461543,4389.2307692307695,4090.2564102564106,4272.307692307693,4299.48717948718,4409.2307692307695,4397.435897435898,1682.0,1683.0,554.708,528.3837890625,0.0,0.0,0.0,0.0
552979,107.0,0.0,448.0,4460.512820512821,4170.769230769231,4323.589743589744,4826.666666666667,3789.2307692307695,4224.102564102564,4255.384615384616,4094.358974358975,4387.6923076923085,4090.2564102564106,4273.846153846154,4298.461538461539,4409.743589743591,4396.410256410257,1682.0,1684.0,554.716,528.3837890625,0.0,0.0,0.0,0.0
552980,108.0,0.0,454.0,4447.6923076923085,4167.6923076923085,4319.48717948718,4825.128205128206,3787.1794871794878,4223.589743589744,4254.358974358975,4104.615384615385,4394.358974358975,4086.666666666667,4270.769230769231,4295.8974358974365,4404.102564102564,4389.743589743591,1681.0,1684.0,554.724,528.3837890625,0.0,0.0,0.0,0.0
553078,109.0,0.0,188.0,4445.641025641026,4161.538461538462,4314.358974358975,4817.435897435898,3783.589743589744,4211.794871794872,4248.717948717949,4098.974358974359,4393.846153846154,4083.076923076924,4265.641025641026,4295.384615384616,4397.435897435898,4387.179487179487,1681.0,1684.0,554.732,528.4150390625,0.0,0.0,0.0,0.0
553078,110.0,0.0,484.0,4449.2307692307695,4164.615384615385,4315.384615384616,4816.923076923077,3785.6410256410263,4212.820512820514,4252.307692307693,4094.8717948717954,4387.6923076923085,4082.564102564103,4265.128205128206,4295.384615384616,4395.8974358974365,4389.743589743591,1681.0,1684.0,554.74,528.4150390625,0.0,0.0,0.0,0.0
553078,111.0,0.0,448.0,4445.128205128206,4168.717948717949,4316.410256410257,4825.641025641026,3789.7435897435903,4216.410256410257,4256.923076923077,4103.589743589744,4386.666666666667,4082.564102564103,4266.153846153847,4293.846153846154,4391.282051282052,4386.153846153847,1679.0,1684.0,554.748,528.4150390625,0.0,0.0,0.0,0.0
553078,112.0,0.0,454.0,4446.153846153847,4167.179487179487,4314.871794871796,4827.179487179488,3788.717948717949,4208.205128205129,4252.307692307693,4110.769230769231,4389.743589743591,4082.564102564103,4265.128205128206,4294.871794871796,4390.256410256411,4384.615384615385,1681.0,1684.0,554.755,528.4150390625,0.0,0.0,0.0,0.0
553079,113.0,0.0,188.0,4460.000000000001,4167.179487179487,4321.538461538462,4825.128205128206,3785.1282051282055,4202.564102564103,4250.256410256411,4114.871794871796,4394.358974358975,4085.1282051282055,4269.74358974359,4300.512820512821,4403.589743589744,4396.923076923077,1680.0,1683.0,554.763,528.4150390625,0.0,0.0,0.0,0.0
553079,114.0,0.0,484.0,4465.641025641026,4170.256410256411,4330.769230769231,4829.2307692307695,3785.1282051282055,4208.205128205129,4255.384615384616,4111.794871794872,4396.410256410257,4089.23076923077,4278.974358974359,4302.051282051282,4415.8974358974365,4406.666666666667,1680.0,1685.0,554.771,528.4150390625,0.0,0.0,0.0,0.0
553079,115.0,0.0,448.0,4457.948717948719,4168.205128205129,4328.717948717949,4828.205128205129,3787.692307692308,4216.410256410257,4257.948717948719,4101.025641025642,4390.256410256411,4090.7692307692314,4278.461538461539,4297.948717948719,4409.743589743591,4401.025641025642,1680.0,1683.0,554.781,528.4150390625,0.0,0.0,0.0,0.0
553079,116.0,0.0,454.0,4457.948717948719,4167.6923076923085,4324.102564102564,4824.102564102564,3789.7435897435903,4221.538461538462,4258.974358974359,4096.923076923077,4384.102564102564,4086.666666666667,4269.74358974359,4295.8974358974365,4398.974358974359,4394.871794871796,1680.0,1685.0,554.787,528.4150390625,0.0,0.0,0.0,0.0
553080,117.0,0.0,188.0,4462.564102564103,4170.769230769231,4328.205128205129,4828.205128205129,3792.307692307693,4223.076923076924,4259.48717948718,4104.102564102564,4387.6923076923085,4088.717948717949,4271.794871794872,4302.564102564103,4404.102564102564,4401.025641025642,1681.0,1685.0,554.794,528.4150390625,0.0,0.0,0.0,0.0
553080,118.0,0.0,484.0,4464.102564102564,4171.282051282052,4335.384615384616,4831.794871794872,3794.358974358975,4224.615384615385,4261.025641025642,4113.333333333334,4397.435897435898,4095.8974358974365,4284.102564102564,4307.179487179487,4417.435897435898,4409.743589743591,1680.0,1685.0,554.802,528.4150390625,0.0,0.0,0.0,0.0
553080,119.0,0.0,448.0,4463.589743589744,4170.256410256411,4336.923076923077,4830.769230769231,3793.333333333334,4225.128205128206,4263.589743589744,4121.538461538462,4408.717948717949,4098.974358974359,4287.179487179487,4303.076923076924,4419.48717948718,4408.717948717949,1681.0,1686.0,554.81,528.4150390625,0.0,0.0,0.0,0.0
553080,120.0,0.0,454.0,4458.974358974359,4169.74358974359,4331.794871794872,4830.256410256411,3792.307692307693,4217.435897435898,4265.128205128206,4125.641025641026,4410.769230769231,4095.8974358974365,4277.435897435898,4297.435897435898,4411.282051282052,4403.589743589744,1680.0,1686.0,554.819,528.4150390625,0.0,0.0,0.0,0.0
553200,121.0,0.0,188.0,4458.974358974359,4169.74358974359,4330.769230769231,4830.769230769231,3790.2564102564106,4211.794871794872,4263.589743589744,4116.923076923077,4401.025641025642,4090.7692307692314,4271.794871794872,4298.974358974359,4408.717948717949,4404.102564102564,1681.0,1686.0,554.826,528.5088500976562,0.0,0.0,0.0,0.0
553200,122.0,0.0,484.0,4463.589743589744,4169.2307692307695,4330.256410256411,4828.717948717949,3786.666666666667,4215.8974358974365,4257.435897435898,4104.615384615385,4392.820512820514,4089.23076923077,4275.8974358974365,4300.000000000001,4411.794871794872,4408.717948717949,1681.0,1685.0,554.834,528.5088500976562,0.0,0.0,0.0,0.0
553200,123.0,0.0,448.0,4456.923076923077,4168.205128205129,4329.2307692307695,4828.717948717949,3785.1282051282055,4218.461538461539,4248.717948717949,4102.564102564103,4394.358974358975,4089.7435897435903,4276.410256410257,4296.410256410257,4406.153846153847,4404.102564102564,1682.0,1686.0,554.841,528.5088500976562,0.0,0.0,0.0,0.0
553200,124.0,0.0,454.0,4447.6923076923085,4169.2307692307695,4329.743589743591,4830.769230769231,3784.615384615385,4214.871794871796,4246.666666666667,4106.666666666667,4396.923076923077,4088.717948717949,4272.820512820514,4296.923076923077,4403.589743589744,4397.948717948719,1682.0,1685.0,554.85,528.5088500976562,0.0,0.0,0.0,0.0
553201,125.0,0.0,188.0,4454.358974358975,4171.282051282052,4329.2307692307695,4830.256410256411,3783.076923076924,4215.384615384616,4251.794871794872,4103.076923076924,4394.871794871796,4084.615384615385,4274.871794871796,4298.974358974359,4409.2307692307695,4402.564102564103,1681.0,1686.0,554.857,528.5088500976562,0.0,0.0,0.0,0.0
553201,126.0,0.0,484.0,4459.48717948718,4168.717948717949,4323.589743589744,4827.6923076923085,3788.205128205129,4224.102564102564,4256.923076923077,4098.974358974359,4392.307692307693,4084.615384615385,4270.769230769231,4296.410256410257,4404.615384615385,4401.538461538462,1682.0,1685.0,554.866,528.5088500976562,0.0,0.0,0.0,0.0
553201,127.0,0.0,448.0,4457.948717948719,4168.717948717949,4325.641025641026,4828.717948717949,3793.333333333334,4227.6923076923085,4259.48717948718,4106.153846153847,4396.410256410257,4090.7692307692314,4262.564102564103,4297.435897435898,4401.538461538462,4397.435897435898,1681.0,1687.0,554.873,528.5088500976562,0.0,0.0,0.0,0.0
553201,128.0,0.0,454.0,4464.102564102564,4173.846153846154,4334.358974358975,4836.923076923077,3795.3846153846157,4223.076923076924,4261.538461538462,4118.461538461539,4407.6923076923085,4096.923076923077,4267.6923076923085,4302.051282051282,4411.794871794872,4405.641025641026,1682.0,1686.0,554.88,528.5088500976562,0.0,0.0,0.0,0.0
553201,0.0,0.0,475.0,4466.153846153847,4174.358974358975,4335.8974358974365,4843.076923076924,3795.8974358974365,4218.974358974359,4265.128205128206,4123.589743589744,4410.769230769231,4095.8974358974365,4272.307692307693,4299.48717948718,4415.384615384616,4409.743589743591,1681.0,1686.0,554.888,528.5088500976562,0.0,0.0,0.0,0.0
553201,1.0,0.0,326.0,4459.48717948718,4172.820512820514,4333.846153846154,4842.051282051283,3794.358974358975,4221.538461538462,4264.102564102564,4124.102564102564,4405.641025641026,4093.333333333334,4264.615384615385,4296.410256410257,4406.666666666667,4402.564102564103,1682.0,1686.0,554.896,528.5088500976562,0.0,0.0,0.0,0.0
553201,2.0,0.0,447.0,4458.974358974359,4173.846153846154,4332.307692307693,4841.025641025642,3794.8717948717954,4226.666666666667,4262.564102564103,4121.538461538462,4406.153846153847,4096.923076923077,4263.589743589744,4299.48717948718,4407.6923076923085,4401.025641025642,1682.0,1685.0,554.905,528.5088500976562,0.0,0.0,0.0,0.0
553201,3.0,0.0,333.0,4462.564102564103,4170.769230769231,4332.307692307693,4837.435897435898,3796.9230769230776,4227.179487179487,4264.102564102564,4109.2307692307695,4403.076923076924,4096.410256410257,4268.717948717949,4302.564102564103,4416.410256410257,4408.205128205129,1682.0,1685.0,554.912,528.5088500976562,0.0,0.0,0.0,0.0
553202,4.0,0.0,460.0,4460.512820512821,4168.717948717949,4333.333333333334,4829.743589743591,3795.3846153846157,4222.051282051282,4263.589743589744,4102.051282051282,4396.923076923077,4090.7692307692314,4267.6923076923085,4300.000000000001,4415.384615384616,4406.666666666667,1682.0,1684.0,554.92,528.5088500976562,0.0,0.0,0.0,0.0
553202,5.0,0.0,549.0,4453.333333333334,4169.74358974359,4331.794871794872,4827.179487179488,3791.2820512820517,4217.435897435898,4262.564102564103,4109.74358974359,4398.461538461539,4089.7435897435903,4267.6923076923085,4297.948717948719,4407.179487179487,4398.974358974359,1682.0,1685.0,554.927,528.5088500976562,0.0,0.0,0.0,0.0
553202,6.0,0.0,532.0,4450.256410256411,4169.2307692307695,4327.179487179487,4829.743589743591,3792.820512820513,4227.179487179487,4263.076923076924,4104.102564102564,4396.923076923077,4090.2564102564106,4264.615384615385,4296.410256410257,4404.102564102564,4395.384615384616,1681.0,1684.0,554.935,528.5088500976562,0.0,0.0,0.0,0.0
553202,7.0,0.0,476.0,4453.333333333334,4168.205128205129,4326.666666666667,4828.717948717949,3796.410256410257,4236.410256410257,4261.538461538462,4094.8717948717954,4392.820512820514,4089.7435897435903,4260.512820512821,4294.358974358975,4409.2307692307695,4397.948717948719,1682.0,1685.0,554.943,528.5088500976562,0.0,0.0,0.0,0.0
553323,8.0,0.0,415.0,4462.051282051282,4169.2307692307695,4333.333333333334,4828.717948717949,3796.9230769230776,4227.6923076923085,4263.076923076924,4115.384615384616,4406.153846153847,4097.435897435898,4267.6923076923085,4298.461538461539,4419.48717948718,4404.615384615385,1681.0,1684.0,554.952,528.6339721679688,0.0,0.0,0.0,0.0
553323,9.0,0.0,412.0,4472.307692307693,4174.358974358975,4339.48717948718,4836.410256410257,3798.9743589743593,4218.461538461539,4270.769230769231,4137.948717948719,4424.615384615385,4107.179487179487,4277.435897435898,4305.128205128206,4431.794871794872,4414.358974358975,1681.0,1684.0,554.958,528.6339721679688,0.0,0.0,0.0,0.0
553324,10.0,0.0,484.0,4470.256410256411,4182.564102564103,4341.025641025642,4845.128205128206,3801.0256410256416,4228.205128205129,4272.820512820514,4134.871794871796,4425.641025641026,4108.717948717949,4276.923076923077,4304.615384615385,4433.846153846154,4418.461538461539,1680.0,1684.0,554.967,528.6339721679688,0.0,0.0,0.0,0.0
553324,11.0,0.0,448.0,4464.102564102564,4184.102564102564,4338.461538461539,4847.6923076923085,3800.512820512821,4237.435897435898,4263.589743589744,4117.435897435898,4413.846153846154,4101.025641025642,4267.6923076923085,4297.948717948719,4423.589743589744,4411.794871794872,1681.0,1683.0,554.975,528.6339721679688,0.0,0.0,0.0,0.0
553324,12.0,0.0,454.0,4465.641025641026,4182.051282051282,4336.923076923077,4846.153846153847,3797.9487179487182,4231.282051282052,4256.410256410257,4102.564102564103,4405.641025641026,4096.923076923077,4262.051282051282,4295.384615384616,4421.538461538462,4406.666666666667,1680.0,1683.0,554.983,528.6339721679688,0.0,0.0,0.0,0.0
553324,13.0,0.0,188.0,4467.179487179487,4183.076923076924,4336.923076923077,4847.6923076923085,3798.461538461539,4230.256410256411,4260.000000000001,4102.051282051282,4404.615384615385,4100.000000000001,4268.205128205129,4298.974358974359,4428.717948717949,4413.333333333334,1681.0,1684.0,554.99,528.6339721679688,0.0,0.0,0.0,0.0
553324,14.0,0.0,484.0,4462.564102564103,4181.538461538462,4334.358974358975,4847.6923076923085,3800.0000000000005,4235.384615384616,4267.179487179487,4108.717948717949,4402.564102564103,4101.025641025642,4271.794871794872,4300.000000000001,4423.589743589744,4415.8974358974365,1681.0,1684.0,554.999,528.6339721679688,0.0,0.0,0.0,0.0
553325,15.0,0.0,448.0,4466.153846153847,4178.461538461539,4335.8974358974365,4843.589743589744,3798.9743589743593,4234.871794871796,4267.6923076923085,4118.461538461539,4407.179487179487,4098.974358974359,4266.153846153847,4301.538461538462,4416.923076923077,4415.384615384616,1681.0,1685.0,555.005,528.6339721679688,0.0,0.0,0.0,0.0
553325,16.0,0.0,0.0,4476.923076923077,4183.589743589744,4345.128205128206,4846.666666666667,3800.512820512821,4229.74358974359,4266.666666666667,4133.846153846154,4421.025641025642,4105.641025641026,4270.769230769231,4307.179487179487,4427.6923076923085,4423.076923076924,1682.0,1684.0,555.016,528.6339721679688,0.0,0.0,0.0,0.0
553325,17.0,0.0,0.0,4478.461538461539,4187.179487179487,4351.794871794872,4854.358974358975,3802.564102564103,4225.641025641026,4268.717948717949,4136.410256410257,4423.589743589744,4110.769230769231,4281.025641025642,4306.153846153847,4435.8974358974365,4428.717948717949,1681.0,1685.0,555.021,528.6339721679688,0.0,0.0,0.0,0.0
553325,18.0,0.0,0.0,4471.794871794872,4181.538461538462,4346.153846153847,4851.282051282052,3801.538461538462,4229.2307692307695,4270.256410256411,4122.051282051282,4410.256410256411,4100.512820512821,4273.846153846154,4300.512820512821,4424.102564102564,4418.974358974359,1682.0,1684.0,555.03,528.6339721679688,0.0,0.0,0.0,0.0
553326,19.0,0.0,0.0,4468.717948717949,4178.461538461539,4337.948717948719,4841.538461538462,3800.512820512821,4233.333333333334,4269.74358974359,4114.871794871796,4400.000000000001,4092.307692307693,4259.48717948718,4300.512820512821,4413.333333333334,4406.666666666667,1681.0,1684.0,555.037,528.6339721679688,0.0,0.0,0.0,0.0
553326,20.0,0.0,0.0,4469.743589743591,4181.538461538462,4338.461538461539,4842.564102564103,3800.0000000000005,4232.820512820514,4266.153846153847,4111.794871794872,4396.923076923077,4098.461538461539,4259.48717948718,4302.051282051282,4416.923076923077,4408.205128205129,1683.0,1684.0,555.045,528.6339721679688,0.0,0.0,0.0,0.0
553326,21.0,0.0,0.0,4469.743589743591,4184.615384615385,4342.564102564103,4847.6923076923085,3799.48717948718,4229.74358974359,4264.102564102564,4113.846153846154,4401.538461538462,4103.589743589744,4266.666666666667,4300.000000000001,4418.974358974359,4414.358974358975,1682.0,1684.0,555.052,528.6339721679688,0.0,0.0,0.0,0.0
553326,22.0,0.0,0.0,4470.769230769231,4183.589743589744,4341.538461538462,4847.179487179488,3800.512820512821,4229.2307692307695,4266.153846153847,4116.923076923077,4403.076923076924,4099.48717948718,4270.256410256411,4297.948717948719,4418.461538461539,4412.307692307693,1682.0,1684.0,555.06,528.6339721679688,0.0,0.0,0.0,0.0
553327,23.0,0.0,0.0,4466.666666666667,4176.923076923077,4335.384615384616,4844.102564102564,3800.0000000000005,4233.333333333334,4261.025641025642,4100.512820512821,4389.743589743591,4092.307692307693,4268.205128205129,4297.435897435898,4414.871794871796,4405.641025641026,1682.0,1683.0,555.068,528.6339721679688,0.0,0.0,0.0,0.0
553457,24.0,0.0,0.0,4459.48717948718,4172.820512820514,4329.743589743591,4841.538461538462,3794.8717948717954,4233.846153846154,4253.846153846154,4091.2820512820517,4386.153846153847,4090.7692307692314,4266.666666666667,4296.923076923077,4411.794871794872,4403.076923076924,1683.0,1684.0,555.076,528.7590942382812,0.0,0.0,0.0,0.0
553457,25.0,0.0,0.0,4465.128205128206,4178.974358974359,4335.384615384616,4845.128205128206,3795.3846153846157,4220.000000000001,4253.333333333334,4114.871794871796,4406.153846153847,4096.410256410257,4273.333333333334,4299.48717948718,4419.48717948718,4410.769230769231,1682.0,1683.0,555.085,528.7590942382812,0.0,0.0,0.0,0.0
553458,26.0,0.0,0.0,4476.923076923077,4187.6923076923085,4344.102564102564,4851.282051282052,3800.0000000000005,4211.794871794872,4257.948717948719,4125.128205128206,4413.846153846154,4101.538461538462,4275.8974358974365,4301.025641025642,4426.153846153847,4417.435897435898,1682.0,1685.0,555.091,528.7590942382812,0.0,0.0,0.0,0.0
553458,27.0,0.0,0.0,4469.2307692307695,4183.076923076924,4335.8974358974365,4847.6923076923085,3801.0256410256416,4223.076923076924,4258.461538461539,4098.461538461539,4393.333333333334,4093.8461538461543,4264.102564102564,4295.8974358974365,4414.871794871796,4407.6923076923085,1683.0,1684.0,555.1,528.7590942382812,0.0,0.0,0.0,0.0
553458,28.0,0.0,0.0,4456.410256410257,4170.769230769231,4324.102564102564,4841.025641025642,3797.9487179487182,4227.6923076923085,4254.358974358975,4077.435897435898,4377.948717948719,4086.1538461538466,4252.307692307693,4290.769230769231,4399.48717948718,4397.948717948719,1681.0,1685.0,555.108,528.7590942382812,0.0,0.0,0.0,0.0
553458,29.0,0.0,0.0,4465.128205128206,4174.358974358975,4332.307692307693,4843.076923076924,3797.9487179487182,4217.435897435898,4252.307692307693,4092.820512820513,4390.256410256411,4092.820512820513,4261.538461538462,4295.384615384616,4407.179487179487,4408.205128205129,1682.0,1684.0,555.116,528.7590942382812,0.0,0.0,0.0,0.0
553458,30.0,0.0,0.0,4474.871794871796,4184.615384615385,4345.128205128206,4847.6923076923085,3800.0000000000005,4215.8974358974365,4253.846153846154,4107.6923076923085,4402.564102564103,4097.948717948719,4275.384615384616,4301.538461538462,4424.102564102564,4420.000000000001,1681.0,1685.0,555.123,528.7590942382812,0.0,0.0,0.0,0.0
553459,31.0,0.0,0.0,4470.256410256411,4182.564102564103,4344.615384615385,4846.153846153847,3801.0256410256416,4225.641025641026,4252.820512820514,4097.435897435898,4395.384615384616,4094.358974358975,4270.256410256411,4300.000000000001,4423.589743589744,4414.871794871796,1682.0,1685.0,555.132,528.7590942382812,0.0,0.0,0.0,0.0
553459,32.0,0.0,0.0,4468.205128205129,4176.410256410257,4340.512820512821,4844.102564102564,3799.48717948718,4227.6923076923085,4252.820512820514,4094.8717948717954,4387.179487179487,4092.307692307693,4265.128205128206,4298.974358974359,4416.410256410257,4413.333333333334,1681.0,1684.0,555.138,528.7590942382812,0.0,0.0,0.0,0.0
553459,33.0,0.0,0.0,4472.820512820514,4182.564102564103,4342.564102564103,4844.615384615386,3797.9487179487182,4220.000000000001,4255.8974358974365,4111.794871794872,4395.8974358974365,4098.461538461539,4273.846153846154,4305.128205128206,4425.128205128206,4422.051282051282,1680.0,1685.0,555.147,528.7590942382812,0.0,0.0,0.0,0.0
