timestamp,cnt,inerpolated,raw_cq,af3,f7,f3,fc5,t7,p7,o1,o2,p8,t8,fc6,f4,f8,af4,gyrox,gyroy,epoc_timestamp,epoc_es_timestamp,func_id,func_value,marker,sync_signal
429663,46.0,0.0,0.0,4363.076923076924,4097.948717948719,4278.461538461539,4743.076923076924,3769.2307692307695,4143.076923076924,4196.410256410257,4035.3846153846157,4334.358974358975,4025.1282051282055,4281.025641025642,4312.820512820514,4222.564102564103,4333.846153846154,1683.0,1685.0,431.174,404.89483642578125,0.0,0.0,0.0,0.0
429876,47.0,0.0,0.0,4366.666666666667,4100.000000000001,4283.076923076924,4743.076923076924,3771.2820512820517,4159.48717948718,4204.102564102564,4038.461538461539,4338.974358974359,4030.7692307692314,4284.615384615385,4316.410256410257,4227.179487179487,4338.974358974359,1680.0,1685.0,431.181,404.89483642578125,0.0,0.0,0.0,0.0
429876,48.0,0.0,0.0,4364.102564102564,4100.512820512821,4278.974358974359,4740.000000000001,3774.8717948717954,4181.538461538462,4198.461538461539,4040.0000000000005,4340.000000000001,4032.307692307693,4285.641025641026,4317.435897435898,4227.6923076923085,4335.384615384616,1682.0,1686.0,431.189,404.89483642578125,0.0,0.0,0.0,0.0
429876,49.0,0.0,0.0,4360.000000000001,4095.3846153846157,4275.384615384616,4735.384615384616,3774.8717948717954,4175.384615384616,4196.923076923077,4048.205128205129,4337.948717948719,4029.7435897435903,4283.589743589744,4316.410256410257,4222.051282051282,4334.871794871796,1681.0,1685.0,431.196,404.89483642578125,0.0,0.0,0.0,0.0
429876,50.0,0.0,0.0,4367.6923076923085,4097.948717948719,4283.589743589744,4740.512820512821,3774.358974358975,4166.153846153847,4205.641025641026,4064.615384615385,4348.205128205129,4033.8461538461543,4288.205128205129,4320.000000000001,4230.256410256411,4344.615384615385,1681.0,1686.0,431.204,404.89483642578125,0.0,0.0,0.0,0.0
429877,51.0,0.0,0.0,4373.333333333334,4103.076923076924,4287.6923076923085,4745.641025641026,3775.8974358974365,4170.256410256411,4211.282051282052,4060.0000000000005,4354.358974358975,4036.9230769230776,4290.256410256411,4321.025641025642,4240.000000000001,4346.666666666667,1681.0,1684.0,431.212,404.89483642578125,0.0,0.0,0.0,0.0
429877,52.0,0.0,0.0,4367.179487179487,4098.974358974359,4281.538461538462,4738.974358974359,3774.358974358975,4166.666666666667,4204.615384615385,4040.5128205128212,4344.615384615385,4032.820512820513,4284.615384615385,4316.410256410257,4230.256410256411,4338.974358974359,1681.0,1685.0,431.22,404.89483642578125,0.0,0.0,0.0,0.0
429877,53.0,0.0,0.0,4361.538461538462,4095.3846153846157,4280.512820512821,4734.358974358975,3768.717948717949,4161.025641025642,4198.461538461539,4043.589743589744,4340.512820512821,4030.2564102564106,4279.48717948718,4313.846153846154,4224.102564102564,4338.461538461539,1682.0,1685.0,431.229,404.89483642578125,0.0,0.0,0.0,0.0
429877,54.0,0.0,0.0,4366.153846153847,4097.435897435898,4285.128205128206,4738.461538461539,3768.717948717949,4164.615384615385,4202.564102564103,4052.307692307693,4342.051282051282,4031.2820512820517,4283.589743589744,4317.435897435898,4235.384615384616,4341.538461538462,1682.0,1685.0,431.235,404.89483642578125,0.0,0.0,0.0,0.0
429878,55.0,0.0,0.0,4368.717948717949,4096.410256410257,4280.000000000001,4736.410256410257,3770.7692307692314,4168.205128205129,4202.564102564103,4040.5128205128212,4333.846153846154,4027.1794871794878,4285.641025641026,4316.410256410257,4234.871794871796,4336.923076923077,1683.0,1684.0,431.244,404.89483642578125,0.0,0.0,0.0,0.0
429878,56.0,0.0,0.0,4365.128205128206,4094.8717948717954,4275.384615384616,4732.307692307693,3764.615384615385,4165.641025641026,4198.461538461539,4033.333333333334,4326.666666666667,4023.076923076924,4282.564102564103,4311.794871794872,4227.6923076923085,4333.333333333334,1682.0,1686.0,431.251,404.89483642578125,0.0,0.0,0.0,0.0
429878,57.0,0.0,0.0,4370.256410256411,4099.48717948718,4287.179487179487,4737.948717948719,3758.461538461539,4160.512820512821,4200.000000000001,4051.7948717948725,4339.48717948718,4029.23076923077,4285.641025641026,4314.358974358975,4233.846153846154,4338.461538461539,1684.0,1685.0,431.26,404.89483642578125,0.0,0.0,0.0,0.0
429878,58.0,0.0,0.0,4371.282051282052,4099.48717948718,4289.2307692307695,4738.974358974359,3758.9743589743593,4158.461538461539,4202.051282051282,4059.48717948718,4349.2307692307695,4031.7948717948725,4282.564102564103,4314.358974358975,4234.871794871796,4334.871794871796,1682.0,1686.0,431.267,404.89483642578125,0.0,0.0,0.0,0.0
429879,59.0,0.0,0.0,4357.435897435898,4092.307692307693,4270.256410256411,4733.846153846154,3759.48717948718,4165.128205128206,4201.538461538462,4048.205128205129,4337.435897435898,4025.6410256410263,4268.205128205129,4312.820512820514,4221.025641025642,4319.48717948718,1684.0,1686.0,431.277,404.89483642578125,0.0,0.0,0.0,0.0
429879,60.0,0.0,0.0,4352.820512820514,4092.307692307693,4265.641025641026,4732.307692307693,3756.410256410257,4168.717948717949,4201.025641025642,4043.076923076924,4332.307692307693,4026.1538461538466,4270.256410256411,4317.435897435898,4221.025641025642,4316.923076923077,1683.0,1685.0,431.283,404.89483642578125,0.0,0.0,0.0,0.0
429879,61.0,0.0,0.0,4364.615384615385,4099.48717948718,4279.48717948718,4739.48717948718,3753.8461538461543,4153.846153846154,4199.48717948718,4042.564102564103,4343.076923076924,4032.307692307693,4286.666666666667,4322.564102564103,4238.974358974359,4331.282051282052,1684.0,1686.0,431.291,404.89483642578125,0.0,0.0,0.0,0.0
429880,62.0,0.0,0.0,4370.256410256411,4100.000000000001,4283.076923076924,4744.615384615386,3757.435897435898,4148.205128205129,4199.48717948718,4044.1025641025644,4345.128205128206,4030.7692307692314,4288.717948717949,4321.025641025642,4243.076923076924,4336.410256410257,1684.0,1684.0,431.298,404.89483642578125,0.0,0.0,0.0,0.0
429880,63.0,0.0,0.0,4363.589743589744,4094.8717948717954,4276.410256410257,4740.512820512821,3763.589743589744,4166.153846153847,4205.128205128206,4042.564102564103,4332.307692307693,4026.1538461538466,4276.923076923077,4316.410256410257,4232.307692307693,4323.589743589744,1684.0,1685.0,431.306,404.89483642578125,0.0,0.0,0.0,0.0
429880,64.0,0.0,477.0,4353.846153846154,4091.7948717948725,4268.205128205129,4735.384615384616,3766.1538461538466,4181.025641025642,4206.153846153847,4034.358974358975,4326.666666666667,4025.1282051282055,4267.6923076923085,4311.794871794872,4222.564102564103,4311.794871794872,1684.0,1684.0,431.314,404.89483642578125,0.0,0.0,0.0,0.0
429881,65.0,0.0,334.0,4355.384615384616,4091.7948717948725,4269.2307692307695,4734.871794871796,3768.717948717949,4175.384615384616,4206.666666666667,4043.076923076924,4335.8974358974365,4027.1794871794878,4274.871794871796,4314.358974358975,4227.179487179487,4318.974358974359,1685.0,1685.0,431.321,404.89483642578125,0.0,0.0,0.0,0.0
429882,66.0,0.0,450.0,4371.794871794872,4098.974358974359,4285.641025641026,4741.025641025642,3769.2307692307695,4162.564102564103,4212.820512820514,4067.692307692308,4352.820512820514,4034.8717948717954,4293.333333333334,4322.564102564103,4242.564102564103,4335.8974358974365,1685.0,1684.0,431.329,404.89483642578125,0.0,0.0,0.0,0.0
429882,67.0,0.0,317.0,4378.461538461539,4105.641025641026,4294.871794871796,4749.743589743591,3767.692307692308,4160.512820512821,4212.307692307693,4068.205128205129,4355.384615384616,4040.0000000000005,4296.410256410257,4324.615384615385,4247.179487179487,4342.564102564103,1685.0,1685.0,431.337,404.89483642578125,0.0,0.0,0.0,0.0
429882,68.0,0.0,460.0,4367.6923076923085,4103.076923076924,4288.717948717949,4749.743589743591,3767.692307692308,4165.128205128206,4209.2307692307695,4058.9743589743593,4344.615384615385,4034.358974358975,4285.128205128206,4320.512820512821,4238.461538461539,4337.435897435898,1686.0,1684.0,431.345,404.89483642578125,0.0,0.0,0.0,0.0
429883,69.0,0.0,547.0,4361.025641025642,4096.410256410257,4285.128205128206,4742.051282051282,3768.717948717949,4167.6923076923085,4209.2307692307695,4058.9743589743593,4338.974358974359,4027.692307692308,4283.589743589744,4317.435897435898,4236.410256410257,4330.769230769231,1684.0,1685.0,431.353,404.89483642578125,0.0,0.0,0.0,0.0
429883,70.0,0.0,532.0,4363.589743589744,4093.8461538461543,4281.538461538462,4740.000000000001,3769.2307692307695,4165.641025641026,4210.769230769231,4048.205128205129,4336.410256410257,4031.2820512820517,4282.051282051282,4315.384615384616,4236.923076923077,4325.641025641026,1686.0,1684.0,431.361,404.89483642578125,0.0,0.0,0.0,0.0
429884,71.0,0.0,478.0,4363.076923076924,4098.461538461539,4279.48717948718,4742.564102564103,3768.205128205129,4155.8974358974365,4207.179487179487,4039.48717948718,4335.8974358974365,4033.333333333334,4276.923076923077,4314.871794871796,4232.820512820514,4327.179487179487,1685.0,1683.0,431.368,404.89483642578125,0.0,0.0,0.0,0.0
429884,72.0,0.0,415.0,4364.615384615385,4102.564102564103,4290.769230769231,4741.025641025642,3770.7692307692314,4156.410256410257,4206.666666666667,4043.589743589744,4337.435897435898,4029.23076923077,4280.512820512821,4317.435897435898,4232.820512820514,4331.282051282052,1685.0,1685.0,431.377,404.89483642578125,0.0,0.0,0.0,0.0
429884,73.0,0.0,408.0,4369.743589743591,4098.974358974359,4295.8974358974365,4741.025641025642,3777.435897435898,4169.74358974359,4210.769230769231,4045.6410256410263,4338.974358974359,4030.2564102564106,4284.615384615385,4321.025641025642,4235.8974358974365,4331.794871794872,1686.0,1684.0,431.384,404.89483642578125,0.0,0.0,0.0,0.0
429884,74.0,0.0,489.0,4376.410256410257,4100.512820512821,4289.74358974359,4747.179487179488,3784.615384615385,4174.871794871796,4216.410256410257,4053.333333333334,4345.641025641026,4037.9487179487182,4291.282051282052,4322.051282051282,4243.589743589744,4338.974358974359,1685.0,1685.0,431.394,404.89483642578125,0.0,0.0,0.0,0.0
429885,75.0,0.0,446.0,4379.48717948718,4108.205128205129,4293.333333333334,4752.307692307693,3787.692307692308,4177.435897435898,4225.641025641026,4072.820512820513,4359.48717948718,4044.615384615385,4300.512820512821,4320.512820512821,4253.333333333334,4347.6923076923085,1686.0,1685.0,431.4,404.89483642578125,0.0,0.0,0.0,0.0
429885,76.0,0.0,457.0,4373.846153846154,4105.128205128206,4292.820512820514,4749.743589743591,3787.1794871794878,4184.615384615385,4227.6923076923085,4072.820512820513,4359.48717948718,4040.5128205128212,4294.358974358975,4317.435897435898,4248.205128205129,4342.051282051282,1686.0,1686.0,431.408,404.89483642578125,0.0,0.0,0.0,0.0
429885,77.0,0.0,174.0,4369.2307692307695,4101.025641025642,4284.102564102564,4748.205128205129,3786.666666666667,4179.48717948718,4221.538461538462,4059.48717948718,4347.179487179487,4034.358974358975,4285.128205128206,4316.410256410257,4237.948717948719,4336.923076923077,1685.0,1686.0,431.415,404.89483642578125,0.0,0.0,0.0,0.0
429896,78.0,0.0,489.0,4373.333333333334,4103.076923076924,4288.205128205129,4748.717948717949,3785.6410256410263,4172.820512820514,4217.948717948719,4055.3846153846157,4343.076923076924,4035.8974358974365,4286.666666666667,4316.923076923077,4240.000000000001,4340.512820512821,1685.0,1687.0,431.424,405.1450500488281,0.0,0.0,0.0,0.0
429897,79.0,0.0,446.0,4375.384615384616,4102.564102564103,4293.846153846154,4748.205128205129,3785.1282051282055,4182.051282051282,4220.000000000001,4048.717948717949,4337.948717948719,4039.48717948718,4288.205128205129,4317.948717948719,4244.615384615385,4341.538461538462,1686.0,1686.0,431.432,405.1450500488281,0.0,0.0,0.0,0.0
429897,80.0,0.0,457.0,4370.256410256411,4102.051282051282,4285.641025641026,4749.2307692307695,3783.589743589744,4178.461538461539,4222.051282051282,4050.2564102564106,4337.435897435898,4036.9230769230776,4287.6923076923085,4317.948717948719,4243.076923076924,4340.000000000001,1685.0,1686.0,431.439,405.1450500488281,0.0,0.0,0.0,0.0
429898,81.0,0.0,174.0,4365.128205128206,4098.974358974359,4279.48717948718,4748.205128205129,3782.0512820512827,4163.589743589744,4220.512820512821,4068.205128205129,4350.769230769231,4035.8974358974365,4290.769230769231,4314.358974358975,4242.564102564103,4340.000000000001,1685.0,1685.0,431.447,405.1450500488281,0.0,0.0,0.0,0.0
429898,82.0,0.0,489.0,4366.153846153847,4096.410256410257,4281.538461538462,4746.666666666667,3782.0512820512827,4165.128205128206,4220.000000000001,4081.538461538462,4365.128205128206,4042.564102564103,4295.8974358974365,4315.384615384616,4245.641025641026,4336.923076923077,1685.0,1686.0,431.454,405.1450500488281,0.0,0.0,0.0,0.0
429898,83.0,0.0,446.0,4374.358974358975,4103.589743589744,4287.6923076923085,4750.256410256411,3783.589743589744,4173.333333333334,4223.076923076924,4073.333333333334,4365.641025641026,4046.1538461538466,4304.615384615385,4321.025641025642,4252.307692307693,4344.102564102564,1685.0,1685.0,431.462,405.1450500488281,0.0,0.0,0.0,0.0
429898,84.0,0.0,457.0,4375.384615384616,4106.153846153847,4292.307692307693,4751.282051282052,3785.1282051282055,4179.48717948718,4224.102564102564,4050.2564102564106,4349.743589743591,4037.9487179487182,4306.153846153847,4320.512820512821,4251.282051282052,4352.307692307693,1684.0,1686.0,431.47,405.1450500488281,0.0,0.0,0.0,0.0
429899,85.0,0.0,174.0,4365.128205128206,4097.435897435898,4289.74358974359,4745.641025641026,3783.589743589744,4179.48717948718,4217.435897435898,4039.48717948718,4336.410256410257,4029.23076923077,4297.435897435898,4315.8974358974365,4239.48717948718,4343.076923076924,1684.0,1686.0,431.478,405.1450500488281,0.0,0.0,0.0,0.0
429899,86.0,0.0,489.0,4368.717948717949,4100.512820512821,4289.74358974359,4746.666666666667,3783.076923076924,4170.769230769231,4213.333333333334,4057.9487179487182,4349.2307692307695,4036.9230769230776,4298.974358974359,4316.923076923077,4238.461538461539,4340.512820512821,1684.0,1688.0,431.486,405.1450500488281,0.0,0.0,0.0,0.0
429899,87.0,0.0,446.0,4381.538461538462,4110.256410256411,4292.307692307693,4753.846153846154,3786.1538461538466,4167.6923076923085,4218.974358974359,4068.717948717949,4362.564102564103,4047.1794871794878,4310.256410256411,4321.025641025642,4253.333333333334,4352.307692307693,1685.0,1687.0,431.494,405.1450500488281,0.0,0.0,0.0,0.0
429899,88.0,0.0,457.0,4373.846153846154,4103.589743589744,4284.615384615385,4751.794871794872,3784.1025641025644,4174.871794871796,4218.461538461539,4047.692307692308,4348.205128205129,4038.9743589743593,4306.153846153847,4320.000000000001,4254.358974358975,4348.205128205129,1683.0,1688.0,431.501,405.1450500488281,0.0,0.0,0.0,0.0
429899,89.0,0.0,174.0,4357.948717948719,4092.820512820513,4273.846153846154,4741.025641025642,3775.8974358974365,4177.948717948719,4213.846153846154,4038.9743589743593,4330.769230769231,4026.666666666667,4292.820512820514,4313.846153846154,4233.846153846154,4329.2307692307695,1684.0,1688.0,431.51,405.1450500488281,0.0,0.0,0.0,0.0
429900,90.0,0.0,489.0,4355.8974358974365,4093.8461538461543,4271.282051282052,4736.410256410257,3770.7692307692314,4176.923076923077,4215.8974358974365,4053.8461538461543,4333.333333333334,4024.615384615385,4285.128205128206,4310.256410256411,4215.8974358974365,4323.589743589744,1684.0,1686.0,431.517,405.1450500488281,0.0,0.0,0.0,0.0
429900,91.0,0.0,446.0,4357.435897435898,4093.333333333334,4270.769230769231,4734.871794871796,3768.717948717949,4169.2307692307695,4216.410256410257,4055.3846153846157,4334.358974358975,4023.589743589744,4274.358974358975,4311.794871794872,4214.871794871796,4325.641025641026,1683.0,1687.0,431.526,405.1450500488281,0.0,0.0,0.0,0.0
429900,92.0,0.0,457.0,4360.000000000001,4090.7692307692314,4270.256410256411,4731.794871794872,3765.6410256410263,4156.410256410257,4215.384615384616,4049.23076923077,4332.820512820514,4023.076923076924,4272.307692307693,4314.871794871796,4223.076923076924,4329.743589743591,1684.0,1685.0,431.533,405.1450500488281,0.0,0.0,0.0,0.0
429900,93.0,0.0,174.0,4370.256410256411,4096.410256410257,4275.8974358974365,4737.948717948719,3768.205128205129,4165.128205128206,4217.435897435898,4059.48717948718,4342.051282051282,4030.7692307692314,4291.794871794872,4316.410256410257,4237.435897435898,4341.025641025642,1683.0,1686.0,431.541,405.1450500488281,0.0,0.0,0.0,0.0
429901,94.0,0.0,489.0,4378.974358974359,4105.128205128206,4286.153846153847,4750.769230769231,3773.333333333334,4183.589743589744,4219.48717948718,4068.205128205129,4350.769230769231,4041.538461538462,4311.794871794872,4318.974358974359,4251.282051282052,4350.256410256411,1683.0,1684.0,431.548,405.2701416015625,0.0,0.0,0.0,0.0
429901,95.0,0.0,446.0,4383.076923076924,4107.179487179487,4298.461538461539,4755.384615384616,3772.820512820513,4178.974358974359,4216.923076923077,4065.1282051282055,4354.871794871796,4046.1538461538466,4316.923076923077,4322.051282051282,4256.923076923077,4360.000000000001,1683.0,1684.0,431.557,405.2701416015625,0.0,0.0,0.0,0.0
429901,96.0,0.0,457.0,4386.666666666667,4105.128205128206,4301.025641025642,4752.307692307693,3772.307692307693,4160.512820512821,4213.846153846154,4057.9487179487182,4356.410256410257,4044.1025641025644,4313.846153846154,4322.051282051282,4256.923076923077,4368.205128205129,1682.0,1683.0,431.564,405.2701416015625,0.0,0.0,0.0,0.0
429913,97.0,0.0,174.0,4384.102564102564,4104.615384615385,4293.846153846154,4752.307692307693,3777.9487179487182,4166.666666666667,4216.923076923077,4054.8717948717954,4347.179487179487,4041.0256410256416,4308.205128205129,4319.48717948718,4255.384615384616,4364.102564102564,1682.0,1684.0,431.572,405.2701416015625,0.0,0.0,0.0,0.0
429916,98.0,0.0,489.0,4378.461538461539,4107.6923076923085,4290.256410256411,4752.820512820514,3782.564102564103,4187.179487179487,4221.538461538462,4054.358974358975,4339.48717948718,4039.48717948718,4308.205128205129,4315.8974358974365,4252.820512820514,4356.923076923077,1683.0,1683.0,431.58,405.3014221191406,0.0,0.0,0.0,0.0
429916,99.0,0.0,446.0,4374.358974358975,4105.128205128206,4285.128205128206,4749.743589743591,3778.9743589743593,4181.538461538462,4219.48717948718,4053.8461538461543,4340.512820512821,4036.410256410257,4314.358974358975,4313.333333333334,4247.179487179487,4352.820512820514,1681.0,1683.0,431.587,405.3014221191406,0.0,0.0,0.0,0.0
429917,100.0,0.0,457.0,4371.282051282052,4098.974358974359,4278.461538461539,4747.6923076923085,3774.8717948717954,4163.589743589744,4214.871794871796,4056.9230769230776,4345.128205128206,4036.410256410257,4317.435897435898,4316.410256410257,4244.615384615385,4351.282051282052,1682.0,1683.0,431.595,405.3014221191406,0.0,0.0,0.0,0.0
429917,101.0,0.0,174.0,4371.794871794872,4101.538461538462,4284.102564102564,4749.2307692307695,3778.9743589743593,4165.641025641026,4220.512820512821,4062.0512820512827,4350.769230769231,4040.5128205128212,4317.948717948719,4319.48717948718,4250.256410256411,4353.333333333334,1682.0,1682.0,431.603,405.3014221191406,0.0,0.0,0.0,0.0
429917,102.0,0.0,489.0,4374.871794871796,4107.179487179487,4293.333333333334,4750.256410256411,3785.6410256410263,4176.410256410257,4223.076923076924,4058.461538461539,4353.333333333334,4039.48717948718,4316.410256410257,4318.974358974359,4253.846153846154,4356.410256410257,1682.0,1683.0,431.611,405.3014221191406,0.0,0.0,0.0,0.0
429917,103.0,0.0,446.0,4375.384615384616,4104.102564102564,4289.2307692307695,4749.2307692307695,3786.1538461538466,4170.256410256411,4217.948717948719,4052.820512820513,4346.153846153847,4035.3846153846157,4314.358974358975,4317.948717948719,4251.282051282052,4356.410256410257,1682.0,1683.0,431.619,405.3014221191406,0.0,0.0,0.0,0.0
429918,104.0,0.0,457.0,4368.717948717949,4101.538461538462,4278.461538461539,4749.743589743591,3783.589743589744,4168.717948717949,4217.948717948719,4056.9230769230776,4341.538461538462,4036.9230769230776,4311.282051282052,4315.8974358974365,4246.666666666667,4351.282051282052,1681.0,1684.0,431.627,405.3014221191406,0.0,0.0,0.0,0.0
429918,105.0,0.0,174.0,4363.076923076924,4104.615384615385,4276.410256410257,4747.6923076923085,3785.6410256410263,4185.128205128206,4219.48717948718,4061.0256410256416,4347.179487179487,4040.5128205128212,4308.205128205129,4316.410256410257,4245.641025641026,4345.641025641026,1683.0,1685.0,431.634,405.3014221191406,0.0,0.0,0.0,0.0
429958,106.0,0.0,489.0,4376.923076923077,4108.717948717949,4290.256410256411,4752.820512820514,3791.2820512820517,4188.205128205129,4225.128205128206,4072.820512820513,4363.076923076924,4046.1538461538466,4317.948717948719,4319.48717948718,4253.333333333334,4355.8974358974365,1682.0,1684.0,431.642,405.3014221191406,0.0,0.0,0.0,0.0
429958,107.0,0.0,446.0,4391.794871794872,4109.74358974359,4304.615384615385,4762.564102564103,3796.410256410257,4180.000000000001,4234.358974358975,4088.717948717949,4374.358974358975,4052.820512820513,4330.256410256411,4320.512820512821,4261.025641025642,4372.820512820514,1682.0,1684.0,431.65,405.3014221191406,0.0,0.0,0.0,0.0
429959,108.0,0.0,457.0,4384.102564102564,4108.205128205129,4302.564102564103,4759.48717948718,3800.0000000000005,4184.102564102564,4236.923076923077,4073.333333333334,4357.435897435898,4050.2564102564106,4322.051282051282,4320.000000000001,4255.384615384616,4369.2307692307695,1682.0,1684.0,431.658,405.3014221191406,0.0,0.0,0.0,0.0
429959,109.0,0.0,174.0,4376.410256410257,4109.2307692307695,4300.512820512821,4753.846153846154,3800.0000000000005,4189.74358974359,4232.307692307693,4046.1538461538466,4340.000000000001,4040.5128205128212,4315.8974358974365,4318.461538461539,4254.358974358975,4358.461538461539,1683.0,1684.0,431.667,405.3014221191406,0.0,0.0,0.0,0.0
429959,110.0,0.0,489.0,4377.948717948719,4107.6923076923085,4298.974358974359,4753.333333333334,3798.461538461539,4172.820512820514,4225.128205128206,4056.410256410257,4348.717948717949,4040.5128205128212,4323.589743589744,4318.461538461539,4263.076923076924,4354.358974358975,1682.0,1683.0,431.679,405.395263671875,0.0,0.0,0.0,0.0
429959,111.0,0.0,446.0,4365.641025641026,4101.025641025642,4282.564102564103,4746.666666666667,3798.9743589743593,4156.923076923077,4218.461538461539,4069.23076923077,4351.282051282052,4037.9487179487182,4318.461538461539,4313.846153846154,4252.820512820514,4342.051282051282,1683.0,1684.0,431.681,405.395263671875,0.0,0.0,0.0,0.0
429960,112.0,0.0,457.0,4361.025641025642,4102.051282051282,4277.435897435898,4745.128205128206,3801.0256410256416,4172.820512820514,4218.461538461539,4053.8461538461543,4337.948717948719,4032.820512820513,4311.282051282052,4310.769230769231,4241.025641025642,4330.769230769231,1683.0,1683.0,431.69,405.395263671875,0.0,0.0,0.0,0.0
429960,113.0,0.0,174.0,4380.512820512821,4110.256410256411,4297.435897435898,4753.333333333334,3800.512820512821,4191.282051282052,4228.717948717949,4056.410256410257,4342.564102564103,4042.0512820512827,4317.948717948719,4317.948717948719,4257.435897435898,4339.48717948718,1682.0,1685.0,431.697,405.395263671875,0.0,0.0,0.0,0.0
429971,114.0,0.0,489.0,4387.179487179487,4109.74358974359,4310.256410256411,4754.358974358975,3805.1282051282055,4187.6923076923085,4240.000000000001,4077.435897435898,4358.461538461539,4051.7948717948725,4322.051282051282,4323.076923076924,4270.769230769231,4343.589743589744,1683.0,1684.0,431.705,405.395263671875,0.0,0.0,0.0,0.0
429971,115.0,0.0,446.0,4377.435897435898,4106.666666666667,4303.589743589744,4749.2307692307695,3809.7435897435903,4182.564102564103,4240.000000000001,4072.820512820513,4359.48717948718,4045.6410256410263,4317.948717948719,4320.000000000001,4263.589743589744,4332.307692307693,1682.0,1686.0,431.712,405.395263671875,0.0,0.0,0.0,0.0
429971,116.0,0.0,457.0,4373.333333333334,4107.179487179487,4298.974358974359,4751.282051282052,3807.692307692308,4183.076923076924,4231.794871794872,4069.23076923077,4356.923076923077,4042.564102564103,4317.948717948719,4319.48717948718,4261.025641025642,4323.589743589744,1683.0,1686.0,431.72,405.395263671875,0.0,0.0,0.0,0.0
429972,117.0,0.0,174.0,4369.743589743591,4106.153846153847,4297.435897435898,4753.846153846154,3809.2307692307695,4182.564102564103,4230.769230769231,4086.1538461538466,4362.051282051282,4046.666666666667,4319.48717948718,4319.48717948718,4262.564102564103,4315.384615384616,1682.0,1685.0,431.728,405.395263671875,0.0,0.0,0.0,0.0
430036,118.0,0.0,489.0,4365.641025641026,4105.128205128206,4292.820512820514,4750.769230769231,3813.8461538461543,4184.615384615385,4236.923076923077,4081.538461538462,4360.512820512821,4044.1025641025644,4317.435897435898,4317.435897435898,4256.923076923077,4301.025641025642,1683.0,1685.0,431.736,405.395263671875,0.0,0.0,0.0,0.0
430036,119.0,0.0,446.0,4370.256410256411,4106.666666666667,4297.435897435898,4750.769230769231,3815.8974358974365,4186.666666666667,4239.48717948718,4070.7692307692314,4356.410256410257,4043.076923076924,4317.948717948719,4318.974358974359,4257.948717948719,4300.000000000001,1682.0,1684.0,431.744,405.395263671875,0.0,0.0,0.0,0.0
430037,120.0,0.0,457.0,4373.846153846154,4106.666666666667,4304.615384615385,4754.358974358975,3815.3846153846157,4181.025641025642,4237.948717948719,4083.076923076924,4364.615384615385,4047.692307692308,4320.000000000001,4322.051282051282,4263.076923076924,4309.2307692307695,1682.0,1684.0,431.752,405.395263671875,0.0,0.0,0.0,0.0
430038,121.0,0.0,174.0,4371.282051282052,4107.179487179487,4297.948717948719,4753.333333333334,3811.7948717948725,4180.512820512821,4234.358974358975,4084.1025641025644,4364.615384615385,4045.1282051282055,4317.435897435898,4320.000000000001,4259.48717948718,4307.179487179487,1681.0,1683.0,431.76,405.395263671875,0.0,0.0,0.0,0.0
430038,122.0,0.0,489.0,4373.333333333334,4109.74358974359,4292.307692307693,4752.820512820514,3811.2820512820517,4191.282051282052,4230.256410256411,4067.692307692308,4353.333333333334,4042.564102564103,4313.333333333334,4318.461538461539,4258.974358974359,4304.102564102564,1682.0,1684.0,431.767,405.395263671875,0.0,0.0,0.0,0.0
430039,123.0,0.0,446.0,4379.48717948718,4110.769230769231,4298.974358974359,4761.538461538462,3817.435897435898,4201.538461538462,4233.846153846154,4065.1282051282055,4351.794871794872,4043.076923076924,4315.384615384616,4320.512820512821,4265.641025641026,4308.717948717949,1682.0,1683.0,431.776,405.395263671875,0.0,0.0,0.0,0.0
430039,124.0,0.0,457.0,4377.948717948719,4111.282051282052,4304.615384615385,4765.641025641026,3820.512820512821,4203.076923076924,4244.102564102564,4073.333333333334,4356.923076923077,4045.1282051282055,4321.025641025642,4318.974358974359,4265.128205128206,4309.2307692307695,1682.0,1684.0,431.783,405.395263671875,0.0,0.0,0.0,0.0
430039,125.0,0.0,174.0,4378.974358974359,4111.282051282052,4308.717948717949,4762.051282051282,3818.461538461539,4200.000000000001,4243.589743589744,4081.538461538462,4358.974358974359,4047.692307692308,4322.051282051282,4318.974358974359,4262.564102564103,4313.333333333334,1683.0,1684.0,431.792,405.395263671875,0.0,0.0,0.0,0.0
430157,126.0,0.0,489.0,4385.128205128206,4110.256410256411,4318.974358974359,4763.076923076924,3818.461538461539,4191.282051282052,4238.461538461539,4081.538461538462,4359.48717948718,4047.692307692308,4318.974358974359,4324.615384615385,4269.2307692307695,4325.641025641026,1682.0,1685.0,431.799,405.5203857421875,0.0,0.0,0.0,0.0
430157,127.0,0.0,446.0,4381.025641025642,4109.2307692307695,4317.948717948719,4764.615384615386,3817.9487179487182,4177.948717948719,4240.000000000001,4069.23076923077,4355.384615384616,4044.615384615385,4315.384615384616,4323.589743589744,4274.358974358975,4326.153846153847,1683.0,1685.0,431.806,405.5203857421875,0.0,0.0,0.0,0.0
430157,128.0,0.0,457.0,4375.384615384616,4110.769230769231,4303.589743589744,4762.564102564103,3816.9230769230776,4187.179487179487,4239.48717948718,4076.9230769230776,4360.512820512821,4051.7948717948725,4319.48717948718,4318.461538461539,4276.923076923077,4319.48717948718,1682.0,1685.0,431.815,405.5203857421875,0.0,0.0,0.0,0.0
430158,0.0,0.0,477.0,4381.025641025642,4117.435897435898,4304.102564102564,4765.128205128206,3818.461538461539,4211.794871794872,4238.974358974359,4089.7435897435903,4368.717948717949,4058.9743589743593,4327.179487179487,4319.48717948718,4281.025641025642,4327.179487179487,1684.0,1685.0,431.823,405.5203857421875,0.0,0.0,0.0,0.0
430158,1.0,0.0,334.0,4380.512820512821,4117.435897435898,4307.6923076923085,4766.666666666667,3817.435897435898,4209.74358974359,4242.051282051282,4078.9743589743593,4362.051282051282,4052.820512820513,4326.153846153847,4320.512820512821,4276.923076923077,4332.307692307693,1683.0,1685.0,431.83,405.5203857421875,0.0,0.0,0.0,0.0
430158,2.0,0.0,450.0,4375.384615384616,4111.794871794872,4300.000000000001,4763.589743589744,3815.8974358974365,4191.282051282052,4243.076923076924,4084.615384615385,4367.6923076923085,4049.7435897435903,4323.589743589744,4316.923076923077,4267.6923076923085,4326.153846153847,1683.0,1685.0,431.838,405.5203857421875,0.0,0.0,0.0,0.0
430158,3.0,0.0,317.0,4383.076923076924,4113.846153846154,4306.153846153847,4765.128205128206,3815.8974358974365,4193.333333333334,4242.051282051282,4097.948717948719,4382.564102564103,4055.8974358974365,4328.717948717949,4317.948717948719,4272.307692307693,4330.769230769231,1683.0,1685.0,431.845,405.5203857421875,0.0,0.0,0.0,0.0
430158,4.0,0.0,460.0,4392.307692307693,4121.025641025642,4322.564102564103,4768.717948717949,3818.461538461539,4205.128205128206,4245.128205128206,4082.0512820512827,4373.846153846154,4059.48717948718,4333.846153846154,4324.615384615385,4284.102564102564,4345.128205128206,1683.0,1685.0,431.854,405.5203857421875,0.0,0.0,0.0,0.0
430159,5.0,0.0,547.0,4389.743589743591,4119.48717948718,4319.48717948718,4769.743589743591,3821.0256410256416,4206.666666666667,4245.641025641026,4070.7692307692314,4357.948717948719,4058.9743589743593,4333.333333333334,4324.102564102564,4285.641025641026,4345.641025641026,1683.0,1684.0,431.861,405.5203857421875,0.0,0.0,0.0,0.0
430159,6.0,0.0,532.0,4383.589743589744,4113.846153846154,4304.615384615385,4766.666666666667,3816.9230769230776,4199.48717948718,4242.051282051282,4084.1025641025644,4361.538461538462,4054.358974358975,4326.666666666667,4317.435897435898,4278.974358974359,4335.8974358974365,1684.0,1685.0,431.869,405.5203857421875,0.0,0.0,0.0,0.0
430159,7.0,0.0,478.0,4373.846153846154,4108.717948717949,4298.974358974359,4756.923076923077,3812.820512820513,4192.307692307693,4242.564102564103,4092.307692307693,4368.717948717949,4049.7435897435903,4316.410256410257,4314.871794871796,4272.307692307693,4330.769230769231,1683.0,1685.0,431.878,405.5203857421875,0.0,0.0,0.0,0.0
430159,8.0,0.0,415.0,4369.2307692307695,4108.205128205129,4297.948717948719,4753.846153846154,3816.9230769230776,4194.358974358975,4244.615384615385,4083.589743589744,4362.564102564103,4049.7435897435903,4311.794871794872,4316.410256410257,4275.384615384616,4330.769230769231,1683.0,1686.0,431.884,405.5203857421875,0.0,0.0,0.0,0.0
430160,9.0,0.0,408.0,4376.410256410257,4108.205128205129,4301.538461538462,4760.512820512821,3822.0512820512827,4205.128205128206,4249.2307692307695,4083.589743589744,4358.974358974359,4052.820512820513,4316.410256410257,4319.48717948718,4283.076923076924,4334.358974358975,1683.0,1685.0,431.893,405.5203857421875,0.0,0.0,0.0,0.0
430160,10.0,0.0,489.0,4380.000000000001,4109.74358974359,4308.717948717949,4760.512820512821,3818.9743589743593,4206.666666666667,4254.358974358975,4102.051282051282,4372.820512820514,4055.8974358974365,4316.410256410257,4322.051282051282,4283.076923076924,4337.948717948719,1683.0,1685.0,431.901,405.5203857421875,0.0,0.0,0.0,0.0
430160,11.0,0.0,446.0,4378.461538461539,4114.358974358975,4310.769230769231,4760.000000000001,3817.9487179487182,4193.333333333334,4250.256410256411,4115.384615384616,4386.153846153847,4057.9487179487182,4312.820512820514,4321.025641025642,4280.512820512821,4338.974358974359,1683.0,1684.0,431.909,405.5203857421875,0.0,0.0,0.0,0.0
430160,12.0,0.0,457.0,4383.076923076924,4114.871794871796,4312.820512820514,4763.589743589744,3823.076923076924,4197.435897435898,4249.2307692307695,4091.2820512820517,4371.282051282052,4054.358974358975,4311.794871794872,4320.512820512821,4279.48717948718,4338.461538461539,1683.0,1685.0,431.916,405.5203857421875,0.0,0.0,0.0,0.0
430290,13.0,0.0,174.0,4384.102564102564,4110.769230769231,4312.820512820514,4764.102564102564,3822.0512820512827,4218.974358974359,4254.358974358975,4066.1538461538466,4351.282051282052,4048.717948717949,4308.717948717949,4318.974358974359,4274.871794871796,4333.846153846154,1682.0,1684.0,431.925,405.6454772949219,0.0,0.0,0.0,0.0
430290,14.0,0.0,489.0,4377.435897435898,4109.2307692307695,4307.6923076923085,4763.076923076924,3818.9743589743593,4216.410256410257,4253.333333333334,4075.8974358974365,4358.461538461539,4052.307692307693,4309.743589743591,4315.8974358974365,4273.333333333334,4327.179487179487,1681.0,1686.0,431.931,405.6454772949219,0.0,0.0,0.0,0.0
430290,15.0,0.0,446.0,4380.512820512821,4110.256410256411,4308.205128205129,4765.128205128206,3826.1538461538466,4205.128205128206,4251.794871794872,4091.2820512820517,4377.435897435898,4059.48717948718,4315.8974358974365,4317.435897435898,4281.538461538462,4329.2307692307695,1682.0,1684.0,431.94,405.6454772949219,0.0,0.0,0.0,0.0
430291,16.0,0.0,0.0,4392.820512820514,4110.256410256411,4317.948717948719,4765.128205128206,3831.7948717948725,4214.871794871796,4258.461538461539,4098.461538461539,4384.615384615385,4063.076923076924,4320.512820512821,4320.512820512821,4288.205128205129,4338.461538461539,1681.0,1686.0,431.947,405.6454772949219,0.0,0.0,0.0,0.0
430291,17.0,0.0,0.0,4392.307692307693,4110.256410256411,4321.025641025642,4764.615384615386,3823.076923076924,4215.8974358974365,4262.564102564103,4109.74358974359,4378.974358974359,4062.564102564103,4321.025641025642,4321.538461538462,4287.179487179487,4340.512820512821,1682.0,1687.0,431.956,405.6454772949219,0.0,0.0,0.0,0.0
430291,18.0,0.0,0.0,4387.179487179487,4112.820512820514,4314.871794871796,4764.102564102564,3815.3846153846157,4205.641025641026,4258.974358974359,4107.6923076923085,4372.820512820514,4056.9230769230776,4316.410256410257,4321.025641025642,4287.6923076923085,4333.333333333334,1682.0,1686.0,431.964,405.6454772949219,0.0,0.0,0.0,0.0
430292,19.0,0.0,0.0,4387.179487179487,4115.384615384616,4311.794871794872,4762.564102564103,3822.564102564103,4208.717948717949,4253.333333333334,4082.0512820512827,4364.102564102564,4050.7692307692314,4311.282051282052,4318.461538461539,4287.179487179487,4325.641025641026,1683.0,1687.0,431.97,405.6454772949219,0.0,0.0,0.0,0.0
430292,20.0,0.0,0.0,4383.589743589744,4111.282051282052,4310.769230769231,4760.000000000001,3828.205128205129,4210.256410256411,4252.820512820514,4077.9487179487187,4362.051282051282,4053.333333333334,4312.820512820514,4318.461538461539,4283.076923076924,4320.000000000001,1682.0,1686.0,431.978,405.6454772949219,0.0,0.0,0.0,0.0
430292,21.0,0.0,0.0,4380.000000000001,4107.179487179487,4311.794871794872,4759.48717948718,3821.0256410256416,4208.717948717949,4258.461538461539,4103.076923076924,4375.8974358974365,4057.435897435898,4315.384615384616,4322.051282051282,4284.102564102564,4318.461538461539,1682.0,1686.0,431.986,405.6454772949219,0.0,0.0,0.0,0.0
430292,22.0,0.0,0.0,4382.051282051282,4107.179487179487,4313.846153846154,4757.948717948719,3815.3846153846157,4214.871794871796,4260.512820512821,4097.948717948719,4375.8974358974365,4051.7948717948725,4308.717948717949,4321.025641025642,4286.153846153847,4321.025641025642,1682.0,1685.0,431.995,405.6454772949219,0.0,0.0,0.0,0.0
430293,23.0,0.0,0.0,4380.512820512821,4107.179487179487,4309.743589743591,4754.358974358975,3816.410256410257,4207.179487179487,4250.769230769231,4077.435897435898,4360.512820512821,4044.615384615385,4303.076923076924,4318.461538461539,4283.589743589744,4317.948717948719,1682.0,1686.0,432.002,405.6454772949219,0.0,0.0,0.0,0.0
430293,24.0,0.0,0.0,4381.538461538462,4109.74358974359,4309.743589743591,4757.435897435898,3820.512820512821,4190.769230769231,4243.589743589744,4090.2564102564106,4363.589743589744,4049.7435897435903,4309.743589743591,4321.025641025642,4284.615384615385,4314.358974358975,1682.0,1684.0,432.011,405.6454772949219,0.0,0.0,0.0,0.0
430293,25.0,0.0,0.0,4389.2307692307695,4114.871794871796,4318.461538461539,4765.128205128206,3824.1025641025644,4200.512820512821,4252.307692307693,4105.128205128206,4375.8974358974365,4060.0000000000005,4318.461538461539,4323.589743589744,4294.358974358975,4320.512820512821,1682.0,1685.0,432.018,405.6454772949219,0.0,0.0,0.0,0.0
430293,26.0,0.0,0.0,4381.538461538462,4109.2307692307695,4312.820512820514,4762.564102564103,3826.1538461538466,4214.871794871796,4263.076923076924,4094.8717948717954,4371.282051282052,4057.9487179487182,4310.256410256411,4320.000000000001,4289.2307692307695,4317.948717948719,1682.0,1683.0,432.026,405.6454772949219,0.0,0.0,0.0,0.0
430294,27.0,0.0,0.0,4374.358974358975,4105.128205128206,4307.6923076923085,4757.948717948719,3824.615384615385,4207.179487179487,4261.025641025642,4096.923076923077,4367.6923076923085,4052.307692307693,4302.564102564103,4320.000000000001,4278.461538461539,4308.717948717949,1681.0,1683.0,432.034,405.6454772949219,0.0,0.0,0.0,0.0
430294,28.0,0.0,0.0,4389.2307692307695,4113.846153846154,4322.051282051282,4764.615384615386,3824.1025641025644,4211.282051282052,4256.410256410257,4107.6923076923085,4375.384615384616,4058.461538461539,4312.307692307693,4325.128205128206,4288.717948717949,4316.923076923077,1682.0,1682.0,432.042,405.6454772949219,0.0,0.0,0.0,0.0
430316,29.0,0.0,0.0,4398.974358974359,4121.025641025642,4329.743589743591,4773.333333333334,3823.076923076924,4227.179487179487,4256.923076923077,4091.2820512820517,4373.846153846154,4062.0512820512827,4316.410256410257,4325.128205128206,4297.435897435898,4327.179487179487,1681.0,1682.0,432.05,405.7705993652344,0.0,0.0,0.0,0.0
430316,30.0,0.0,0.0,4396.923076923077,4121.538461538462,4324.102564102564,4775.8974358974365,3816.9230769230776,4220.512820512821,4255.384615384616,4073.333333333334,4368.205128205129,4060.5128205128212,4313.333333333334,4322.051282051282,4292.307692307693,4324.102564102564,1682.0,1683.0,432.057,405.7705993652344,0.0,0.0,0.0,0.0
430316,31.0,0.0,0.0,4398.461538461539,4122.051282051282,4326.153846153847,4773.333333333334,3821.538461538462,4207.6923076923085,4257.948717948719,4094.358974358975,4376.923076923077,4064.1025641025644,4315.8974358974365,4323.076923076924,4295.8974358974365,4324.615384615385,1682.0,1682.0,432.064,405.7705993652344,0.0,0.0,0.0,0.0
430317,32.0,0.0,0.0,4394.358974358975,4118.974358974359,4324.102564102564,4767.6923076923085,3829.2307692307695,4209.2307692307695,4259.48717948718,4108.205128205129,4378.974358974359,4060.5128205128212,4311.794871794872,4323.589743589744,4295.384615384616,4323.589743589744,1682.0,1684.0,432.073,405.7705993652344,0.0,0.0,0.0,0.0
430416,33.0,0.0,0.0,4378.974358974359,4110.769230769231,4309.743589743591,4763.589743589744,3822.564102564103,4207.179487179487,4249.74358974359,4084.1025641025644,4363.589743589744,4047.1794871794878,4297.948717948719,4314.871794871796,4276.410256410257,4308.205128205129,1682.0,1683.0,432.081,405.8018493652344,0.0,0.0,0.0,0.0
430416,34.0,0.0,0.0,4373.333333333334,4108.205128205129,4303.076923076924,4762.051282051282,3812.820512820513,4195.8974358974365,4243.076923076924,4069.23076923077,4354.358974358975,4043.589743589744,4290.256410256411,4308.717948717949,4265.641025641026,4298.461538461539,1682.0,1684.0,432.089,405.8018493652344,0.0,0.0,0.0,0.0
430416,35.0,0.0,0.0,4377.948717948719,4111.282051282052,4304.615384615385,4760.000000000001,3812.820512820513,4189.2307692307695,4238.974358974359,4073.333333333334,4356.923076923077,4045.6410256410263,4287.179487179487,4313.333333333334,4272.307692307693,4306.666666666667,1683.0,1684.0,432.096,405.8018493652344,0.0,0.0,0.0,0.0
430417,36.0,0.0,0.0,4382.051282051282,4109.2307692307695,4304.615384615385,4760.512820512821,3815.3846153846157,4196.923076923077,4235.384615384616,4074.358974358975,4359.48717948718,4046.1538461538466,4290.256410256411,4320.000000000001,4278.974358974359,4313.846153846154,1682.0,1685.0,432.104,405.8018493652344,0.0,0.0,0.0,0.0
430417,37.0,0.0,0.0,4382.564102564103,4108.205128205129,4302.051282051282,4760.512820512821,3811.7948717948725,4203.076923076924,4240.000000000001,4078.9743589743593,4362.051282051282,4050.7692307692314,4299.48717948718,4322.564102564103,4281.538461538462,4316.410256410257,1683.0,1685.0,432.112,405.8018493652344,0.0,0.0,0.0,0.0
430417,38.0,0.0,0.0,4381.025641025642,4109.74358974359,4300.512820512821,4759.48717948718,3813.333333333334,4200.000000000001,4246.153846153847,4085.1282051282055,4364.102564102564,4051.2820512820517,4301.538461538462,4321.538461538462,4281.025641025642,4319.48717948718,1682.0,1685.0,432.12,405.8018493652344,0.0,0.0,0.0,0.0
430418,39.0,0.0,0.0,4382.051282051282,4108.717948717949,4304.615384615385,4758.974358974359,3815.3846153846157,4202.564102564103,4249.2307692307695,4092.307692307693,4368.205128205129,4049.7435897435903,4294.358974358975,4320.000000000001,4280.000000000001,4323.076923076924,1683.0,1686.0,432.128,405.8018493652344,0.0,0.0,0.0,0.0
430418,40.0,0.0,0.0,4391.282051282052,4112.307692307693,4313.333333333334,4765.128205128206,3817.435897435898,4210.769230769231,4255.384615384616,4103.589743589744,4375.8974358974365,4058.461538461539,4297.435897435898,4325.128205128206,4289.2307692307695,4333.333333333334,1682.0,1685.0,432.135,405.8018493652344,0.0,0.0,0.0,0.0
430418,41.0,0.0,0.0,4400.000000000001,4117.435897435898,4318.974358974359,4772.307692307693,3818.9743589743593,4204.615384615385,4255.8974358974365,4095.8974358974365,4377.948717948719,4065.1282051282055,4308.717948717949,4328.205128205129,4299.48717948718,4344.102564102564,1682.0,1686.0,432.143,405.8018493652344,0.0,0.0,0.0,0.0
430418,42.0,0.0,0.0,4387.179487179487,4109.2307692307695,4310.769230769231,4763.076923076924,3814.8717948717954,4195.8974358974365,4245.128205128206,4072.820512820513,4365.641025641026,4051.7948717948725,4300.000000000001,4320.512820512821,4287.6923076923085,4336.410256410257,1683.0,1685.0,432.151,405.8018493652344,0.0,0.0,0.0,0.0
430419,43.0,0.0,0.0,4373.846153846154,4105.128205128206,4300.000000000001,4750.256410256411,3812.307692307693,4197.435897435898,4238.461538461539,4067.1794871794878,4354.358974358975,4040.5128205128212,4285.128205128206,4316.923076923077,4272.820512820514,4322.564102564103,1681.0,1686.0,432.158,405.8018493652344,0.0,0.0,0.0,0.0
430419,44.0,0.0,0.0,4384.615384615385,4113.333333333334,4305.128205128206,4757.948717948719,3815.3846153846157,4196.410256410257,4239.48717948718,4081.538461538462,4365.128205128206,4050.7692307692314,4294.871794871796,4323.076923076924,4282.564102564103,4329.743589743591,1682.0,1685.0,432.167,405.8018493652344,0.0,0.0,0.0,0.0
430538,45.0,0.0,0.0,4392.820512820514,4112.307692307693,4315.384615384616,4767.6923076923085,3816.9230769230776,4198.461538461539,4248.205128205129,4092.820512820513,4377.435897435898,4060.0000000000005,4309.2307692307695,4324.102564102564,4293.333333333334,4343.076923076924,1682.0,1686.0,432.175,405.89569091796875,0.0,0.0,0.0,0.0
430538,46.0,0.0,0.0,4386.153846153847,4107.6923076923085,4313.333333333334,4760.000000000001,3815.8974358974365,4209.2307692307695,4254.358974358975,4085.6410256410263,4367.179487179487,4050.2564102564106,4301.025641025642,4320.512820512821,4283.076923076924,4340.000000000001,1683.0,1686.0,432.182,405.89569091796875,0.0,0.0,0.0,0.0
430538,47.0,0.0,0.0,4387.6923076923085,4113.333333333334,4312.307692307693,4756.923076923077,3816.9230769230776,4210.769230769231,4251.282051282052,4078.461538461539,4359.48717948718,4047.1794871794878,4294.871794871796,4319.48717948718,4281.025641025642,4340.000000000001,1682.0,1687.0,432.192,405.89569091796875,0.0,0.0,0.0,0.0
430539,48.0,0.0,0.0,4394.358974358975,4117.435897435898,4320.000000000001,4768.717948717949,3818.9743589743593,4207.6923076923085,4250.769230769231,4088.205128205129,4372.307692307693,4058.461538461539,4306.153846153847,4321.538461538462,4295.8974358974365,4352.307692307693,1683.0,1686.0,432.197,405.89569091796875,0.0,0.0,0.0,0.0
430539,49.0,0.0,0.0,4391.794871794872,4112.307692307693,4321.025641025642,4768.717948717949,3816.410256410257,4207.179487179487,4248.205128205129,4088.717948717949,4377.948717948719,4059.48717948718,4310.256410256411,4321.025641025642,4297.435897435898,4356.410256410257,1682.0,1686.0,432.206,405.89569091796875,0.0,0.0,0.0,0.0
430539,50.0,0.0,0.0,4390.769230769231,4112.307692307693,4318.461538461539,4763.589743589744,3815.3846153846157,4204.615384615385,4244.615384615385,4083.076923076924,4375.8974358974365,4056.9230769230776,4309.743589743591,4322.051282051282,4294.358974358975,4354.871794871796,1682.0,1686.0,432.213,405.89569091796875,0.0,0.0,0.0,0.0
430539,51.0,0.0,0.0,4389.743589743591,4111.282051282052,4317.435897435898,4765.128205128206,3816.9230769230776,4200.512820512821,4249.2307692307695,4084.1025641025644,4375.384615384616,4061.0256410256416,4313.846153846154,4323.076923076924,4299.48717948718,4358.461538461539,1683.0,1685.0,432.222,405.89569091796875,0.0,0.0,0.0,0.0
430540,52.0,0.0,0.0,4387.6923076923085,4106.666666666667,4312.307692307693,4763.076923076924,3816.410256410257,4204.102564102564,4252.307692307693,4079.48717948718,4364.102564102564,4056.410256410257,4313.333333333334,4319.48717948718,4296.410256410257,4356.410256410257,1683.0,1687.0,432.23,405.89569091796875,0.0,0.0,0.0,0.0
430540,53.0,0.0,0.0,4393.846153846154,4109.2307692307695,4313.846153846154,4759.48717948718,3814.358974358975,4209.74358974359,4251.282051282052,4088.205128205129,4369.2307692307695,4052.307692307693,4313.846153846154,4321.025641025642,4291.282051282052,4356.410256410257,1683.0,1686.0,432.236,405.89569091796875,0.0,0.0,0.0,0.0
430540,54.0,0.0,0.0,4391.794871794872,4111.282051282052,4316.923076923077,4762.051282051282,3813.333333333334,4211.282051282052,4252.307692307693,4103.076923076924,4381.025641025642,4055.8974358974365,4308.717948717949,4319.48717948718,4284.615384615385,4357.435897435898,1682.0,1688.0,432.245,405.89569091796875,0.0,0.0,0.0,0.0
430540,55.0,0.0,0.0,4378.461538461539,4105.641025641026,4307.6923076923085,4760.000000000001,3814.358974358975,4212.820512820514,4253.333333333334,4087.1794871794878,4361.538461538462,4051.2820512820517,4291.794871794872,4313.846153846154,4270.256410256411,4346.666666666667,1684.0,1687.0,432.253,405.89569091796875,0.0,0.0,0.0,0.0
430540,56.0,0.0,0.0,4384.102564102564,4108.205128205129,4308.205128205129,4757.948717948719,3815.8974358974365,4224.102564102564,4257.435897435898,4083.076923076924,4361.025641025642,4053.8461538461543,4298.461538461539,4318.974358974359,4277.435897435898,4351.282051282052,1683.0,1687.0,432.261,405.89569091796875,0.0,0.0,0.0,0.0
430541,57.0,0.0,0.0,4403.589743589744,4118.461538461539,4324.615384615385,4767.179487179488,3820.0000000000005,4228.717948717949,4266.666666666667,4123.076923076924,4403.589743589744,4072.307692307693,4326.666666666667,4327.6923076923085,4308.717948717949,4379.48717948718,1683.0,1687.0,432.269,405.89569091796875,0.0,0.0,0.0,0.0
430541,58.0,0.0,0.0,4409.743589743591,4125.128205128206,4337.435897435898,4780.512820512821,3821.0256410256416,4213.333333333334,4266.153846153847,4137.948717948719,4416.923076923077,4083.076923076924,4339.48717948718,4330.256410256411,4328.205128205129,4396.410256410257,1683.0,1686.0,432.276,405.89569091796875,0.0,0.0,0.0,0.0
430541,59.0,0.0,0.0,4406.153846153847,4126.666666666667,4341.025641025642,4783.589743589744,3818.461538461539,4204.615384615385,4261.025641025642,4112.307692307693,4394.358974358975,4080.0000000000005,4337.435897435898,4330.256410256411,4328.717948717949,4397.435897435898,1684.0,1686.0,432.285,405.89569091796875,0.0,0.0,0.0,0.0
430541,60.0,0.0,0.0,4407.179487179487,4128.205128205129,4341.025641025642,4782.564102564103,3822.564102564103,4218.974358974359,4265.128205128206,4101.025641025642,4392.820512820514,4075.8974358974365,4332.307692307693,4328.205128205129,4323.076923076924,4395.8974358974365,1683.0,1685.0,432.292,405.89569091796875,0.0,0.0,0.0,0.0
430662,61.0,0.0,0.0,4409.2307692307695,4125.128205128206,4334.358974358975,4784.102564102564,3831.2820512820517,4232.820512820514,4269.2307692307695,4102.564102564103,4395.8974358974365,4072.820512820513,4320.000000000001,4322.564102564103,4314.871794871796,4388.717948717949,1684.0,1685.0,432.299,406.02081298828125,0.0,0.0,0.0,0.0
430662,62.0,0.0,0.0,4406.666666666667,4120.000000000001,4325.128205128206,4781.538461538462,3832.820512820513,4229.2307692307695,4264.102564102564,4094.358974358975,4382.564102564103,4068.717948717949,4312.307692307693,4319.48717948718,4307.179487179487,4377.435897435898,1683.0,1686.0,432.308,406.02081298828125,0.0,0.0,0.0,0.0
430665,63.0,0.0,0.0,4402.051282051282,4121.538461538462,4321.538461538462,4778.461538461539,3825.6410256410263,4218.974358974359,4262.564102564103,4099.48717948718,4386.153846153847,4066.666666666667,4314.871794871796,4320.512820512821,4304.102564102564,4376.923076923077,1683.0,1685.0,432.316,406.02081298828125,0.0,0.0,0.0,0.0
430665,64.0,0.0,477.0,4401.538461538462,4123.076923076924,4324.615384615385,4781.538461538462,3823.589743589744,4216.923076923077,4266.666666666667,4117.948717948719,4397.948717948719,4068.205128205129,4313.333333333334,4323.589743589744,4305.128205128206,4384.102564102564,1682.0,1685.0,432.322,406.02081298828125,0.0,0.0,0.0,0.0
430665,65.0,0.0,334.0,4403.589743589744,4121.538461538462,4330.256410256411,4781.025641025642,3828.205128205129,4229.74358974359,4267.6923076923085,4112.820512820514,4390.769230769231,4067.692307692308,4305.128205128206,4323.589743589744,4302.564102564103,4385.128205128206,1683.0,1685.0,432.331,406.02081298828125,0.0,0.0,0.0,0.0
430669,66.0,0.0,450.0,4401.025641025642,4121.538461538462,4328.717948717949,4774.358974358975,3826.666666666667,4243.076923076924,4266.153846153847,4107.179487179487,4387.179487179487,4068.205128205129,4302.564102564103,4318.974358974359,4296.923076923077,4378.974358974359,1683.0,1684.0,432.339,406.02081298828125,0.0,0.0,0.0,0.0
430669,67.0,0.0,318.0,4396.923076923077,4121.538461538462,4325.128205128206,4776.923076923077,3818.461538461539,4230.769230769231,4266.666666666667,4118.461538461539,4396.923076923077,4069.7435897435903,4308.717948717949,4319.48717948718,4298.974358974359,4377.948717948719,1683.0,1685.0,432.347,406.02081298828125,0.0,0.0,0.0,0.0
430669,68.0,0.0,460.0,4394.358974358975,4120.512820512821,4322.051282051282,4778.974358974359,3815.3846153846157,4216.923076923077,4263.076923076924,4108.717948717949,4392.307692307693,4067.692307692308,4309.2307692307695,4323.589743589744,4300.512820512821,4381.025641025642,1682.0,1685.0,432.355,406.02081298828125,0.0,0.0,0.0,0.0
430671,69.0,0.0,547.0,4386.666666666667,4117.435897435898,4313.333333333334,4770.256410256411,3817.9487179487182,4227.179487179487,4258.461538461539,4090.7692307692314,4375.8974358974365,4059.48717948718,4300.000000000001,4320.000000000001,4287.6923076923085,4371.282051282052,1683.0,1684.0,432.362,406.02081298828125,0.0,0.0,0.0,0.0
430671,70.0,0.0,532.0,4393.333333333334,4118.461538461539,4314.871794871796,4771.282051282052,3816.410256410257,4228.205128205129,4257.948717948719,4105.641025641026,4381.538461538462,4060.0000000000005,4303.076923076924,4318.974358974359,4290.256410256411,4369.2307692307695,1682.0,1683.0,432.37,406.02081298828125,0.0,0.0,0.0,0.0
430671,71.0,0.0,478.0,4414.358974358975,4123.076923076924,4334.871794871796,4784.102564102564,3813.333333333334,4209.74358974359,4257.435897435898,4125.128205128206,4396.410256410257,4071.2820512820517,4322.051282051282,4326.153846153847,4316.410256410257,4392.307692307693,1682.0,1685.0,432.378,406.02081298828125,0.0,0.0,0.0,0.0
430672,72.0,0.0,415.0,4417.948717948719,4126.153846153847,4347.6923076923085,4787.6923076923085,3815.3846153846157,4207.6923076923085,4257.435897435898,4107.6923076923085,4393.333333333334,4077.435897435898,4338.461538461539,4329.743589743591,4331.282051282052,4409.743589743591,1682.0,1683.0,432.386,406.02081298828125,0.0,0.0,0.0,0.0
430672,73.0,0.0,408.0,4404.615384615385,4124.102564102564,4339.48717948718,4782.051282051282,3817.9487179487182,4218.461538461539,4253.333333333334,4085.6410256410263,4383.589743589744,4072.820512820513,4337.435897435898,4326.666666666667,4326.153846153847,4403.076923076924,1681.0,1685.0,432.394,406.02081298828125,0.0,0.0,0.0,0.0
430672,74.0,0.0,489.0,4394.871794871796,4118.461538461539,4325.641025641026,4777.435897435898,3815.8974358974365,4212.820512820514,4248.205128205129,4088.717948717949,4378.974358974359,4064.615384615385,4326.666666666667,4322.564102564103,4315.384615384616,4386.153846153847,1682.0,1686.0,432.402,406.02081298828125,0.0,0.0,0.0,0.0
430672,75.0,0.0,446.0,4391.794871794872,4116.410256410257,4322.051282051282,4773.333333333334,3814.8717948717954,4209.2307692307695,4252.307692307693,4102.051282051282,4382.564102564103,4064.1025641025644,4326.153846153847,4321.025641025642,4310.769230769231,4377.948717948719,1682.0,1686.0,432.409,406.02081298828125,0.0,0.0,0.0,0.0
430673,76.0,0.0,457.0,4391.794871794872,4118.461538461539,4325.641025641026,4767.179487179488,3815.8974358974365,4219.48717948718,4256.410256410257,4105.128205128206,4383.076923076924,4066.666666666667,4326.666666666667,4323.076923076924,4311.282051282052,4375.384615384616,1682.0,1686.0,432.417,406.02081298828125,0.0,0.0,0.0,0.0
430794,77.0,0.0,174.0,4393.846153846154,4118.461538461539,4326.153846153847,4770.769230769231,3816.9230769230776,4217.948717948719,4255.8974358974365,4102.051282051282,4377.948717948719,4061.538461538462,4317.948717948719,4324.102564102564,4305.641025641026,4369.743589743591,1681.0,1686.0,432.425,406.1459045410156,0.0,0.0,0.0,0.0
430794,78.0,0.0,489.0,4392.820512820514,4119.48717948718,4325.641025641026,4777.435897435898,3815.3846153846157,4212.307692307693,4254.871794871796,4103.076923076924,4381.538461538462,4063.589743589744,4314.358974358975,4321.538461538462,4303.076923076924,4366.153846153847,1683.0,1685.0,432.433,406.1459045410156,0.0,0.0,0.0,0.0
430795,79.0,0.0,446.0,4392.307692307693,4121.025641025642,4324.102564102564,4773.333333333334,3814.358974358975,4222.051282051282,4257.435897435898,4101.538461538462,4389.2307692307695,4070.7692307692314,4314.358974358975,4320.000000000001,4309.2307692307695,4365.128205128206,1681.0,1684.0,432.441,406.1459045410156,0.0,0.0,0.0,0.0
430795,80.0,0.0,457.0,4393.333333333334,4121.025641025642,4318.461538461539,4769.743589743591,3819.48717948718,4229.74358974359,4263.589743589744,4096.923076923077,4387.6923076923085,4068.205128205129,4310.769230769231,4320.512820512821,4311.282051282052,4358.974358974359,1682.0,1685.0,432.449,406.1459045410156,0.0,0.0,0.0,0.0
430796,81.0,0.0,174.0,4394.358974358975,4120.512820512821,4320.000000000001,4778.461538461539,3828.205128205129,4224.102564102564,4275.384615384616,4106.153846153847,4390.256410256411,4067.1794871794878,4319.48717948718,4322.564102564103,4312.820512820514,4356.923076923077,1681.0,1683.0,432.456,406.1459045410156,0.0,0.0,0.0,0.0
430796,82.0,0.0,489.0,4397.948717948719,4123.589743589744,4332.307692307693,4783.076923076924,3830.7692307692314,4223.076923076924,4276.410256410257,4120.000000000001,4398.974358974359,4072.307692307693,4333.333333333334,4324.102564102564,4321.025641025642,4365.128205128206,1681.0,1684.0,432.464,406.1459045410156,0.0,0.0,0.0,0.0
430796,83.0,0.0,446.0,4394.871794871796,4125.128205128206,4335.384615384616,4779.48717948718,3827.692307692308,4224.102564102564,4264.615384615385,4117.948717948719,4393.333333333334,4068.717948717949,4327.179487179487,4323.076923076924,4316.923076923077,4362.564102564103,1682.0,1683.0,432.472,406.1459045410156,0.0,0.0,0.0,0.0
430797,84.0,0.0,457.0,4389.2307692307695,4124.615384615385,4328.205128205129,4782.051282051282,3829.7435897435903,4222.564102564103,4264.615384615385,4109.2307692307695,4382.564102564103,4062.564102564103,4312.307692307693,4322.051282051282,4300.512820512821,4351.282051282052,1681.0,1684.0,432.48,406.1459045410156,0.0,0.0,0.0,0.0
430797,85.0,0.0,174.0,4391.282051282052,4123.076923076924,4326.666666666667,4783.589743589744,3832.820512820513,4230.769230769231,4270.769230769231,4105.128205128206,4381.025641025642,4063.589743589744,4306.153846153847,4321.025641025642,4294.358974358975,4349.2307692307695,1683.0,1684.0,432.488,406.1459045410156,0.0,0.0,0.0,0.0
430797,86.0,0.0,489.0,4395.384615384616,4122.564102564103,4329.2307692307695,4780.512820512821,3831.2820512820517,4237.435897435898,4266.153846153847,4100.000000000001,4383.076923076924,4064.1025641025644,4310.256410256411,4319.48717948718,4300.000000000001,4350.769230769231,1682.0,1683.0,432.494,406.1459045410156,0.0,0.0,0.0,0.0
430797,87.0,0.0,446.0,4391.794871794872,4128.717948717949,4327.179487179487,4784.615384615386,3830.7692307692314,4234.358974358975,4260.512820512821,4097.435897435898,4385.641025641026,4064.1025641025644,4320.512820512821,4321.538461538462,4307.6923076923085,4350.256410256411,1683.0,1684.0,432.503,406.1459045410156,0.0,0.0,0.0,0.0
430798,88.0,0.0,457.0,4394.358974358975,4132.820512820514,4329.2307692307695,4792.307692307693,3831.2820512820517,4228.717948717949,4265.641025641026,4100.512820512821,4389.2307692307695,4068.717948717949,4325.128205128206,4327.179487179487,4315.8974358974365,4357.435897435898,1683.0,1684.0,432.511,406.1459045410156,0.0,0.0,0.0,0.0
430798,89.0,0.0,174.0,4408.717948717949,4130.256410256411,4342.564102564103,4797.948717948719,3831.2820512820517,4223.589743589744,4273.846153846154,4105.128205128206,4392.307692307693,4075.8974358974365,4326.666666666667,4330.256410256411,4328.205128205129,4372.820512820514,1682.0,1684.0,432.519,406.1459045410156,0.0,0.0,0.0,0.0
430798,90.0,0.0,489.0,4414.871794871796,4131.794871794872,4351.282051282052,4798.461538461539,3831.7948717948725,4222.051282051282,4275.8974358974365,4110.769230769231,4393.333333333334,4079.48717948718,4330.769230769231,4331.794871794872,4336.923076923077,4382.564102564103,1683.0,1685.0,432.527,406.1459045410156,0.0,0.0,0.0,0.0
430798,91.0,0.0,446.0,4408.205128205129,4136.410256410257,4345.641025641026,4797.435897435898,3831.2820512820517,4230.256410256411,4278.461538461539,4116.410256410257,4395.8974358974365,4077.435897435898,4331.282051282052,4333.846153846154,4335.384615384616,4380.512820512821,1683.0,1685.0,432.536,406.1459045410156,0.0,0.0,0.0,0.0
430799,92.0,0.0,457.0,4403.076923076924,4132.307692307693,4340.000000000001,4797.948717948719,3829.7435897435903,4234.358974358975,4278.974358974359,4120.000000000001,4400.000000000001,4073.8461538461543,4325.128205128206,4328.717948717949,4328.205128205129,4371.794871794872,1683.0,1685.0,432.542,406.1459045410156,0.0,0.0,0.0,0.0
430821,93.0,0.0,174.0,4399.48717948718,4122.564102564103,4334.358974358975,4793.333333333334,3833.333333333334,4227.179487179487,4276.410256410257,4114.358974358975,4394.871794871796,4068.717948717949,4314.871794871796,4321.538461538462,4317.435897435898,4361.025641025642,1682.0,1687.0,432.55,406.2710266113281,0.0,0.0,0.0,0.0
430821,94.0,0.0,489.0,4395.384615384616,4120.000000000001,4327.179487179487,4783.076923076924,3830.2564102564106,4224.102564102564,4277.948717948719,4097.435897435898,4378.974358974359,4062.564102564103,4304.102564102564,4322.051282051282,4305.128205128206,4356.923076923077,1684.0,1685.0,432.558,406.2710266113281,0.0,0.0,0.0,0.0
430821,95.0,0.0,446.0,4396.410256410257,4125.128205128206,4329.2307692307695,4781.538461538462,3822.0512820512827,4222.564102564103,4278.461538461539,4099.48717948718,4377.435897435898,4063.076923076924,4300.512820512821,4324.615384615385,4301.025641025642,4362.051282051282,1682.0,1686.0,432.565,406.2710266113281,0.0,0.0,0.0,0.0
430821,96.0,0.0,457.0,4397.948717948719,4132.307692307693,4334.871794871796,4790.256410256411,3824.615384615385,4218.461538461539,4277.435897435898,4122.564102564103,4389.2307692307695,4068.205128205129,4303.589743589744,4322.564102564103,4305.641025641026,4365.128205128206,1683.0,1685.0,432.574,406.2710266113281,0.0,0.0,0.0,0.0
430909,97.0,0.0,174.0,4403.589743589744,4136.923076923077,4337.948717948719,4797.435897435898,3831.2820512820517,4224.615384615385,4278.974358974359,4120.000000000001,4390.256410256411,4072.307692307693,4309.743589743591,4323.589743589744,4315.8974358974365,4367.179487179487,1682.0,1685.0,432.58,406.30230712890625,0.0,0.0,0.0,0.0
430909,98.0,0.0,489.0,4409.2307692307695,4135.8974358974365,4343.076923076924,4798.461538461539,3831.7948717948725,4229.2307692307695,4280.512820512821,4096.923076923077,4386.153846153847,4076.410256410257,4315.8974358974365,4327.179487179487,4326.666666666667,4373.846153846154,1683.0,1685.0,432.589,406.30230712890625,0.0,0.0,0.0,0.0
430909,99.0,0.0,446.0,4403.076923076924,4129.74358974359,4339.48717948718,4791.282051282052,3826.666666666667,4222.051282051282,4273.333333333334,4098.974358974359,4387.6923076923085,4076.410256410257,4318.974358974359,4326.153846153847,4325.641025641026,4375.8974358974365,1683.0,1684.0,432.597,406.30230712890625,0.0,0.0,0.0,0.0
430910,100.0,0.0,457.0,4390.769230769231,4122.564102564103,4324.615384615385,4783.076923076924,3823.076923076924,4222.051282051282,4268.205128205129,4110.256410256411,4387.179487179487,4069.23076923077,4316.410256410257,4321.025641025642,4315.8974358974365,4368.205128205129,1682.0,1685.0,432.604,406.30230712890625,0.0,0.0,0.0,0.0
430910,101.0,0.0,174.0,4393.333333333334,4125.128205128206,4323.589743589744,4788.205128205129,3825.6410256410263,4232.307692307693,4272.820512820514,4103.589743589744,4384.615384615385,4067.692307692308,4313.846153846154,4320.512820512821,4314.871794871796,4368.205128205129,1683.0,1684.0,432.613,406.30230712890625,0.0,0.0,0.0,0.0
430910,102.0,0.0,489.0,4407.6923076923085,4135.8974358974365,4342.564102564103,4798.974358974359,3829.7435897435903,4229.74358974359,4274.871794871796,4102.051282051282,4390.769230769231,4076.9230769230776,4322.051282051282,4330.256410256411,4326.153846153847,4384.615384615385,1682.0,1684.0,432.62,406.30230712890625,0.0,0.0,0.0,0.0
430910,103.0,0.0,446.0,4413.333333333334,4136.410256410257,4351.794871794872,4798.974358974359,3830.2564102564106,4225.128205128206,4275.8974358974365,4115.8974358974365,4401.025641025642,4082.0512820512827,4327.6923076923085,4336.923076923077,4331.794871794872,4393.333333333334,1682.0,1683.0,432.628,406.30230712890625,0.0,0.0,0.0,0.0
430911,104.0,0.0,457.0,4407.6923076923085,4128.205128205129,4345.641025641026,4795.384615384616,3830.7692307692314,4234.358974358975,4282.051282051282,4130.256410256411,4403.589743589744,4079.48717948718,4322.564102564103,4332.820512820514,4324.102564102564,4390.256410256411,1682.0,1684.0,432.645,406.30230712890625,0.0,0.0,0.0,0.0
430911,105.0,0.0,174.0,4405.641025641026,4130.769230769231,4340.512820512821,4797.435897435898,3832.307692307693,4243.076923076924,4282.564102564103,4118.974358974359,4396.410256410257,4074.8717948717954,4318.974358974359,4325.128205128206,4320.000000000001,4388.205128205129,1683.0,1683.0,432.646,406.30230712890625,0.0,0.0,0.0,0.0
430911,106.0,0.0,489.0,4408.205128205129,4137.948717948719,4340.000000000001,4799.48717948718,3831.2820512820517,4238.461538461539,4277.435897435898,4090.2564102564106,4383.589743589744,4071.2820512820517,4320.000000000001,4322.564102564103,4324.102564102564,4386.153846153847,1681.0,1683.0,432.652,406.30230712890625,0.0,0.0,0.0,0.0
430911,107.0,0.0,446.0,4406.666666666667,4133.333333333334,4341.025641025642,4800.512820512821,3828.205128205129,4228.205128205129,4278.461538461539,4092.307692307693,4383.589743589744,4071.2820512820517,4318.461538461539,4324.102564102564,4320.512820512821,4382.051282051282,1683.0,1684.0,432.659,406.30230712890625,0.0,0.0,0.0,0.0
430912,108.0,0.0,457.0,4407.179487179487,4130.769230769231,4344.102564102564,4798.974358974359,3827.1794871794878,4227.179487179487,4280.512820512821,4121.025641025642,4397.435897435898,4073.333333333334,4317.948717948719,4325.128205128206,4314.871794871796,4385.128205128206,1682.0,1684.0,432.667,406.30230712890625,0.0,0.0,0.0,0.0
431044,109.0,0.0,174.0,4410.256410256411,4135.384615384616,4346.153846153847,4796.923076923077,3825.1282051282055,4231.282051282052,4272.820512820514,4123.589743589744,4404.615384615385,4075.3846153846157,4319.48717948718,4326.153846153847,4320.512820512821,4392.820512820514,1682.0,1686.0,432.675,406.3961181640625,0.0,0.0,0.0,0.0
431044,110.0,0.0,489.0,4407.179487179487,4131.794871794872,4343.076923076924,4797.435897435898,3821.538461538462,4227.6923076923085,4268.205128205129,4106.666666666667,4396.923076923077,4075.3846153846157,4315.384615384616,4325.641025641026,4324.615384615385,4390.769230769231,1682.0,1686.0,432.683,406.3961181640625,0.0,0.0,0.0,0.0
431045,111.0,0.0,446.0,4404.615384615385,4130.769230769231,4338.974358974359,4797.435897435898,3821.0256410256416,4221.025641025642,4274.358974358975,4112.307692307693,4392.820512820514,4074.8717948717954,4313.846153846154,4325.128205128206,4323.589743589744,4385.641025641026,1682.0,1686.0,432.691,406.3961181640625,0.0,0.0,0.0,0.0
431045,112.0,0.0,457.0,4405.128205128206,4136.923076923077,4339.48717948718,4794.871794871796,3828.205128205129,4234.358974358975,4283.076923076924,4126.666666666667,4399.48717948718,4076.9230769230776,4320.512820512821,4326.153846153847,4325.128205128206,4385.128205128206,1682.0,1686.0,432.698,406.3961181640625,0.0,0.0,0.0,0.0
431046,113.0,0.0,174.0,4405.641025641026,4136.410256410257,4347.179487179487,4797.948717948719,3834.358974358975,4250.256410256411,4286.153846153847,4126.153846153847,4404.102564102564,4079.48717948718,4328.717948717949,4328.205128205129,4328.205128205129,4389.743589743591,1682.0,1686.0,432.707,406.3961181640625,0.0,0.0,0.0,0.0
431046,114.0,0.0,489.0,4414.358974358975,4135.8974358974365,4356.410256410257,4809.743589743591,3833.333333333334,4241.025641025642,4282.564102564103,4118.461538461539,4404.615384615385,4082.564102564103,4337.435897435898,4331.282051282052,4336.923076923077,4401.025641025642,1682.0,1685.0,432.714,406.3961181640625,0.0,0.0,0.0,0.0
431046,115.0,0.0,446.0,4420.000000000001,4140.000000000001,4356.923076923077,4815.384615384616,3832.307692307693,4234.358974358975,4286.153846153847,4120.512820512821,4406.153846153847,4084.615384615385,4338.461538461539,4330.769230769231,4345.128205128206,4407.6923076923085,1682.0,1685.0,432.722,406.3961181640625,0.0,0.0,0.0,0.0
431047,116.0,0.0,457.0,4414.871794871796,4138.974358974359,4352.820512820514,4810.769230769231,3834.358974358975,4248.717948717949,4292.307692307693,4128.205128205129,4404.615384615385,4086.1538461538466,4331.794871794872,4327.179487179487,4342.051282051282,4401.538461538462,1682.0,1684.0,432.73,406.3961181640625,0.0,0.0,0.0,0.0
431047,117.0,0.0,174.0,4413.333333333334,4136.923076923077,4351.794871794872,4806.666666666667,3833.333333333334,4251.282051282052,4287.6923076923085,4128.205128205129,4405.641025641026,4087.692307692308,4329.743589743591,4328.205128205129,4340.000000000001,4398.974358974359,1681.0,1685.0,432.738,406.3961181640625,0.0,0.0,0.0,0.0
431047,118.0,0.0,489.0,4415.384615384616,4137.435897435898,4354.358974358975,4809.743589743591,3829.7435897435903,4232.307692307693,4283.076923076924,4131.794871794872,4417.948717948719,4090.2564102564106,4336.923076923077,4330.256410256411,4346.666666666667,4405.128205128206,1681.0,1684.0,432.746,406.3961181640625,0.0,0.0,0.0,0.0
431047,119.0,0.0,446.0,4409.2307692307695,4137.948717948719,4352.820512820514,4810.256410256411,3831.2820512820517,4229.74358974359,4288.717948717949,4136.923076923077,4418.974358974359,4089.7435897435903,4340.512820512821,4328.717948717949,4346.153846153847,4402.564102564103,1681.0,1684.0,432.753,406.3961181640625,0.0,0.0,0.0,0.0
431048,120.0,0.0,457.0,4403.589743589744,4136.410256410257,4348.205128205129,4802.564102564103,3829.2307692307695,4238.974358974359,4288.205128205129,4126.666666666667,4400.512820512821,4083.076923076924,4331.794871794872,4326.666666666667,4333.333333333334,4392.307692307693,1681.0,1683.0,432.761,406.3961181640625,0.0,0.0,0.0,0.0
431048,121.0,0.0,174.0,4407.6923076923085,4133.333333333334,4347.179487179487,4798.974358974359,3821.538461538462,4231.794871794872,4274.358974358975,4107.179487179487,4387.6923076923085,4076.9230769230776,4322.564102564103,4324.102564102564,4325.128205128206,4390.256410256411,1681.0,1684.0,432.769,406.3961181640625,0.0,0.0,0.0,0.0
431048,122.0,0.0,489.0,4410.256410256411,4132.307692307693,4346.666666666667,4801.025641025642,3819.48717948718,4220.512820512821,4268.717948717949,4103.589743589744,4389.2307692307695,4077.435897435898,4319.48717948718,4321.025641025642,4326.153846153847,4390.769230769231,1681.0,1683.0,432.777,406.3961181640625,0.0,0.0,0.0,0.0
431048,123.0,0.0,446.0,4399.48717948718,4130.769230769231,4336.923076923077,4799.48717948718,3820.0000000000005,4223.076923076924,4272.307692307693,4106.666666666667,4386.666666666667,4072.820512820513,4311.282051282052,4320.000000000001,4319.48717948718,4378.461538461539,1681.0,1684.0,432.785,406.3961181640625,0.0,0.0,0.0,0.0
431048,124.0,0.0,457.0,4387.6923076923085,4123.589743589744,4323.589743589744,4791.282051282052,3815.8974358974365,4229.2307692307695,4268.717948717949,4097.435897435898,4378.461538461539,4061.538461538462,4299.48717948718,4318.974358974359,4307.179487179487,4363.076923076924,1682.0,1684.0,432.793,406.3961181640625,0.0,0.0,0.0,0.0
431297,125.0,0.0,174.0,4390.769230769231,4124.102564102564,4322.051282051282,4786.153846153847,3816.410256410257,4227.179487179487,4265.128205128206,4097.435897435898,4385.641025641026,4065.1282051282055,4301.025641025642,4321.025641025642,4307.6923076923085,4365.128205128206,1681.0,1685.0,432.8,406.521240234375,0.0,0.0,0.0,0.0
431298,126.0,0.0,489.0,4397.948717948719,4130.256410256411,4331.794871794872,4787.179487179488,3818.9743589743593,4221.538461538462,4273.333333333334,4120.512820512821,4405.641025641026,4077.9487179487187,4312.820512820514,4323.076923076924,4318.974358974359,4373.846153846154,1683.0,1685.0,432.807,406.521240234375,0.0,0.0,0.0,0.0
431298,127.0,0.0,446.0,4394.871794871796,4126.666666666667,4335.8974358974365,4786.666666666667,3816.410256410257,4223.589743589744,4277.948717948719,4132.307692307693,4410.769230769231,4075.8974358974365,4311.794871794872,4323.076923076924,4317.948717948719,4374.358974358975,1682.0,1684.0,432.815,406.521240234375,0.0,0.0,0.0,0.0
431299,128.0,0.0,457.0,4391.794871794872,4118.461538461539,4329.2307692307695,4782.051282051282,3816.9230769230776,4232.307692307693,4271.282051282052,4113.333333333334,4394.358974358975,4067.1794871794878,4296.410256410257,4320.000000000001,4304.615384615385,4367.179487179487,1682.0,1686.0,432.823,406.521240234375,0.0,0.0,0.0,0.0
431299,0.0,0.0,477.0,4388.205128205129,4119.48717948718,4321.025641025642,4778.974358974359,3817.435897435898,4230.256410256411,4266.666666666667,4094.358974358975,4382.564102564103,4063.589743589744,4286.666666666667,4316.410256410257,4296.923076923077,4357.948717948719,1683.0,1684.0,432.831,406.521240234375,0.0,0.0,0.0,0.0
431299,1.0,0.0,334.0,4382.564102564103,4122.564102564103,4317.948717948719,4781.025641025642,3815.8974358974365,4224.102564102564,4268.205128205129,4100.000000000001,4388.205128205129,4062.564102564103,4290.256410256411,4317.948717948719,4298.461538461539,4355.8974358974365,1682.0,1684.0,432.838,406.521240234375,0.0,0.0,0.0,0.0
431299,2.0,0.0,450.0,4380.512820512821,4120.512820512821,4313.846153846154,4780.512820512821,3816.410256410257,4232.307692307693,4267.6923076923085,4107.6923076923085,4391.794871794872,4063.076923076924,4291.794871794872,4318.461538461539,4294.871794871796,4356.923076923077,1682.0,1685.0,432.846,406.521240234375,0.0,0.0,0.0,0.0
431300,3.0,0.0,318.0,4384.615384615385,4120.000000000001,4312.307692307693,4778.974358974359,3817.435897435898,4237.948717948719,4268.205128205129,4112.307692307693,4391.282051282052,4064.1025641025644,4287.179487179487,4317.948717948719,4292.820512820514,4355.384615384616,1682.0,1685.0,432.854,406.521240234375,0.0,0.0,0.0,0.0
431300,4.0,0.0,460.0,4392.820512820514,4121.538461538462,4320.000000000001,4780.512820512821,3815.8974358974365,4221.538461538462,4270.769230769231,4122.051282051282,4394.871794871796,4065.1282051282055,4290.769230769231,4319.48717948718,4301.538461538462,4360.512820512821,1683.0,1685.0,432.862,406.521240234375,0.0,0.0,0.0,0.0
431300,5.0,0.0,547.0,4398.974358974359,4123.076923076924,4327.179487179487,4782.051282051282,3812.820512820513,4210.256410256411,4269.74358974359,4115.384615384616,4391.282051282052,4065.1282051282055,4293.333333333334,4319.48717948718,4304.102564102564,4365.128205128206,1681.0,1685.0,432.87,406.521240234375,0.0,0.0,0.0,0.0
431300,6.0,0.0,532.0,4397.948717948719,4124.102564102564,4327.6923076923085,4783.076923076924,3813.333333333334,4222.564102564103,4268.205128205129,4100.000000000001,4383.589743589744,4064.1025641025644,4288.205128205129,4319.48717948718,4301.025641025642,4364.615384615385,1682.0,1685.0,432.878,406.521240234375,0.0,0.0,0.0,0.0
431301,7.0,0.0,478.0,4394.871794871796,4124.615384615385,4327.179487179487,4783.589743589744,3816.9230769230776,4225.641025641026,4264.615384615385,4100.512820512821,4388.205128205129,4064.615384615385,4292.307692307693,4322.564102564103,4307.6923076923085,4370.769230769231,1681.0,1685.0,432.885,406.521240234375,0.0,0.0,0.0,0.0
431301,8.0,0.0,415.0,4396.410256410257,4122.051282051282,4321.538461538462,4782.564102564103,3814.358974358975,4215.8974358974365,4258.974358974359,4099.48717948718,4391.794871794872,4064.1025641025644,4294.871794871796,4323.076923076924,4309.743589743591,4372.307692307693,1681.0,1685.0,432.893,406.521240234375,0.0,0.0,0.0,0.0
431301,9.0,0.0,408.0,4393.846153846154,4119.48717948718,4313.333333333334,4778.461538461539,3806.1538461538466,4215.8974358974365,4258.461538461539,4091.2820512820517,4379.48717948718,4060.0000000000005,4282.564102564103,4317.948717948719,4294.871794871796,4356.410256410257,1681.0,1685.0,432.901,406.521240234375,0.0,0.0,0.0,0.0
431301,10.0,0.0,487.0,4391.794871794872,4121.538461538462,4316.410256410257,4778.461538461539,3804.1025641025644,4215.8974358974365,4257.948717948719,4093.8461538461543,4376.410256410257,4058.9743589743593,4282.564102564103,4315.8974358974365,4292.820512820514,4352.307692307693,1681.0,1686.0,432.909,406.521240234375,0.0,0.0,0.0,0.0
431302,11.0,0.0,446.0,4402.051282051282,4124.102564102564,4329.2307692307695,4783.589743589744,3806.666666666667,4208.717948717949,4254.358974358975,4097.435897435898,4386.153846153847,4064.615384615385,4299.48717948718,4318.974358974359,4309.2307692307695,4372.307692307693,1681.0,1684.0,432.917,406.521240234375,0.0,0.0,0.0,0.0
431302,12.0,0.0,457.0,4410.769230769231,4129.74358974359,4337.435897435898,4789.2307692307695,3805.1282051282055,4205.641025641026,4251.282051282052,4084.615384615385,4385.128205128206,4066.1538461538466,4304.615384615385,4321.025641025642,4316.923076923077,4385.128205128206,1680.0,1687.0,432.924,406.521240234375,0.0,0.0,0.0,0.0
431302,13.0,0.0,174.0,4412.307692307693,4133.333333333334,4339.48717948718,4795.8974358974365,3808.205128205129,4206.666666666667,4252.820512820514,4088.717948717949,4385.128205128206,4064.615384615385,4305.128205128206,4324.102564102564,4317.435897435898,4383.589743589744,1681.0,1686.0,432.932,406.521240234375,0.0,0.0,0.0,0.0
431302,14.0,0.0,487.0,4412.307692307693,4133.846153846154,4338.461538461539,4798.974358974359,3814.8717948717954,4212.820512820514,4257.435897435898,4112.820512820514,4395.384615384616,4067.692307692308,4313.846153846154,4327.179487179487,4323.076923076924,4385.641025641026,1681.0,1687.0,432.94,406.521240234375,0.0,0.0,0.0,0.0
431302,15.0,0.0,446.0,4409.2307692307695,4132.820512820514,4333.846153846154,4794.871794871796,3815.8974358974365,4227.179487179487,4260.000000000001,4107.6923076923085,4390.256410256411,4067.1794871794878,4312.307692307693,4322.564102564103,4319.48717948718,4385.641025641026,1681.0,1687.0,432.948,406.521240234375,0.0,0.0,0.0,0.0
431302,16.0,0.0,0.0,4402.051282051282,4128.205128205129,4328.205128205129,4794.358974358975,3814.358974358975,4231.282051282052,4260.000000000001,4083.076923076924,4372.820512820514,4060.5128205128212,4295.384615384616,4316.923076923077,4305.641025641026,4374.358974358975,1681.0,1687.0,432.956,406.521240234375,0.0,0.0,0.0,0.0
431303,17.0,0.0,0.0,4404.102564102564,4124.102564102564,4328.717948717949,4796.923076923077,3812.820512820513,4217.435897435898,4258.461538461539,4092.820512820513,4380.000000000001,4060.5128205128212,4288.205128205129,4318.461538461539,4302.564102564103,4372.307692307693,1682.0,1686.0,432.964,406.521240234375,0.0,0.0,0.0,0.0
431303,18.0,0.0,0.0,4407.6923076923085,4124.615384615385,4328.717948717949,4789.2307692307695,3809.7435897435903,4211.282051282052,4256.410256410257,4110.769230769231,4394.358974358975,4067.1794871794878,4293.333333333334,4321.025641025642,4307.179487179487,4380.000000000001,1681.0,1686.0,432.971,406.521240234375,0.0,0.0,0.0,0.0
431303,19.0,0.0,0.0,4395.8974358974365,4123.076923076924,4318.461538461539,4778.461538461539,3810.7692307692314,4225.128205128206,4257.948717948719,4095.8974358974365,4381.538461538462,4064.1025641025644,4287.179487179487,4319.48717948718,4298.461538461539,4372.820512820514,1682.0,1687.0,432.979,406.521240234375,0.0,0.0,0.0,0.0
431304,20.0,0.0,0.0,4387.179487179487,4120.000000000001,4309.743589743591,4778.974358974359,3816.410256410257,4237.948717948719,4267.179487179487,4087.1794871794878,4372.820512820514,4054.8717948717954,4273.333333333334,4317.435897435898,4285.641025641026,4360.512820512821,1681.0,1685.0,432.987,406.521240234375,0.0,0.0,0.0,0.0
431304,21.0,0.0,0.0,4393.846153846154,4121.538461538462,4316.923076923077,4780.000000000001,3816.9230769230776,4231.282051282052,4272.307692307693,4106.153846153847,4388.717948717949,4057.9487179487182,4276.410256410257,4321.025641025642,4291.282051282052,4364.102564102564,1681.0,1686.0,432.995,406.521240234375,0.0,0.0,0.0,0.0
431304,22.0,0.0,0.0,4405.128205128206,4124.615384615385,4327.6923076923085,4783.589743589744,3813.8461538461543,4221.025641025642,4263.076923076924,4109.74358974359,4393.333333333334,4065.1282051282055,4291.794871794872,4324.615384615385,4304.615384615385,4374.871794871796,1682.0,1685.0,433.004,406.521240234375,0.0,0.0,0.0,0.0
431304,23.0,0.0,0.0,4408.717948717949,4124.102564102564,4328.717948717949,4792.307692307693,3813.333333333334,4221.025641025642,4259.48717948718,4095.8974358974365,4378.974358974359,4066.1538461538466,4295.8974358974365,4322.564102564103,4309.2307692307695,4377.948717948719,1680.0,1685.0,433.01,406.521240234375,0.0,0.0,0.0,0.0
431304,24.0,0.0,0.0,4405.641025641026,4128.205128205129,4327.6923076923085,4790.256410256411,3814.358974358975,4227.179487179487,4264.102564102564,4096.923076923077,4378.974358974359,4069.7435897435903,4294.358974358975,4322.051282051282,4311.794871794872,4378.461538461539,1682.0,1684.0,433.018,406.521240234375,0.0,0.0,0.0,0.0
431305,25.0,0.0,0.0,4404.102564102564,4129.74358974359,4326.153846153847,4784.615384615386,3814.8717948717954,4229.74358974359,4262.051282051282,4104.615384615385,4388.205128205129,4070.2564102564106,4292.307692307693,4322.051282051282,4310.256410256411,4375.8974358974365,1680.0,1684.0,433.027,406.521240234375,0.0,0.0,0.0,0.0
431305,26.0,0.0,0.0,4410.256410256411,4128.205128205129,4327.6923076923085,4791.282051282052,3814.358974358975,4225.641025641026,4262.564102564103,4110.769230769231,4393.333333333334,4067.1794871794878,4290.256410256411,4320.512820512821,4310.256410256411,4374.871794871796,1681.0,1684.0,433.034,406.521240234375,0.0,0.0,0.0,0.0
431305,27.0,0.0,0.0,4420.000000000001,4133.333333333334,4338.974358974359,4802.051282051282,3817.435897435898,4225.128205128206,4268.205128205129,4113.333333333334,4395.8974358974365,4073.8461538461543,4302.051282051282,4322.564102564103,4322.564102564103,4387.179487179487,1681.0,1684.0,433.043,406.521240234375,0.0,0.0,0.0,0.0
431316,28.0,0.0,0.0,4424.102564102564,4139.48717948718,4348.717948717949,4811.282051282052,3819.48717948718,4237.435897435898,4268.717948717949,4102.051282051282,4393.333333333334,4081.0256410256416,4312.307692307693,4327.179487179487,4333.846153846154,4397.435897435898,1681.0,1685.0,433.05,406.7714538574219,0.0,0.0,0.0,0.0
431316,29.0,0.0,0.0,4418.974358974359,4138.974358974359,4344.615384615385,4811.794871794872,3817.9487179487182,4241.025641025642,4264.615384615385,4101.538461538462,4394.358974358975,4078.461538461539,4304.615384615385,4326.666666666667,4328.205128205129,4391.794871794872,1680.0,1684.0,433.058,406.7714538574219,0.0,0.0,0.0,0.0
431317,30.0,0.0,0.0,4410.256410256411,4136.923076923077,4337.948717948719,4801.025641025642,3816.410256410257,4225.641025641026,4266.666666666667,4115.8974358974365,4400.512820512821,4076.410256410257,4296.410256410257,4322.564102564103,4318.974358974359,4384.102564102564,1681.0,1684.0,433.066,406.7714538574219,0.0,0.0,0.0,0.0
431317,31.0,0.0,0.0,4406.666666666667,4134.358974358975,4335.8974358974365,4795.384615384616,3816.410256410257,4228.717948717949,4269.74358974359,4112.820512820514,4397.948717948719,4077.435897435898,4294.871794871796,4322.564102564103,4317.948717948719,4382.051282051282,1681.0,1684.0,433.074,406.7714538574219,0.0,0.0,0.0,0.0
431668,32.0,0.0,0.0,4409.2307692307695,4133.846153846154,4337.435897435898,4800.000000000001,3815.8974358974365,4240.000000000001,4269.2307692307695,4103.589743589744,4394.871794871796,4078.9743589743593,4293.846153846154,4325.128205128206,4322.564102564103,4383.076923076924,1680.0,1684.0,433.081,406.802734375,0.0,0.0,0.0,0.0
431668,33.0,0.0,0.0,4409.2307692307695,4134.358974358975,4340.000000000001,4800.000000000001,3816.9230769230776,4231.794871794872,4267.6923076923085,4122.051282051282,4403.589743589744,4077.9487179487187,4294.358974358975,4324.615384615385,4321.538461538462,4386.666666666667,1682.0,1683.0,433.09,406.802734375,0.0,0.0,0.0,0.0
431668,34.0,0.0,0.0,4403.076923076924,4130.256410256411,4335.384615384616,4795.8974358974365,3816.9230769230776,4229.2307692307695,4261.538461538462,4122.564102564103,4396.410256410257,4069.23076923077,4288.717948717949,4319.48717948718,4311.794871794872,4383.589743589744,1680.0,1684.0,433.097,406.802734375,0.0,0.0,0.0,0.0
431668,35.0,0.0,0.0,4398.461538461539,4126.666666666667,4323.589743589744,4793.846153846154,3810.2564102564106,4232.307692307693,4252.820512820514,4088.717948717949,4375.8974358974365,4061.0256410256416,4278.461538461539,4314.871794871796,4304.615384615385,4371.282051282052,1682.0,1683.0,433.104,406.802734375,0.0,0.0,0.0,0.0
431669,36.0,0.0,0.0,4400.512820512821,4126.666666666667,4320.512820512821,4793.333333333334,3803.589743589744,4221.538461538462,4249.74358974359,4082.564102564103,4376.923076923077,4062.0512820512827,4281.025641025642,4316.410256410257,4309.2307692307695,4372.307692307693,1681.0,1683.0,433.112,406.802734375,0.0,0.0,0.0,0.0
431669,37.0,0.0,0.0,4400.000000000001,4126.666666666667,4325.128205128206,4794.358974358975,3803.076923076924,4214.358974358975,4252.307692307693,4096.410256410257,4383.076923076924,4064.615384615385,4285.641025641026,4318.974358974359,4312.820512820514,4377.948717948719,1682.0,1683.0,433.12,406.802734375,0.0,0.0,0.0,0.0
431669,38.0,0.0,0.0,4401.538461538462,4129.74358974359,4325.641025641026,4793.846153846154,3806.1538461538466,4223.589743589744,4253.333333333334,4094.8717948717954,4379.48717948718,4064.615384615385,4282.051282051282,4320.000000000001,4309.2307692307695,4372.307692307693,1682.0,1683.0,433.128,406.802734375,0.0,0.0,0.0,0.0
431669,39.0,0.0,0.0,4411.282051282052,4136.410256410257,4331.282051282052,4796.923076923077,3810.7692307692314,4227.179487179487,4257.948717948719,4101.025641025642,4392.307692307693,4072.820512820513,4290.256410256411,4325.128205128206,4315.384615384616,4376.923076923077,1682.0,1684.0,433.136,406.802734375,0.0,0.0,0.0,0.0
431669,40.0,0.0,0.0,4416.923076923077,4140.512820512821,4338.974358974359,4801.025641025642,3813.333333333334,4224.615384615385,4263.076923076924,4117.435897435898,4408.205128205129,4077.435897435898,4298.974358974359,4327.179487179487,4324.102564102564,4387.6923076923085,1683.0,1685.0,433.144,406.802734375,0.0,0.0,0.0,0.0
431669,41.0,0.0,0.0,4408.717948717949,4133.333333333334,4334.358974358975,4798.974358974359,3814.8717948717954,4225.641025641026,4264.102564102564,4109.2307692307695,4399.48717948718,4068.717948717949,4289.2307692307695,4320.000000000001,4316.410256410257,4374.871794871796,1683.0,1687.0,433.151,406.802734375,0.0,0.0,0.0,0.0
431669,42.0,0.0,0.0,4400.000000000001,4128.205128205129,4328.205128205129,4795.384615384616,3811.2820512820517,4228.205128205129,4261.538461538462,4092.307692307693,4387.179487179487,4062.0512820512827,4277.948717948719,4316.410256410257,4306.153846153847,4355.384615384616,1683.0,1686.0,433.16,406.802734375,0.0,0.0,0.0,0.0
431669,43.0,0.0,0.0,4398.461538461539,4131.282051282052,4328.717948717949,4795.384615384616,3809.2307692307695,4228.205128205129,4261.025641025642,4098.974358974359,4389.2307692307695,4064.1025641025644,4280.000000000001,4319.48717948718,4309.2307692307695,4354.871794871796,1683.0,1686.0,433.167,406.802734375,0.0,0.0,0.0,0.0
431670,44.0,0.0,0.0,4395.384615384616,4130.256410256411,4325.641025641026,4795.384615384616,3810.2564102564106,4225.128205128206,4260.000000000001,4105.128205128206,4390.769230769231,4063.589743589744,4285.128205128206,4319.48717948718,4312.307692307693,4353.333333333334,1683.0,1686.0,433.176,406.802734375,0.0,0.0,0.0,0.0
431670,45.0,0.0,0.0,4395.384615384616,4126.666666666667,4318.974358974359,4792.820512820514,3808.717948717949,4225.641025641026,4256.410256410257,4095.8974358974365,4383.589743589744,4060.0000000000005,4281.025641025642,4317.948717948719,4306.666666666667,4341.538461538462,1682.0,1685.0,433.184,406.802734375,0.0,0.0,0.0,0.0
431670,46.0,0.0,0.0,4401.538461538462,4130.769230769231,4322.051282051282,4793.333333333334,3806.1538461538466,4224.102564102564,4255.384615384616,4095.8974358974365,4382.564102564103,4063.589743589744,4279.48717948718,4320.512820512821,4309.743589743591,4342.564102564103,1681.0,1684.0,433.191,406.802734375,0.0,0.0,0.0,0.0
431670,47.0,0.0,0.0,4402.051282051282,4132.820512820514,4329.743589743591,4795.8974358974365,3809.7435897435903,4221.538461538462,4261.025641025642,4101.538461538462,4388.717948717949,4067.1794871794878,4284.102564102564,4322.051282051282,4317.948717948719,4347.6923076923085,1681.0,1685.0,433.199,406.802734375,0.0,0.0,0.0,0.0
431671,48.0,0.0,0.0,4396.923076923077,4131.282051282052,4330.769230769231,4795.384615384616,3816.410256410257,4222.051282051282,4266.666666666667,4104.615384615385,4389.743589743591,4065.1282051282055,4277.948717948719,4318.974358974359,4317.948717948719,4342.564102564103,1680.0,1684.0,433.207,406.802734375,0.0,0.0,0.0,0.0
431671,49.0,0.0,0.0,4397.948717948719,4136.410256410257,4329.743589743591,4795.384615384616,3813.333333333334,4225.128205128206,4260.512820512821,4114.871794871796,4390.769230769231,4065.6410256410263,4268.205128205129,4320.000000000001,4316.410256410257,4339.48717948718,1681.0,1685.0,433.214,406.802734375,0.0,0.0,0.0,0.0
431671,50.0,0.0,0.0,4400.512820512821,4140.000000000001,4333.333333333334,4796.923076923077,3805.1282051282055,4227.6923076923085,4255.384615384616,4117.948717948719,4391.794871794872,4067.692307692308,4272.307692307693,4321.538461538462,4316.410256410257,4341.538461538462,1681.0,1685.0,433.223,406.802734375,0.0,0.0,0.0,0.0
431672,51.0,0.0,0.0,4396.923076923077,4132.820512820514,4332.820512820514,4795.384615384616,3805.1282051282055,4233.333333333334,4256.923076923077,4100.000000000001,4383.589743589744,4065.1282051282055,4276.923076923077,4318.974358974359,4311.282051282052,4336.410256410257,1680.0,1686.0,433.23,406.802734375,0.0,0.0,0.0,0.0
431672,52.0,0.0,0.0,4398.461538461539,4129.74358974359,4330.256410256411,4793.846153846154,3810.7692307692314,4238.974358974359,4255.8974358974365,4090.7692307692314,4382.051282051282,4063.076923076924,4269.74358974359,4317.948717948719,4308.205128205129,4333.846153846154,1682.0,1684.0,433.237,406.802734375,0.0,0.0,0.0,0.0
431672,53.0,0.0,0.0,4406.153846153847,4134.871794871796,4333.333333333334,4797.435897435898,3810.7692307692314,4234.871794871796,4255.8974358974365,4103.589743589744,4393.846153846154,4066.666666666667,4268.717948717949,4316.923076923077,4313.846153846154,4339.48717948718,1679.0,1685.0,433.245,406.802734375,0.0,0.0,0.0,0.0
431672,54.0,0.0,0.0,4405.128205128206,4136.410256410257,4333.846153846154,4800.000000000001,3804.615384615385,4225.128205128206,4257.948717948719,4105.128205128206,4394.871794871796,4066.1538461538466,4272.820512820514,4315.384615384616,4315.384615384616,4338.461538461539,1681.0,1684.0,433.253,406.802734375,0.0,0.0,0.0,0.0
431672,55.0,0.0,0.0,4398.974358974359,4132.307692307693,4328.205128205129,4796.923076923077,3802.564102564103,4223.076923076924,4253.846153846154,4093.8461538461543,4387.6923076923085,4063.589743589744,4268.205128205129,4313.846153846154,4308.205128205129,4332.820512820514,1680.0,1683.0,433.261,406.802734375,0.0,0.0,0.0,0.0
431673,56.0,0.0,0.0,4397.435897435898,4129.74358974359,4326.666666666667,4793.846153846154,3802.564102564103,4229.74358974359,4247.6923076923085,4087.1794871794878,4386.153846153847,4061.538461538462,4265.128205128206,4314.871794871796,4305.128205128206,4333.846153846154,1681.0,1683.0,433.27,406.802734375,0.0,0.0,0.0,0.0
431673,57.0,0.0,0.0,4399.48717948718,4131.282051282052,4329.2307692307695,4795.8974358974365,3801.538461538462,4230.256410256411,4249.2307692307695,4080.0000000000005,4381.538461538462,4061.0256410256416,4268.717948717949,4317.948717948719,4311.794871794872,4336.923076923077,1681.0,1682.0,433.277,406.802734375,0.0,0.0,0.0,0.0
431673,58.0,0.0,0.0,4399.48717948718,4132.820512820514,4327.179487179487,4796.923076923077,3801.0256410256416,4221.538461538462,4252.307692307693,4086.666666666667,4381.538461538462,4061.0256410256416,4271.794871794872,4319.48717948718,4313.333333333334,4337.948717948719,1681.0,1682.0,433.284,406.802734375,0.0,0.0,0.0,0.0
431673,59.0,0.0,0.0,4398.461538461539,4131.282051282052,4323.589743589744,4794.358974358975,3799.48717948718,4218.974358974359,4250.769230769231,4105.641025641026,4389.2307692307695,4057.435897435898,4265.641025641026,4320.000000000001,4307.6923076923085,4339.48717948718,1681.0,1683.0,433.293,406.802734375,0.0,0.0,0.0,0.0
431674,60.0,0.0,0.0,4398.974358974359,4131.282051282052,4324.615384615385,4793.846153846154,3800.0000000000005,4225.128205128206,4248.717948717949,4096.923076923077,4384.615384615385,4055.3846153846157,4259.48717948718,4320.000000000001,4305.128205128206,4340.000000000001,1682.0,1685.0,433.3,406.802734375,0.0,0.0,0.0,0.0
431674,61.0,0.0,0.0,4401.538461538462,4133.846153846154,4328.717948717949,4796.410256410257,3802.0512820512827,4227.179487179487,4252.307692307693,4067.692307692308,4372.820512820514,4057.9487179487182,4262.564102564103,4317.435897435898,4306.666666666667,4338.974358974359,1682.0,1684.0,433.309,406.802734375,0.0,0.0,0.0,0.0
431674,62.0,0.0,0.0,4402.564102564103,4134.871794871796,4331.282051282052,4797.435897435898,3800.512820512821,4220.512820512821,4255.384615384616,4071.7948717948725,4374.871794871796,4059.48717948718,4271.282051282052,4319.48717948718,4307.179487179487,4345.128205128206,1682.0,1685.0,433.315,406.802734375,0.0,0.0,0.0,0.0
431674,63.0,0.0,0.0,4405.641025641026,4132.307692307693,4335.384615384616,4795.8974358974365,3800.0000000000005,4217.435897435898,4253.846153846154,4100.000000000001,4385.641025641026,4060.5128205128212,4274.871794871796,4324.615384615385,4308.205128205129,4355.384615384616,1683.0,1684.0,433.324,406.802734375,0.0,0.0,0.0,0.0
431674,64.0,0.0,477.0,4410.769230769231,4134.871794871796,4340.512820512821,4796.923076923077,3803.589743589744,4226.666666666667,4258.461538461539,4104.615384615385,4393.846153846154,4066.1538461538466,4275.8974358974365,4321.538461538462,4313.846153846154,4356.923076923077,1682.0,1685.0,433.331,406.802734375,0.0,0.0,0.0,0.0
431674,65.0,0.0,334.0,4411.794871794872,4138.461538461539,4338.974358974359,4798.974358974359,3804.615384615385,4233.333333333334,4267.179487179487,4107.6923076923085,4400.512820512821,4069.7435897435903,4277.435897435898,4317.948717948719,4316.923076923077,4353.333333333334,1683.0,1685.0,433.34,406.802734375,0.0,0.0,0.0,0.0
431674,66.0,0.0,450.0,4407.179487179487,4135.8974358974365,4331.794871794872,4798.461538461539,3804.1025641025644,4228.717948717949,4265.128205128206,4121.538461538462,4400.512820512821,4066.1538461538466,4273.846153846154,4319.48717948718,4311.794871794872,4351.794871794872,1682.0,1684.0,433.347,406.802734375,0.0,0.0,0.0,0.0
431675,67.0,0.0,318.0,4406.666666666667,4136.410256410257,4327.6923076923085,4796.410256410257,3805.1282051282055,4231.282051282052,4261.025641025642,4108.717948717949,4390.769230769231,4064.615384615385,4275.384615384616,4321.025641025642,4310.769230769231,4352.307692307693,1683.0,1685.0,433.355,406.802734375,0.0,0.0,0.0,0.0
431675,68.0,0.0,460.0,4410.256410256411,4137.948717948719,4331.794871794872,4801.025641025642,3804.1025641025644,4235.384615384616,4260.000000000001,4086.666666666667,4386.153846153847,4066.1538461538466,4286.153846153847,4319.48717948718,4317.435897435898,4357.948717948719,1683.0,1683.0,433.362,406.802734375,0.0,0.0,0.0,0.0
431675,69.0,0.0,547.0,4410.256410256411,4137.435897435898,4331.282051282052,4804.615384615386,3801.0256410256416,4232.307692307693,4262.051282051282,4092.820512820513,4392.307692307693,4068.205128205129,4287.179487179487,4318.461538461539,4319.48717948718,4361.025641025642,1682.0,1685.0,433.37,406.802734375,0.0,0.0,0.0,0.0
431675,70.0,0.0,532.0,4411.282051282052,4138.974358974359,4331.282051282052,4802.564102564103,3802.0512820512827,4227.179487179487,4266.153846153847,4106.153846153847,4400.000000000001,4071.2820512820517,4280.512820512821,4322.051282051282,4315.8974358974365,4360.000000000001,1682.0,1684.0,433.378,406.802734375,0.0,0.0,0.0,0.0
431675,71.0,0.0,478.0,4412.820512820514,4140.512820512821,4336.410256410257,4805.128205128206,3803.076923076924,4223.589743589744,4265.641025641026,4104.102564102564,4400.512820512821,4072.820512820513,4284.102564102564,4323.076923076924,4320.512820512821,4362.564102564103,1682.0,1684.0,433.386,406.802734375,0.0,0.0,0.0,0.0
431676,72.0,0.0,415.0,4411.282051282052,4138.974358974359,4336.410256410257,4806.153846153847,3801.0256410256416,4231.282051282052,4264.102564102564,4103.076923076924,4394.871794871796,4068.205128205129,4291.282051282052,4320.000000000001,4322.564102564103,4365.641025641026,1682.0,1684.0,433.394,406.802734375,0.0,0.0,0.0,0.0
431676,73.0,0.0,409.0,4408.717948717949,4135.384615384616,4330.256410256411,4799.48717948718,3801.538461538462,4236.410256410257,4268.205128205129,4107.6923076923085,4394.358974358975,4066.1538461538466,4288.717948717949,4317.435897435898,4314.358974358975,4363.589743589744,1681.0,1685.0,433.402,406.802734375,0.0,0.0,0.0,0.0
431676,74.0,0.0,487.0,4402.564102564103,4133.846153846154,4327.6923076923085,4794.358974358975,3802.0512820512827,4219.48717948718,4262.564102564103,4104.102564102564,4396.410256410257,4067.692307692308,4284.102564102564,4317.435897435898,4311.282051282052,4362.051282051282,1682.0,1684.0,433.409,406.802734375,0.0,0.0,0.0,0.0
431676,75.0,0.0,446.0,4403.589743589744,4136.410256410257,4329.743589743591,4796.410256410257,3801.0256410256416,4213.333333333334,4250.769230769231,4088.205128205129,4386.666666666667,4067.692307692308,4285.128205128206,4317.435897435898,4315.8974358974365,4364.102564102564,1680.0,1685.0,433.417,406.802734375,0.0,0.0,0.0,0.0
431793,76.0,0.0,457.0,4409.743589743591,4137.948717948719,4329.743589743591,4798.974358974359,3800.512820512821,4231.794871794872,4254.871794871796,4074.8717948717954,4373.846153846154,4062.0512820512827,4282.051282051282,4318.461538461539,4313.846153846154,4362.564102564103,1682.0,1685.0,433.426,407.1467590332031,0.0,0.0,0.0,0.0
431793,77.0,0.0,174.0,4405.641025641026,4134.871794871796,4327.179487179487,4798.974358974359,3801.0256410256416,4234.358974358975,4261.025641025642,4082.0512820512827,4381.538461538462,4061.0256410256416,4280.512820512821,4321.025641025642,4312.307692307693,4360.512820512821,1681.0,1684.0,433.433,407.1467590332031,0.0,0.0,0.0,0.0
431793,78.0,0.0,487.0,4399.48717948718,4132.307692307693,4325.641025641026,4795.8974358974365,3801.538461538462,4217.948717948719,4251.282051282052,4095.8974358974365,4394.871794871796,4065.6410256410263,4284.615384615385,4318.461538461539,4317.435897435898,4357.435897435898,1681.0,1685.0,433.442,407.1467590332031,0.0,0.0,0.0,0.0
431793,79.0,0.0,446.0,4406.153846153847,4133.846153846154,4328.205128205129,4793.333333333334,3801.538461538462,4211.282051282052,4244.615384615385,4096.923076923077,4394.358974358975,4066.1538461538466,4288.205128205129,4315.8974358974365,4322.051282051282,4356.923076923077,1681.0,1684.0,433.448,407.1467590332031,0.0,0.0,0.0,0.0
431794,80.0,0.0,457.0,4410.256410256411,4138.974358974359,4332.307692307693,4798.974358974359,3798.461538461539,4212.820512820514,4251.794871794872,4088.717948717949,4389.2307692307695,4065.6410256410263,4289.74358974359,4318.974358974359,4324.102564102564,4362.564102564103,1681.0,1685.0,433.457,407.1467590332031,0.0,0.0,0.0,0.0
431794,81.0,0.0,174.0,4396.923076923077,4134.871794871796,4323.076923076924,4794.871794871796,3792.307692307693,4215.8974358974365,4249.2307692307695,4082.0512820512827,4383.076923076924,4062.0512820512827,4280.000000000001,4314.871794871796,4312.820512820514,4354.358974358975,1681.0,1684.0,433.465,407.1467590332031,0.0,0.0,0.0,0.0
431794,82.0,0.0,487.0,4391.282051282052,4125.641025641026,4314.871794871796,4784.102564102564,3791.2820512820517,4219.48717948718,4242.564102564103,4093.333333333334,4385.128205128206,4057.9487179487182,4269.2307692307695,4308.717948717949,4299.48717948718,4341.025641025642,1680.0,1684.0,433.472,407.1467590332031,0.0,0.0,0.0,0.0
431794,83.0,0.0,446.0,4396.923076923077,4129.2307692307695,4314.358974358975,4787.179487179488,3792.307692307693,4217.435897435898,4248.205128205129,4091.7948717948725,4380.512820512821,4056.9230769230776,4264.102564102564,4309.743589743591,4298.974358974359,4341.025641025642,1681.0,1684.0,433.48,407.1467590332031,0.0,0.0,0.0,0.0
431794,84.0,0.0,457.0,4395.384615384616,4135.8974358974365,4311.794871794872,4797.948717948719,3787.692307692308,4211.282051282052,4249.2307692307695,4065.6410256410263,4362.564102564103,4053.333333333334,4260.512820512821,4312.820512820514,4297.948717948719,4342.564102564103,1681.0,1684.0,433.487,407.1467590332031,0.0,0.0,0.0,0.0
431794,85.0,0.0,174.0,4397.435897435898,4130.769230769231,4313.846153846154,4794.358974358975,3783.589743589744,4210.769230769231,4238.974358974359,4069.23076923077,4366.666666666667,4053.8461538461543,4261.538461538462,4316.410256410257,4294.871794871796,4344.615384615385,1681.0,1683.0,433.495,407.1467590332031,0.0,0.0,0.0,0.0
431795,86.0,0.0,487.0,4404.102564102564,4128.717948717949,4322.051282051282,4788.717948717949,3785.6410256410263,4218.974358974359,4240.000000000001,4093.8461538461543,4385.641025641026,4058.9743589743593,4264.615384615385,4320.512820512821,4304.102564102564,4351.282051282052,1681.0,1683.0,433.504,407.1467590332031,0.0,0.0,0.0,0.0
431796,87.0,0.0,446.0,4403.589743589744,4130.769230769231,4321.538461538462,4792.307692307693,3788.205128205129,4218.461538461539,4248.205128205129,4090.7692307692314,4382.564102564103,4057.435897435898,4265.128205128206,4318.461538461539,4309.743589743591,4350.769230769231,1682.0,1682.0,433.511,407.1467590332031,0.0,0.0,0.0,0.0
431796,88.0,0.0,457.0,4397.435897435898,4128.717948717949,4312.820512820514,4789.743589743591,3786.1538461538466,4208.205128205129,4247.6923076923085,4081.538461538462,4373.333333333334,4054.358974358975,4265.128205128206,4313.333333333334,4300.000000000001,4343.076923076924,1682.0,1681.0,433.519,407.1467590332031,0.0,0.0,0.0,0.0
431797,89.0,0.0,174.0,4396.410256410257,4127.6923076923085,4312.307692307693,4782.564102564103,3785.1282051282055,4207.6923076923085,4245.641025641026,4097.948717948719,4385.128205128206,4059.48717948718,4264.102564102564,4313.333333333334,4300.512820512821,4343.076923076924,1682.0,1683.0,433.527,407.1467590332031,0.0,0.0,0.0,0.0
431797,90.0,0.0,487.0,4393.846153846154,4126.666666666667,4315.384615384616,4779.48717948718,3785.1282051282055,4206.666666666667,4244.102564102564,4104.102564102564,4390.256410256411,4057.9487179487182,4256.923076923077,4314.871794871796,4306.666666666667,4345.641025641026,1683.0,1682.0,433.534,407.1467590332031,0.0,0.0,0.0,0.0
431797,91.0,0.0,446.0,4391.282051282052,4128.205128205129,4316.410256410257,4783.076923076924,3784.615384615385,4204.102564102564,4240.512820512821,4079.48717948718,4372.307692307693,4048.205128205129,4255.384615384616,4314.871794871796,4300.512820512821,4345.128205128206,1682.0,1683.0,433.543,407.1467590332031,0.0,0.0,0.0,0.0
431818,92.0,0.0,457.0,4395.384615384616,4131.282051282052,4316.410256410257,4788.205128205129,3783.589743589744,4210.769230769231,4235.384615384616,4052.307692307693,4356.410256410257,4046.1538461538466,4254.871794871796,4313.846153846154,4294.871794871796,4342.051282051282,1683.0,1683.0,433.55,407.2718811035156,0.0,0.0,0.0,0.0
431818,93.0,0.0,174.0,4400.000000000001,4128.717948717949,4313.333333333334,4786.153846153847,3783.076923076924,4210.256410256411,4234.871794871796,4056.410256410257,4358.461538461539,4049.7435897435903,4249.2307692307695,4311.282051282052,4296.923076923077,4338.461538461539,1683.0,1684.0,433.558,407.2718811035156,0.0,0.0,0.0,0.0
431819,94.0,0.0,487.0,4402.051282051282,4130.256410256411,4315.384615384616,4788.717948717949,3784.615384615385,4202.051282051282,4237.948717948719,4081.538461538462,4374.871794871796,4053.333333333334,4254.358974358975,4311.794871794872,4303.589743589744,4344.615384615385,1683.0,1685.0,433.566,407.2718811035156,0.0,0.0,0.0,0.0
431819,95.0,0.0,446.0,4401.025641025642,4133.846153846154,4317.435897435898,4792.307692307693,3785.6410256410263,4205.641025641026,4238.461538461539,4085.6410256410263,4376.923076923077,4055.3846153846157,4261.538461538462,4314.871794871796,4304.102564102564,4351.794871794872,1682.0,1685.0,433.573,407.2718811035156,0.0,0.0,0.0,0.0
431915,96.0,0.0,457.0,4400.512820512821,4129.2307692307695,4313.333333333334,4790.256410256411,3786.666666666667,4210.256410256411,4245.128205128206,4085.1282051282055,4372.307692307693,4057.9487179487182,4258.974358974359,4316.923076923077,4302.564102564103,4352.820512820514,1683.0,1685.0,433.581,407.30316162109375,0.0,0.0,0.0,0.0
431915,97.0,0.0,174.0,4403.589743589744,4128.205128205129,4313.846153846154,4790.256410256411,3787.1794871794878,4209.74358974359,4256.923076923077,4101.538461538462,4384.102564102564,4062.564102564103,4263.076923076924,4319.48717948718,4308.717948717949,4354.358974358975,1682.0,1684.0,433.59,407.30316162109375,0.0,0.0,0.0,0.0
431916,98.0,0.0,487.0,4403.076923076924,4132.820512820514,4317.435897435898,4793.333333333334,3787.1794871794878,4217.435897435898,4257.435897435898,4103.076923076924,4390.769230769231,4063.076923076924,4270.769230769231,4321.025641025642,4312.820512820514,4355.384615384616,1682.0,1684.0,433.597,407.30316162109375,0.0,0.0,0.0,0.0
431916,99.0,0.0,446.0,4397.435897435898,4131.794871794872,4311.794871794872,4791.282051282052,3787.1794871794878,4224.615384615385,4250.256410256411,4084.1025641025644,4377.948717948719,4058.461538461539,4264.615384615385,4316.410256410257,4305.128205128206,4350.769230769231,1682.0,1685.0,433.606,407.30316162109375,0.0,0.0,0.0,0.0
431916,100.0,0.0,457.0,4396.923076923077,4134.358974358975,4309.2307692307695,4790.256410256411,3787.1794871794878,4221.538461538462,4251.794871794872,4075.8974358974365,4371.794871794872,4056.9230769230776,4256.410256410257,4313.846153846154,4299.48717948718,4349.743589743591,1681.0,1684.0,433.614,407.30316162109375,0.0,0.0,0.0,0.0
431917,101.0,0.0,174.0,4408.205128205129,4140.512820512821,4320.512820512821,4799.48717948718,3786.666666666667,4218.461538461539,4257.435897435898,4078.9743589743593,4382.051282051282,4060.0000000000005,4261.025641025642,4318.461538461539,4306.153846153847,4356.410256410257,1681.0,1685.0,433.62,407.30316162109375,0.0,0.0,0.0,0.0
431917,102.0,0.0,487.0,4407.6923076923085,4134.358974358975,4320.512820512821,4795.384615384616,3786.1538461538466,4217.948717948719,4254.358974358975,4075.3846153846157,4375.384615384616,4054.8717948717954,4261.025641025642,4316.923076923077,4300.512820512821,4354.358974358975,1681.0,1685.0,433.628,407.30316162109375,0.0,0.0,0.0,0.0
431917,103.0,0.0,446.0,4393.846153846154,4124.615384615385,4310.256410256411,4782.564102564103,3784.1025641025644,4214.871794871796,4251.282051282052,4079.48717948718,4366.153846153847,4047.692307692308,4251.794871794872,4311.282051282052,4288.717948717949,4348.717948717949,1680.0,1685.0,433.636,407.30316162109375,0.0,0.0,0.0,0.0
431917,104.0,0.0,457.0,4394.358974358975,4125.128205128206,4310.256410256411,4781.025641025642,3782.564102564103,4207.179487179487,4252.307692307693,4094.8717948717954,4380.512820512821,4050.7692307692314,4250.256410256411,4314.358974358975,4292.820512820514,4352.307692307693,1681.0,1685.0,433.645,407.30316162109375,0.0,0.0,0.0,0.0
431917,105.0,0.0,174.0,4401.025641025642,4127.6923076923085,4312.820512820514,4784.102564102564,3783.076923076924,4203.076923076924,4247.6923076923085,4087.692307692308,4384.102564102564,4053.333333333334,4253.846153846154,4316.410256410257,4298.974358974359,4352.820512820514,1680.0,1685.0,433.653,407.30316162109375,0.0,0.0,0.0,0.0
431918,106.0,0.0,487.0,4394.358974358975,4126.666666666667,4306.153846153847,4783.076923076924,3780.512820512821,4207.6923076923085,4240.000000000001,4058.461538461539,4361.538461538462,4046.666666666667,4249.74358974359,4312.307692307693,4294.358974358975,4346.153846153847,1681.0,1685.0,433.66,407.30316162109375,0.0,0.0,0.0,0.0
431918,107.0,0.0,446.0,4395.8974358974365,4130.769230769231,4304.102564102564,4785.641025641026,3779.48717948718,4212.820512820514,4240.000000000001,4049.7435897435903,4351.794871794872,4046.666666666667,4249.74358974359,4312.307692307693,4295.384615384616,4348.717948717949,1680.0,1685.0,433.667,407.30316162109375,0.0,0.0,0.0,0.0
432036,108.0,0.0,457.0,4408.717948717949,4136.923076923077,4313.333333333334,4795.384615384616,3779.48717948718,4210.256410256411,4240.000000000001,4071.2820512820517,4369.2307692307695,4058.461538461539,4261.538461538462,4318.974358974359,4308.717948717949,4357.948717948719,1681.0,1686.0,433.676,407.39697265625,0.0,0.0,0.0,0.0
432036,109.0,0.0,174.0,4408.717948717949,4137.435897435898,4314.358974358975,4798.974358974359,3778.9743589743593,4210.769230769231,4238.974358974359,4090.2564102564106,4385.128205128206,4063.589743589744,4269.74358974359,4318.461538461539,4311.282051282052,4356.923076923077,1682.0,1685.0,433.683,407.39697265625,0.0,0.0,0.0,0.0
432036,110.0,0.0,487.0,4400.000000000001,4132.820512820514,4307.6923076923085,4792.820512820514,3781.538461538462,4221.538461538462,4247.6923076923085,4092.307692307693,4386.153846153847,4060.0000000000005,4265.128205128206,4315.8974358974365,4303.076923076924,4352.820512820514,1681.0,1687.0,433.692,407.39697265625,0.0,0.0,0.0,0.0
432036,111.0,0.0,446.0,4395.8974358974365,4130.256410256411,4305.641025641026,4785.641025641026,3785.1282051282055,4223.076923076924,4253.846153846154,4080.0000000000005,4374.358974358975,4056.410256410257,4261.538461538462,4316.923076923077,4298.974358974359,4351.282051282052,1683.0,1687.0,433.699,407.39697265625,0.0,0.0,0.0,0.0
432037,112.0,0.0,457.0,4395.384615384616,4132.307692307693,4308.205128205129,4785.641025641026,3784.615384615385,4212.820512820514,4246.153846153847,4068.717948717949,4365.641025641026,4053.333333333334,4265.128205128206,4315.384615384616,4300.000000000001,4347.179487179487,1682.0,1686.0,433.707,407.39697265625,0.0,0.0,0.0,0.0
432037,113.0,0.0,174.0,4398.974358974359,4132.820512820514,4310.769230769231,4789.743589743591,3782.564102564103,4213.846153846154,4249.2307692307695,4084.615384615385,4377.948717948719,4056.9230769230776,4272.307692307693,4314.871794871796,4302.564102564103,4350.769230769231,1682.0,1686.0,433.716,407.39697265625,0.0,0.0,0.0,0.0
432037,114.0,0.0,487.0,4405.128205128206,4131.282051282052,4314.871794871796,4791.282051282052,3783.589743589744,4220.000000000001,4262.564102564103,4105.641025641026,4390.256410256411,4063.076923076924,4275.8974358974365,4316.410256410257,4304.102564102564,4357.435897435898,1682.0,1686.0,433.722,407.39697265625,0.0,0.0,0.0,0.0
432037,115.0,0.0,446.0,4406.153846153847,4132.820512820514,4316.923076923077,4793.333333333334,3784.615384615385,4213.333333333334,4260.000000000001,4094.8717948717954,4377.435897435898,4058.9743589743593,4270.769230769231,4313.333333333334,4303.076923076924,4355.384615384616,1682.0,1685.0,433.73,407.39697265625,0.0,0.0,0.0,0.0
432037,116.0,0.0,457.0,4401.025641025642,4134.358974358975,4314.871794871796,4797.435897435898,3783.076923076924,4207.6923076923085,4248.717948717949,4071.2820512820517,4361.025641025642,4050.2564102564106,4263.589743589744,4312.307692307693,4299.48717948718,4353.333333333334,1682.0,1685.0,433.738,407.39697265625,0.0,0.0,0.0,0.0
432037,117.0,0.0,174.0,4400.000000000001,4132.307692307693,4312.820512820514,4796.410256410257,3780.512820512821,4216.410256410257,4244.615384615385,4068.717948717949,4366.666666666667,4052.307692307693,4260.512820512821,4315.8974358974365,4300.000000000001,4355.384615384616,1682.0,1684.0,433.746,407.39697265625,0.0,0.0,0.0,0.0
432038,118.0,0.0,487.0,4406.666666666667,4136.410256410257,4312.307692307693,4794.871794871796,3782.0512820512827,4221.538461538462,4250.256410256411,4090.7692307692314,4383.076923076924,4063.076923076924,4266.153846153847,4318.974358974359,4307.179487179487,4356.923076923077,1682.0,1683.0,433.753,407.39697265625,0.0,0.0,0.0,0.0
432038,119.0,0.0,446.0,4408.717948717949,4140.512820512821,4313.846153846154,4799.48717948718,3783.076923076924,4217.948717948719,4253.846153846154,4103.076923076924,4382.564102564103,4062.564102564103,4271.282051282052,4318.974358974359,4310.769230769231,4356.923076923077,1682.0,1685.0,433.761,407.39697265625,0.0,0.0,0.0,0.0
432038,120.0,0.0,457.0,4400.000000000001,4131.794871794872,4312.307692307693,4794.358974358975,3781.538461538462,4221.025641025642,4245.128205128206,4082.564102564103,4363.076923076924,4049.23076923077,4254.358974358975,4312.307692307693,4296.410256410257,4347.179487179487,1683.0,1683.0,433.769,407.39697265625,0.0,0.0,0.0,0.0
432038,121.0,0.0,174.0,4392.820512820514,4126.666666666667,4303.589743589744,4781.538461538462,3781.538461538462,4229.74358974359,4239.48717948718,4066.666666666667,4354.358974358975,4042.0512820512827,4234.871794871796,4307.6923076923085,4275.8974358974365,4330.769230769231,1681.0,1684.0,433.777,407.39697265625,0.0,0.0,0.0,0.0
432038,122.0,0.0,487.0,4398.461538461539,4134.358974358975,4301.538461538462,4784.615384615386,3785.1282051282055,4229.74358974359,4251.282051282052,4086.1538461538466,4368.205128205129,4050.2564102564106,4244.615384615385,4311.282051282052,4278.461538461539,4331.282051282052,1683.0,1684.0,433.785,407.39697265625,0.0,0.0,0.0,0.0
432039,123.0,0.0,446.0,4409.2307692307695,4139.48717948718,4311.794871794872,4796.923076923077,3787.1794871794878,4222.564102564103,4259.48717948718,4101.025641025642,4384.102564102564,4058.9743589743593,4266.666666666667,4316.410256410257,4301.538461538462,4350.769230769231,1682.0,1684.0,433.793,407.39697265625,0.0,0.0,0.0,0.0
432168,124.0,0.0,457.0,4405.128205128206,4133.333333333334,4311.794871794872,4796.923076923077,3782.0512820512827,4218.461538461539,4243.589743589744,4080.0000000000005,4378.974358974359,4055.3846153846157,4265.128205128206,4313.846153846154,4306.666666666667,4357.435897435898,1683.0,1685.0,433.801,407.5220947265625,0.0,0.0,0.0,0.0
432168,125.0,0.0,174.0,4393.846153846154,4130.769230769231,4299.48717948718,4790.256410256411,3776.9230769230776,4208.205128205129,4236.410256410257,4069.7435897435903,4366.666666666667,4053.333333333334,4254.358974358975,4312.307692307693,4297.435897435898,4346.666666666667,1683.0,1685.0,433.809,407.5220947265625,0.0,0.0,0.0,0.0
432168,126.0,0.0,487.0,4398.461538461539,4136.923076923077,4303.076923076924,4793.333333333334,3781.538461538462,4202.564102564103,4249.2307692307695,4094.8717948717954,4377.948717948719,4060.5128205128212,4264.615384615385,4318.461538461539,4307.6923076923085,4348.717948717949,1683.0,1685.0,433.816,407.5220947265625,0.0,0.0,0.0,0.0
432168,127.0,0.0,446.0,4404.615384615385,4137.435897435898,4312.820512820514,4795.8974358974365,3785.6410256410263,4217.435897435898,4253.846153846154,4105.641025641026,4388.717948717949,4062.564102564103,4272.307692307693,4318.974358974359,4317.435897435898,4357.948717948719,1682.0,1685.0,433.824,407.5220947265625,0.0,0.0,0.0,0.0
432168,128.0,0.0,457.0,4397.435897435898,4133.846153846154,4304.102564102564,4790.256410256411,3783.076923076924,4229.74358974359,4244.615384615385,4077.435897435898,4370.769230769231,4054.358974358975,4259.48717948718,4312.307692307693,4302.564102564103,4354.358974358975,1683.0,1685.0,433.832,407.5220947265625,0.0,0.0,0.0,0.0
432169,0.0,0.0,477.0,4392.820512820514,4133.333333333334,4294.871794871796,4787.179487179488,3783.589743589744,4223.589743589744,4246.153846153847,4070.7692307692314,4361.025641025642,4052.307692307693,4252.820512820514,4312.820512820514,4291.282051282052,4348.205128205129,1683.0,1683.0,433.839,407.5220947265625,0.0,0.0,0.0,0.0
432169,1.0,0.0,334.0,4402.564102564103,4134.871794871796,4303.076923076924,4791.282051282052,3785.6410256410263,4213.333333333334,4255.384615384616,4108.205128205129,4380.512820512821,4061.0256410256416,4268.717948717949,4318.461538461539,4300.512820512821,4354.358974358975,1683.0,1684.0,433.849,407.5220947265625,0.0,0.0,0.0,0.0
432169,2.0,0.0,450.0,4413.333333333334,4137.948717948719,4312.820512820514,4797.948717948719,3784.615384615385,4217.435897435898,4254.358974358975,4107.6923076923085,4381.025641025642,4063.076923076924,4284.102564102564,4318.974358974359,4312.820512820514,4366.153846153847,1683.0,1682.0,433.855,407.5220947265625,0.0,0.0,0.0,0.0
432169,3.0,0.0,319.0,4414.358974358975,4138.974358974359,4314.871794871796,4800.512820512821,3785.6410256410263,4225.128205128206,4246.666666666667,4072.307692307693,4365.641025641026,4058.9743589743593,4284.615384615385,4317.435897435898,4315.384615384616,4371.794871794872,1682.0,1683.0,433.863,407.5220947265625,0.0,0.0,0.0,0.0
432169,4.0,0.0,460.0,4412.307692307693,4137.435897435898,4316.410256410257,4798.974358974359,3786.1538461538466,4222.564102564103,4247.6923076923085,4075.8974358974365,4374.358974358975,4060.5128205128212,4281.025641025642,4317.948717948719,4315.384615384616,4372.307692307693,1683.0,1682.0,433.871,407.5220947265625,0.0,0.0,0.0,0.0
432169,5.0,0.0,547.0,4410.769230769231,4136.410256410257,4315.8974358974365,4796.923076923077,3782.564102564103,4209.2307692307695,4250.256410256411,4092.820512820513,4381.538461538462,4064.615384615385,4275.384615384616,4318.461538461539,4314.358974358975,4369.2307692307695,1682.0,1682.0,433.878,407.5220947265625,0.0,0.0,0.0,0.0
432169,6.0,0.0,532.0,4406.666666666667,4136.923076923077,4314.358974358975,4796.923076923077,3782.0512820512827,4205.128205128206,4245.128205128206,4081.0256410256416,4371.794871794872,4061.0256410256416,4271.794871794872,4315.8974358974365,4312.307692307693,4368.205128205129,1682.0,1683.0,433.887,407.5220947265625,0.0,0.0,0.0,0.0
432170,7.0,0.0,478.0,4401.538461538462,4133.333333333334,4312.307692307693,4795.384615384616,3783.076923076924,4215.8974358974365,4243.076923076924,4084.1025641025644,4375.384615384616,4056.410256410257,4271.282051282052,4317.435897435898,4309.2307692307695,4368.205128205129,1683.0,1683.0,433.894,407.5220947265625,0.0,0.0,0.0,0.0
432170,8.0,0.0,415.0,4404.102564102564,4130.256410256411,4314.358974358975,4793.333333333334,3783.589743589744,4221.025641025642,4249.74358974359,4107.179487179487,4387.6923076923085,4061.538461538462,4270.256410256411,4321.025641025642,4310.256410256411,4369.2307692307695,1682.0,1684.0,433.902,407.5220947265625,0.0,0.0,0.0,0.0
432170,9.0,0.0,410.0,4411.282051282052,4135.384615384616,4322.051282051282,4796.410256410257,3785.6410256410263,4218.974358974359,4253.846153846154,4099.48717948718,4380.512820512821,4065.1282051282055,4272.820512820514,4321.025641025642,4312.820512820514,4373.333333333334,1683.0,1684.0,433.91,407.5220947265625,0.0,0.0,0.0,0.0
432170,10.0,0.0,487.0,4415.384615384616,4140.000000000001,4328.717948717949,4800.512820512821,3787.692307692308,4223.076923076924,4253.846153846154,4087.692307692308,4373.846153846154,4067.692307692308,4280.000000000001,4321.538461538462,4320.000000000001,4377.948717948719,1683.0,1685.0,433.919,407.5220947265625,0.0,0.0,0.0,0.0
432297,11.0,0.0,446.0,4414.358974358975,4140.000000000001,4326.666666666667,4799.48717948718,3787.1794871794878,4231.282051282052,4256.410256410257,4105.128205128206,4389.743589743591,4072.307692307693,4288.717948717949,4321.538461538462,4327.6923076923085,4381.538461538462,1683.0,1686.0,433.926,407.6471862792969,0.0,0.0,0.0,0.0
432297,12.0,0.0,457.0,4409.2307692307695,4136.923076923077,4318.461538461539,4796.410256410257,3785.6410256410263,4231.282051282052,4256.410256410257,4115.384615384616,4396.923076923077,4069.7435897435903,4289.2307692307695,4318.974358974359,4324.102564102564,4380.512820512821,1683.0,1687.0,433.933,407.6471862792969,0.0,0.0,0.0,0.0
432298,13.0,0.0,174.0,4411.794871794872,4136.410256410257,4316.923076923077,4796.923076923077,3784.1025641025644,4217.948717948719,4249.74358974359,4101.538461538462,4387.6923076923085,4062.564102564103,4286.153846153847,4318.974358974359,4319.48717948718,4374.358974358975,1683.0,1686.0,433.942,407.6471862792969,0.0,0.0,0.0,0.0
432298,14.0,0.0,487.0,4408.717948717949,4135.8974358974365,4315.384615384616,4794.871794871796,3784.1025641025644,4211.282051282052,4246.666666666667,4087.1794871794878,4378.461538461539,4058.9743589743593,4278.974358974359,4318.974358974359,4316.410256410257,4361.025641025642,1682.0,1687.0,433.949,407.6471862792969,0.0,0.0,0.0,0.0
432298,15.0,0.0,446.0,4395.384615384616,4132.820512820514,4304.615384615385,4785.641025641026,3783.076923076924,4220.512820512821,4246.153846153847,4080.5128205128212,4367.179487179487,4056.9230769230776,4266.153846153847,4313.846153846154,4303.589743589744,4345.641025641026,1684.0,1687.0,433.958,407.6471862792969,0.0,0.0,0.0,0.0
432299,16.0,0.0,0.0,4393.846153846154,4131.794871794872,4301.025641025642,4785.641025641026,3778.9743589743593,4217.948717948719,4241.538461538462,4079.48717948718,4364.102564102564,4056.410256410257,4266.666666666667,4313.846153846154,4301.538461538462,4343.076923076924,1682.0,1685.0,433.965,407.6471862792969,0.0,0.0,0.0,0.0
432299,17.0,0.0,0.0,4404.102564102564,4136.410256410257,4311.794871794872,4795.8974358974365,3778.461538461539,4201.538461538462,4239.48717948718,4084.1025641025644,4377.435897435898,4059.48717948718,4282.564102564103,4321.538461538462,4318.461538461539,4349.2307692307695,1682.0,1686.0,433.972,407.6471862792969,0.0,0.0,0.0,0.0
432299,18.0,0.0,0.0,4401.538461538462,4138.461538461539,4314.358974358975,4798.461538461539,3782.0512820512827,4206.666666666667,4244.102564102564,4083.589743589744,4381.538461538462,4062.0512820512827,4287.6923076923085,4323.076923076924,4326.153846153847,4347.179487179487,1681.0,1684.0,433.98,407.6471862792969,0.0,0.0,0.0,0.0
432300,19.0,0.0,0.0,4393.333333333334,4136.410256410257,4309.2307692307695,4795.384615384616,3786.1538461538466,4224.615384615385,4247.179487179487,4084.1025641025644,4374.358974358975,4062.564102564103,4278.461538461539,4318.974358974359,4321.025641025642,4340.000000000001,1680.0,1684.0,433.988,407.6471862792969,0.0,0.0,0.0,0.0
432300,20.0,0.0,0.0,4398.461538461539,4137.948717948719,4313.333333333334,4797.948717948719,3784.1025641025644,4221.538461538462,4248.717948717949,4091.2820512820517,4377.948717948719,4063.589743589744,4273.846153846154,4317.435897435898,4322.564102564103,4340.000000000001,1681.0,1684.0,433.996,407.6471862792969,0.0,0.0,0.0,0.0
