timestamps,TP9,AF7,AF8,TP10,Right AUX,Marker0
1610634938.234,37.109,36.621,33.203,63.965,64.941,0
1610634938.238,64.941,34.180,30.762,90.820,-14.648,0
1610634938.242,38.574,34.668,31.250,49.805,-24.414,0
1610634938.246,-7.324,30.762,24.414,0.000,34.668,0
1610634938.250,-23.926,25.879,17.578,-5.371,5.859,0
1610634938.254,29.297,35.645,12.207,46.387,1.953,0
1610634938.258,96.191,41.992,14.160,92.285,3.418,0
1610634938.261,51.270,38.086,16.602,64.941,62.988,0
1610634938.265,-12.207,32.715,19.043,-7.324,30.762,0
1610634938.269,-34.668,32.715,29.785,-28.809,-20.508,0
1610634938.273,-6.348,28.809,28.320,26.367,44.922,0
1610634938.277,67.871,39.062,28.320,67.383,109.863,0
1610634938.279,40.527,49.316,24.414,51.270,111.816,0
1610634938.283,-4.883,37.109,26.855,18.066,41.992,0
1610634938.287,10.254,52.246,36.133,-8.789,13.184,0
1610634938.291,37.598,49.805,34.180,38.574,15.137,0
1610634938.295,74.707,27.832,20.508,112.793,18.066,0
1610634938.299,47.363,26.367,2.441,96.191,23.926,0
1610634938.303,-10.254,35.156,13.184,-10.742,-38.574,0
1610634938.306,-25.391,31.250,6.348,-51.758,-13.672,0
1610634938.310,-2.441,31.250,5.859,0.488,46.875,0
1610634938.314,44.434,37.109,32.715,53.223,18.555,0
1610634938.318,67.383,32.715,18.555,59.570,11.719,0
1610634938.322,16.602,36.133,17.090,11.719,-51.270,0
1610634938.324,-26.367,41.992,41.016,-21.484,-62.500,0
1610634938.328,0.977,33.203,43.457,0.488,-10.254,0
1610634938.332,46.875,29.785,35.156,53.711,69.824,0
1610634938.336,44.434,43.457,10.742,74.707,150.879,0
1610634938.340,21.973,28.809,8.789,21.973,74.219,0
1610634938.344,-15.137,26.367,26.367,-50.781,49.805,0
1610634938.348,13.184,39.551,22.461,-11.230,50.293,0
1610634938.351,51.758,26.855,20.020,48.340,53.711,0
1610634938.355,60.059,26.367,25.879,60.547,87.891,0
1610634938.359,34.180,38.574,16.113,38.574,25.391,0
1610634938.363,-19.043,36.621,12.695,-11.230,-46.387,0
1610634938.367,-15.137,42.480,18.066,-0.488,-15.137,0
1610634938.369,37.598,43.457,15.137,48.340,48.340,0
1610634938.373,92.773,40.039,21.484,81.055,69.336,0
1610634938.377,52.246,47.363,39.062,48.340,17.090,0
1610634938.381,-17.578,44.922,49.805,-11.230,0.977,0
1610634938.385,-22.949,49.805,51.270,-8.301,12.695,0
1610634938.389,52.246,42.969,49.805,59.082,7.324,0
1610634938.393,91.797,29.297,47.852,68.359,16.113,0
1610634938.396,14.160,25.391,45.410,28.809,61.035,0
1610634938.400,-33.203,27.832,44.922,-5.371,39.062,0
1610634938.404,-7.324,36.621,50.293,-20.508,-21.973,0
1610634938.408,57.129,33.691,56.152,41.504,43.457,0
1610634938.412,89.355,37.109,53.223,90.332,68.359,0
1610634938.416,46.387,40.527,50.781,60.059,41.016,0
1610634938.420,6.836,34.180,55.176,0.977,63.965,0
1610634938.424,-9.277,34.180,52.246,-18.066,21.973,0
1610634938.428,24.902,41.016,44.922,17.578,12.207,0
1610634938.432,93.262,41.992,44.434,80.566,32.227,0
1610634938.436,79.590,46.875,55.664,77.637,33.203,0
1610634938.440,1.953,52.246,51.270,11.719,61.523,0
1610634938.443,-17.090,44.434,41.016,-16.602,16.602,0
1610634938.447,15.137,39.062,33.691,29.297,16.602,0
1610634938.451,59.082,43.457,22.461,69.824,11.230,0
1610634938.455,57.129,38.574,29.785,45.410,-11.230,0
1610634938.459,-2.441,38.086,44.922,4.395,56.152,0
1610634938.475,-31.250,40.039,49.316,-10.254,66.895,0
1610634938.479,14.160,43.945,50.293,20.020,34.668,0
1610634938.483,86.426,47.363,51.758,71.289,57.617,0
1610634938.487,67.383,36.133,51.270,75.684,51.270,0
1610634938.491,0.000,39.551,45.898,21.973,-20.508,0
1610634938.495,0.977,46.875,40.039,-13.184,-43.945,0
1610634938.499,-6.348,38.574,43.457,13.672,-7.324,0
1610634938.502,28.809,32.715,42.480,55.176,34.668,0
1610634938.506,79.590,33.691,36.133,64.453,19.531,0
1610634938.510,35.645,38.574,40.039,19.531,34.668,0
1610634938.514,-7.812,37.109,41.504,-22.461,2.441,0
1610634938.518,1.953,39.551,34.180,-3.418,-33.691,0
1610634938.520,53.711,40.527,32.715,49.805,37.598,0
1610634938.524,75.684,41.016,38.086,63.965,80.566,0
1610634938.528,0.977,37.598,41.016,23.438,94.238,0
1610634938.532,-41.504,32.715,30.762,-24.902,34.668,0
1610634938.536,-1.953,32.715,18.066,-19.531,14.648,0
1610634938.540,43.457,34.668,22.461,40.527,26.855,0
1610634938.544,70.801,40.527,34.668,75.195,15.625,0
1610634938.547,29.785,38.086,40.527,50.293,13.672,0
1610634938.551,-27.832,40.527,30.273,-6.836,56.641,0
1610634938.555,-23.438,37.109,8.301,-29.297,2.441,0
1610634938.559,32.227,27.832,16.113,13.184,-26.855,0
1610634938.563,71.777,36.133,35.156,76.172,77.148,0
1610634938.564,46.387,35.645,30.762,51.270,51.758,0
1610634938.568,-26.855,23.438,15.625,-37.109,28.320,0
1610634938.572,-41.016,27.832,12.207,-44.434,-3.418,0
1610634938.576,20.996,38.086,20.508,23.438,15.137,0
1610634938.580,65.430,38.574,20.508,63.477,5.371,0
1610634938.584,33.691,33.691,17.578,41.992,-37.598,0
1610634938.588,-15.137,37.598,14.648,-9.766,-8.789,0
1610634938.591,-38.574,36.621,3.418,-20.996,29.297,0
1610634938.595,5.859,27.344,5.371,30.762,53.711,0
1610634938.599,81.055,32.715,28.320,71.289,-13.672,0
1610634938.603,55.176,43.457,28.809,48.828,39.062,0
1610634938.607,-14.648,33.203,14.160,6.836,49.316,0
1610634938.609,-30.273,22.461,10.254,-18.555,-26.855,0
1610634938.613,9.277,21.973,18.555,26.855,16.113,0
1610634938.617,58.594,25.879,24.414,79.590,0.000,0
1610634938.621,51.758,27.344,26.367,56.641,32.227,0
1610634938.625,-5.371,26.367,21.484,-1.953,49.805,0
1610634938.629,-20.020,26.855,5.371,-27.344,43.945,0
1610634938.633,-5.371,28.320,3.906,12.207,56.152,0
1610634938.636,54.199,34.668,10.254,58.105,72.266,0
1610634938.640,67.383,33.691,16.602,55.664,68.848,0
1610634938.644,9.766,32.227,30.762,11.719,28.320,0
1610634938.648,-14.648,36.621,24.414,-20.020,35.156,0
1610634938.652,0.488,38.086,10.254,4.883,45.898,0
1610634938.655,45.898,36.133,0.977,57.617,13.184,0
1610634938.659,51.758,30.762,-0.977,56.641,-12.207,0
1610634938.663,-10.742,27.344,0.488,4.395,39.062,0
1610634938.667,-27.344,33.691,3.906,-22.949,59.082,0
1610634938.671,0.000,34.180,2.930,12.695,39.551,0
1610634938.675,37.109,19.531,1.953,52.734,46.875,0
1610634938.679,51.270,20.996,19.531,52.734,42.969,0
1610634938.682,11.719,34.668,20.020,16.113,52.246,0
1610634938.686,-32.227,32.715,20.508,-36.133,74.219,0
1610634938.690,-19.531,27.832,23.926,-24.414,34.668,0
1610634938.694,41.992,35.645,14.160,36.133,-14.160,0
1610634938.698,54.199,36.133,8.301,62.012,-24.414,0
1610634938.699,7.324,34.668,15.625,21.973,-1.465,0
1610634938.703,-26.855,39.062,26.367,-23.438,49.316,0
1610634938.707,-9.277,42.480,23.438,-8.789,41.992,0
1610634938.711,39.062,36.621,18.066,42.969,-4.395,0
1610634938.715,58.105,31.250,14.648,57.617,12.207,0
1610634938.719,13.184,31.250,13.184,19.043,55.176,0
1610634938.723,-23.438,31.250,17.090,-27.832,74.707,0
1610634938.726,-27.344,31.738,19.531,-26.855,36.621,0
1610634938.730,5.371,32.715,22.461,27.832,-27.344,0
1610634938.734,41.504,32.715,22.949,53.711,-32.715,0
1610634938.738,-6.836,33.203,24.902,-2.930,22.461,0
1610634938.742,-50.293,29.785,28.320,-63.965,58.594,0
1610634938.744,-58.105,29.297,30.273,-66.406,13.184,0
1610634938.748,-25.879,35.645,31.738,-14.648,53.223,0
1610634938.752,6.348,38.086,26.855,21.973,85.938,0
1610634938.756,-25.879,40.039,18.555,-21.973,42.480,0
1610634938.760,-85.449,39.551,11.230,-93.262,51.758,0
1610634938.764,-112.793,35.645,6.836,-118.652,11.719,0
1610634938.768,-84.961,36.621,6.836,-85.449,-9.277,0
1610634938.771,-54.688,37.109,19.531,-54.688,42.480,0
1610634938.775,-85.938,33.691,32.715,-75.684,52.734,0
1610634938.779,-140.625,37.109,21.973,-137.695,76.660,0
1610634938.783,-153.809,39.551,10.742,-159.668,21.973,0
1610634938.787,-121.094,41.504,19.531,-112.305,-23.438,0
1610634938.804,-72.266,41.992,22.461,-70.801,25.879,0
1610634938.808,-90.820,37.598,21.973,-86.426,47.363,0
1610634938.812,-143.066,40.039,26.855,-141.113,51.270,0
1610634938.816,-165.039,42.480,24.902,-166.504,25.391,0
1610634938.820,-133.789,41.504,14.160,-135.742,-5.859,0
1610634938.824,-61.523,41.992,22.461,-78.125,43.945,0
1610634938.828,-54.688,46.875,37.109,-57.129,82.520,0
1610634938.831,-130.859,41.992,18.066,-110.840,1.465,0
1610634938.835,-164.551,26.855,11.719,-173.828,25.391,0
1610634938.839,-137.207,16.113,20.508,-152.832,21.973,0
1610634938.843,-80.078,19.043,11.230,-64.453,23.438,0
1610634938.847,-59.082,23.926,11.230,-38.574,42.480,0
1610634938.849,-109.863,21.973,21.973,-104.004,2.441,0
1610634938.853,-125.977,26.855,25.391,-135.254,-6.348,0
1610634938.857,-97.168,23.926,25.391,-97.656,-57.617,0
1610634938.861,-59.570,23.926,33.203,-30.273,-54.688,0
1610634938.865,-17.090,38.086,36.621,12.207,11.230,0
1610634938.869,-30.762,38.086,40.039,-30.273,-8.789,0
1610634938.873,-74.707,22.949,35.156,-91.309,-25.879,0
1610634938.876,-55.176,21.973,23.438,-63.965,28.809,0
1610634938.880,8.301,21.484,18.555,8.301,49.805,0
1610634938.884,48.828,23.926,20.996,44.434,53.711,0
1610634938.888,24.414,35.645,24.902,21.484,25.879,0
1610634938.892,-4.395,42.480,26.855,-5.371,-18.555,0
1610634938.894,11.719,25.879,7.812,14.648,7.812,0
1610634938.898,71.777,23.438,-1.465,72.266,45.898,0
1610634938.902,114.258,36.133,6.348,94.727,55.664,0
1610634938.906,76.660,26.855,16.113,65.918,19.531,0
1610634938.910,28.320,22.461,10.254,26.855,19.531,0
1610634938.914,41.992,33.691,0.977,33.691,9.766,0
1610634938.918,79.102,38.086,14.160,91.797,-3.906,0
1610634938.921,114.258,29.785,12.695,138.184,76.172,0
1610634938.925,95.703,20.020,1.465,110.352,89.355,0
1610634938.929,41.016,16.602,0.488,44.922,2.930,0
1610634938.933,43.945,32.227,11.230,42.969,26.855,0
1610634938.937,95.215,39.551,15.137,100.098,44.434,0
1610634938.941,134.766,29.785,7.812,138.184,65.918,0
1610634938.945,115.234,22.949,-1.465,121.582,100.586,0
1610634938.949,57.129,20.996,0.000,71.777,82.520,0
1610634938.953,44.434,21.484,6.836,48.828,41.992,0
1610634938.957,83.008,26.367,10.254,92.773,29.785,0
1610634938.961,129.883,29.785,12.695,136.230,-4.883,0
1610634938.965,130.859,26.367,14.160,132.812,-17.090,0
1610634938.968,59.570,21.484,11.719,77.637,59.082,0
1610634938.972,42.480,26.367,12.695,51.270,27.344,0
1610634938.976,78.613,32.227,18.066,91.797,-27.344,0
1610634938.980,116.699,35.645,17.578,127.930,39.062,0
1610634938.984,128.906,34.180,14.648,122.559,82.520,0
1610634938.984,83.008,25.391,16.113,72.754,36.621,0
1610634938.988,51.758,26.367,12.695,36.621,6.836,0
1610634938.992,86.914,41.504,21.484,80.078,1.953,0
1610634938.996,139.160,34.180,23.926,131.836,4.883,0
1610634939.000,138.184,31.250,12.207,138.184,-20.996,0
1610634939.004,74.707,36.621,10.254,95.703,-30.762,0
1610634939.008,31.738,27.832,1.465,36.621,-23.438,0
1610634939.011,56.152,25.391,2.930,60.059,-2.441,0
1610634939.015,107.910,21.484,15.137,105.957,16.602,0
1610634939.019,116.699,26.367,23.438,115.723,53.711,0
1610634939.023,65.918,32.227,16.602,81.055,66.895,0
1610634939.027,37.598,38.574,11.719,44.434,9.277,0
1610634939.029,57.129,48.340,16.113,64.453,-29.297,0
1610634939.033,96.680,45.410,10.742,119.141,-3.906,0
1610634939.037,110.840,35.645,7.812,126.953,28.320,0
1610634939.041,56.641,36.621,12.207,80.078,29.785,0
1610634939.045,23.438,37.109,14.160,39.062,-0.488,0
1610634939.049,37.109,36.133,12.207,39.551,2.930,0
1610634939.053,74.219,34.180,20.508,93.750,50.293,0
1610634939.056,116.211,27.344,34.668,123.535,85.938,0
1610634939.060,80.566,27.344,35.645,68.848,32.715,0
1610634939.064,17.578,34.668,31.738,5.371,-15.625,0
1610634939.068,25.391,31.250,32.227,17.090,36.621,0
1610634939.072,77.637,34.668,33.203,84.961,76.660,0
1610634939.074,111.328,45.410,35.156,112.305,58.594,0
1610634939.078,86.426,49.316,40.039,80.566,48.828,0
1610634939.082,39.062,46.387,35.645,41.504,78.125,0
1610634939.086,16.113,35.645,19.531,25.391,24.902,0
1610634939.090,54.199,27.832,17.090,53.223,-36.621,0
1610634939.094,90.332,27.344,23.438,85.449,-34.180,0
1610634939.098,68.848,28.809,26.855,72.754,11.719,0
1610634939.101,21.484,30.273,34.668,18.066,23.926,0
1610634939.105,-16.602,29.785,40.527,4.883,-6.836,0
1610634939.109,26.367,26.855,26.855,45.898,-6.348,0
1610634939.113,91.309,29.297,23.438,80.078,17.578,0
1610634939.117,74.707,36.621,38.086,70.312,26.855,0
1610634939.119,22.461,35.645,35.645,32.227,-17.578,0
1610634939.123,-6.836,28.809,28.320,12.207,-35.156,0
1610634939.127,28.809,29.785,36.621,24.902,-7.812,0
1610634939.131,76.172,34.668,41.016,63.965,-2.441,0
1610634939.135,67.871,38.574,47.363,67.871,22.949,0
1610634939.139,30.273,47.363,57.129,25.391,63.965,0
1610634939.143,3.418,49.805,46.387,-2.441,79.590,0
1610634939.146,16.113,31.250,22.461,19.043,56.641,0
1610634939.150,54.688,20.996,23.438,58.594,1.465,0
1610634939.154,65.430,30.273,41.504,66.406,1.465,0
1610634939.158,15.625,30.273,47.363,26.855,28.320,0
1610634939.162,-21.973,35.156,37.109,-2.441,19.531,0
1610634939.165,7.812,43.457,37.598,25.879,25.391,0
1610634939.169,60.547,31.738,38.574,67.383,8.789,0
1610634939.173,67.383,24.414,42.969,73.242,45.410,0
1610634939.177,12.207,23.926,47.363,21.484,102.539,0
1610634939.181,-22.461,26.855,39.551,-15.137,49.316,0
1610634939.185,6.836,29.785,42.480,16.602,-6.348,0
1610634939.189,68.848,30.762,37.598,74.707,30.762,0
1610634939.192,83.008,32.227,27.832,93.262,34.668,0
1610634939.196,22.461,37.598,31.250,46.387,6.348,0
1610634939.200,-18.555,36.621,33.203,-2.441,5.859,0
1610634939.204,5.371,32.227,34.668,3.906,48.828,0
1610634939.208,40.527,31.738,39.551,47.363,-2.930,0
1610634939.224,63.965,32.715,48.828,77.148,25.391,0
1610634939.228,44.922,41.504,42.480,55.176,18.066,0
1610634939.232,-17.578,46.387,31.250,8.301,-14.160,0
1610634939.236,-2.930,42.480,39.551,11.719,73.730,0
1610634939.240,60.547,28.809,39.062,65.918,19.531,0
1610634939.244,78.125,16.113,36.133,81.543,-38.574,0
1610634939.248,39.551,24.902,34.668,33.691,-3.418,0
1610634939.251,-7.812,38.086,40.527,-7.812,11.230,0
1610634939.255,-6.348,36.133,40.527,-11.230,46.875,0
1610634939.259,36.133,42.480,27.344,33.691,12.207,0
1610634939.263,79.590,46.387,22.461,73.242,2.441,0
1610634939.267,59.082,48.340,30.273,65.430,69.824,0
1610634939.269,15.625,53.711,38.086,20.020,38.086,0
1610634939.273,3.418,50.781,35.156,-0.488,6.836,0
1610634939.277,28.809,43.945,36.621,36.133,-19.531,0
1610634939.281,70.312,37.109,37.109,73.242,-3.418,0
1610634939.285,57.617,42.969,34.668,73.242,37.598,0
1610634939.289,1.953,36.621,39.062,23.926,36.621,0
1610634939.293,-22.949,23.926,41.504,-23.438,51.270,0
1610634939.296,7.812,29.297,40.527,16.113,45.898,0
1610634939.300,74.707,35.645,30.273,70.312,63.477,0
1610634939.304,71.289,34.180,22.949,56.152,98.633,0
1610634939.308,10.254,38.086,24.414,0.000,35.645,0
1610634939.312,-13.184,35.645,19.043,-29.297,25.391,0
1610634939.314,20.508,37.598,15.625,13.184,21.973,0
1610634939.318,71.289,54.199,28.320,75.195,39.062,0
1610634939.322,62.012,56.641,40.039,75.195,63.965,0
1610634939.326,6.836,49.805,39.551,16.113,-15.137,0
1610634939.330,-4.883,42.969,40.527,-13.184,9.766,0
1610634939.334,13.672,35.156,41.992,21.484,62.012,0
1610634939.338,43.457,34.180,41.016,66.895,44.922,0
1610634939.341,71.289,44.922,37.598,74.707,46.875,0
1610634939.345,13.672,34.668,38.574,10.254,-13.184,0
1610634939.349,-40.039,25.879,42.969,-43.457,-52.734,0
1610634939.353,-4.395,39.551,42.969,-5.859,-11.230,0
1610634939.357,53.223,38.574,39.062,50.781,-41.016,0
1610634939.359,58.594,28.809,38.574,64.453,24.414,0
1610634939.363,6.836,32.715,40.527,27.344,76.172,0
1610634939.367,-3.418,52.246,59.570,1.465,9.766,0
1610634939.371,18.066,48.828,63.965,23.438,7.812,0
1610634939.375,43.457,29.297,24.902,47.852,3.906,0
1610634939.379,63.965,25.879,31.250,65.918,-27.832,0
1610634939.383,22.461,29.785,64.941,30.273,-37.598,0
1610634939.386,-29.297,33.691,56.641,-22.461,-20.996,0
1610634939.390,-16.602,32.715,41.992,-11.230,15.625,0
1610634939.394,46.387,36.621,46.875,42.969,38.086,0
1610634939.398,76.660,49.316,52.246,74.707,86.914,0
1610634939.402,40.039,46.387,44.434,42.969,55.176,0
1610634939.405,-3.906,36.133,32.227,-12.695,-14.160,0
1610634939.409,5.859,43.457,41.504,0.000,73.242,0
1610634939.413,46.387,45.898,47.852,62.012,82.520,0
1610634939.417,97.656,53.223,32.227,103.516,44.922,0
1610634939.421,68.848,62.012,25.391,75.195,52.246,0
1610634939.425,-5.859,50.781,33.203,1.465,-12.695,0
1610634939.429,-22.461,37.598,27.344,-18.066,-40.527,0
1610634939.432,27.344,37.109,26.855,28.320,28.320,0
1610634939.436,84.961,39.551,38.574,69.336,52.246,0
1610634939.440,64.453,36.621,50.781,59.082,7.324,0
1610634939.444,-7.812,42.480,56.152,17.578,41.016,0
1610634939.448,-8.301,50.781,43.945,0.977,20.508,0
1610634939.449,36.621,50.781,41.504,41.016,-36.133,0
1610634939.453,78.125,44.434,49.316,92.285,71.777,0
1610634939.457,64.453,41.992,44.922,83.008,50.781,0
1610634939.461,1.465,46.875,40.039,16.113,-25.879,0
1610634939.465,-20.996,38.574,21.484,-22.949,7.324,0
1610634939.469,4.395,40.527,12.207,24.414,9.766,0
1610634939.473,57.617,45.898,28.320,78.613,-50.293,0
1610634939.476,62.012,32.227,25.879,64.941,-46.387,0
1610634939.480,6.836,29.785,32.227,-1.465,41.504,0
1610634939.484,-24.414,27.832,24.902,-41.992,94.238,0
1610634939.488,2.930,29.297,26.855,-1.953,109.375,0
1610634939.492,57.129,40.039,40.039,54.199,119.141,0
1610634939.495,74.219,57.617,52.734,72.266,113.281,0
1610634939.499,7.812,63.477,50.781,34.668,63.477,0
1610634939.503,-24.414,41.016,29.785,-14.648,9.766,0
1610634939.507,-1.465,33.203,22.949,2.930,45.410,0
1610634939.511,43.945,42.969,26.855,47.852,105.957,0
1610634939.515,82.520,45.410,46.875,61.523,101.074,0
1610634939.519,37.598,38.086,43.457,18.066,45.410,0
1610634939.522,-20.020,32.227,35.156,-33.691,-7.812,0
1610634939.526,-9.277,39.062,42.480,-8.789,15.625,0
1610634939.530,56.641,45.410,41.016,65.430,76.660,0
1610634939.534,73.730,46.875,38.574,81.543,79.102,0
1610634939.538,31.738,53.711,55.176,28.320,66.406,99
1610634939.554,-3.418,59.082,65.918,-10.254,-1.465,0
1610634939.558,-17.090,43.457,38.086,-8.789,0.977,0
1610634939.562,42.969,35.645,20.020,44.922,41.016,0
1610634939.566,83.984,43.945,32.227,71.777,23.926,0
1610634939.570,26.367,39.062,36.621,28.320,4.395,0
1610634939.574,-14.160,26.855,33.691,-20.020,1.953,0
1610634939.578,-0.977,32.715,41.504,-23.438,4.395,0
1610634939.581,38.574,44.434,32.227,34.668,-15.625,0
1610634939.585,72.754,39.551,16.602,76.172,11.719,0
1610634939.589,38.574,47.852,39.062,56.152,22.461,0
1610634939.593,-1.465,55.664,54.688,3.418,-8.789,0
1610634939.597,-4.883,43.945,47.852,-16.113,2.930,0
1610634939.599,24.414,39.551,39.062,30.762,34.668,0
1610634939.603,74.219,38.574,23.926,81.055,45.898,0
1610634939.607,63.965,40.527,20.508,68.848,-6.348,0
1610634939.611,7.324,47.363,33.691,12.207,-14.160,0
1610634939.615,-16.602,44.922,46.875,-10.254,16.113,0
1610634939.619,30.273,41.016,44.434,27.344,10.742,0
1610634939.623,84.473,45.410,37.109,68.848,23.926,0
1610634939.626,66.895,61.035,52.734,71.777,69.824,0
1610634939.630,11.719,63.965,59.082,19.043,14.160,0
1610634939.634,-17.578,38.086,33.691,-17.090,-23.926,0
1610634939.638,6.836,38.574,31.738,23.926,9.277,0
1610634939.642,63.477,53.223,48.340,80.566,13.672,0
1610634939.644,64.941,54.199,38.086,79.102,78.125,0
1610634939.648,6.836,40.527,36.133,21.973,65.430,0
1610634939.652,-11.719,29.785,35.645,-23.926,-20.508,0
1610634939.656,16.602,37.109,33.691,15.137,-67.383,0
1610634939.660,76.660,43.457,36.133,75.684,-33.691,0
1610634939.664,80.078,43.457,41.016,78.613,43.457,0
1610634939.668,10.254,45.410,47.363,27.344,0.488,0
1610634939.671,-18.066,37.598,54.199,-13.672,2.441,0
1610634939.675,12.207,36.621,55.176,20.996,54.199,0
1610634939.679,56.152,44.922,48.828,74.219,45.898,0
1610634939.683,64.453,44.922,43.945,72.754,79.102,0
1610634939.687,26.367,58.105,49.316,40.039,8.789,0
1610634939.689,-5.371,51.758,58.594,-4.395,-55.176,0
1610634939.693,-10.742,29.297,52.734,0.000,-14.160,0
1610634939.697,42.969,40.527,36.133,62.500,48.828,0
1610634939.701,73.242,47.852,26.367,77.148,61.035,0
1610634939.705,26.367,42.480,41.504,45.410,17.090,0
1610634939.709,-20.996,41.992,45.410,-4.395,39.062,0
1610634939.713,-35.156,31.250,42.480,-13.672,4.883,0
1610634939.716,34.668,20.996,41.016,38.086,-45.410,0
1610634939.720,83.984,31.738,42.480,69.824,-5.371,0
1610634939.724,29.297,47.363,48.340,42.480,-12.207,0
1610634939.728,-6.348,46.875,53.223,-8.301,0.488,0
1610634939.732,23.438,57.129,48.828,17.578,56.152,0
1610634939.734,59.570,63.965,33.691,76.660,54.688,0
1610634939.738,71.289,45.898,34.180,79.102,75.684,0
1610634939.742,36.133,36.621,33.691,37.109,76.172,0
1610634939.746,-21.973,40.527,39.062,-9.766,56.152,0
1610634939.750,-28.809,38.574,51.758,-10.254,22.949,0
1610634939.754,36.621,35.645,49.805,45.410,-27.344,0
1610634939.758,84.473,40.039,48.340,79.102,12.207,0
1610634939.761,43.945,43.457,40.527,52.246,42.480,0
1610634939.765,-0.488,40.039,41.016,0.977,15.137,0
1610634939.769,-3.418,38.086,49.316,-12.695,24.902,0
1610634939.773,35.645,48.340,46.387,38.574,40.039,0
1610634939.777,83.984,50.781,30.273,97.168,48.340,0
1610634939.779,58.105,47.363,24.902,86.914,59.082,0
1610634939.783,-3.418,42.480,34.180,17.090,34.180,0
1610634939.787,-31.250,35.645,24.414,-23.438,-31.250,0
1610634939.791,3.906,32.715,29.297,3.418,-21.973,0
1610634939.795,57.129,28.809,42.969,55.176,72.754,0
1610634939.799,52.734,34.180,48.340,60.059,88.379,0
1610634939.803,-2.441,38.086,49.805,9.277,6.348,0
1610634939.806,-34.180,33.203,39.551,-24.414,14.160,0
1610634939.810,12.695,34.180,43.945,16.602,86.426,0
1610634939.814,63.965,39.062,30.273,76.172,104.492,0
1610634939.818,55.664,36.133,20.508,62.988,58.105,0
1610634939.822,13.672,40.527,36.133,17.090,16.602,0
1610634939.824,-16.602,38.574,37.109,-17.090,51.758,0
1610634939.828,4.883,35.645,25.391,10.254,20.020,0
1610634939.832,49.805,40.527,22.949,65.918,9.277,0
1610634939.836,54.199,33.691,32.227,67.871,73.242,0
1610634939.840,1.953,24.902,29.785,15.137,39.551,0
1610634939.844,-29.785,25.391,30.273,-29.297,44.434,0
1610634939.848,-6.836,24.902,40.527,-1.953,0.000,0
1610634939.851,33.203,27.344,47.363,52.246,-42.969,0
1610634939.855,63.965,34.180,58.594,66.895,60.547,0
1610634939.859,26.855,30.273,49.316,23.438,83.008,0
1610634939.863,-23.438,26.367,35.156,-20.508,27.344,0
1610634939.867,3.418,38.574,46.875,14.160,61.035,0
1610634939.870,63.965,48.340,51.270,79.590,4.395,0
1610634939.874,81.055,39.062,44.434,89.844,32.715,0
1610634939.878,32.715,32.227,41.016,39.062,38.086,0
1610634939.882,-20.020,34.180,40.527,-23.438,3.906,0
1610634939.886,-7.324,38.086,56.152,-11.230,8.789,0
1610634939.890,36.133,32.715,55.664,47.852,23.926,0
1610634939.894,56.641,27.344,30.762,71.289,86.914,0
1610634939.897,25.391,34.180,29.785,49.805,77.637,0
1610634939.901,-12.207,31.738,43.457,1.465,63.965,0
1610634939.905,-8.301,35.156,49.805,-4.395,40.527,0
1610634939.909,49.805,47.363,47.363,56.641,14.160,0
1610634939.913,80.078,47.852,43.457,83.008,57.129,0
1610634939.929,33.203,42.969,38.086,36.621,62.988,0
1610634939.933,-24.414,35.156,41.992,-20.996,56.152,0
1610634939.937,-33.203,31.250,44.922,-27.344,7.812,0
1610634939.941,16.602,37.598,44.922,32.715,-24.414,0
1610634939.945,74.219,43.945,41.016,80.078,7.812,0
1610634939.949,48.828,45.898,41.992,65.918,39.551,0
1610634939.953,-10.742,41.504,30.273,-4.883,14.648,0
1610634939.956,-29.785,33.203,20.020,-31.738,33.691,0
1610634939.960,5.859,30.273,29.297,18.555,29.297,0
1610634939.964,81.055,37.598,29.297,71.289,6.836,0
1610634939.968,81.055,61.523,41.504,81.543,40.039,0
1610634939.972,12.207,62.500,62.012,21.973,54.199,0
1610634939.974,-18.555,37.109,45.410,-26.855,58.105,0
1610634939.978,-1.953,27.832,30.762,16.113,-1.465,0
1610634939.982,53.711,36.133,34.180,71.289,-26.855,0
1610634939.986,84.473,41.016,36.133,65.918,-30.273,0
1610634939.990,29.297,33.203,33.203,14.648,-29.297,0
1610634939.994,-13.184,39.551,25.879,-20.508,16.602,0
1610634939.998,6.348,43.457,29.297,16.113,24.902,0
1610634940.001,67.871,33.691,37.109,63.965,26.367,0
1610634940.005,72.754,38.086,35.156,68.359,23.438,0
1610634940.009,17.578,55.664,49.316,30.273,-11.719,0
1610634940.013,-26.367,54.688,63.477,-23.926,32.715,0
1610634940.017,-16.602,41.992,57.617,-7.324,56.641,0
1610634940.019,54.688,37.598,51.270,55.176,23.438,0
1610634940.023,78.125,45.898,55.176,75.195,69.336,0
1610634940.027,8.301,48.340,53.711,30.273,62.012,0
1610634940.031,-20.508,45.898,43.945,-20.996,37.109,0
1610634940.035,2.930,44.434,46.875,-5.859,67.383,0
1610634940.039,43.945,41.504,44.434,42.969,0.488,0
1610634940.043,82.031,53.223,53.223,65.918,-44.922,0
1610634940.046,34.180,49.805,64.941,38.086,-2.930,0
1610634940.050,-23.438,33.203,41.504,-17.090,-39.551,0
1610634940.054,0.977,41.992,38.574,-7.324,0.000,1
1610634940.058,47.852,45.410,57.129,47.852,50.293,0
1610634940.062,65.918,41.992,56.641,64.453,53.711,0
1610634940.064,24.902,41.016,53.711,29.297,52.734,0
1610634940.068,-22.461,40.039,54.199,-13.184,41.016,0
1610634940.072,-18.555,42.480,50.781,-6.836,91.797,0
1610634940.076,40.039,42.969,38.574,53.711,93.262,0
1610634940.080,76.172,39.551,30.762,82.031,36.621,0
1610634940.084,36.621,40.039,42.969,33.203,41.016,0
1610634940.088,-10.254,37.109,49.316,-18.555,4.883,0
1610634940.091,-5.859,40.039,40.039,-5.859,-66.895,0
1610634940.095,33.691,45.410,41.504,47.852,8.301,0
1610634940.099,66.406,41.504,43.945,77.148,67.871,0
1610634940.103,53.711,46.387,43.945,66.895,46.387,0
1610634940.107,-8.301,45.898,47.363,16.602,18.066,0
1610634940.109,-7.812,49.805,45.410,-8.789,20.996,0
1610634940.113,36.621,47.852,41.016,31.738,-6.348,0
1610634940.117,54.688,34.180,43.945,62.012,-32.715,0
1610634940.121,45.410,36.133,55.664,47.363,45.410,0
1610634940.125,-9.277,32.715,60.547,-3.418,62.988,0
1610634940.129,-29.297,32.715,54.199,-25.391,42.480,0
1610634940.133,23.438,52.734,57.129,32.715,84.961,0
1610634940.136,77.637,54.199,43.945,89.844,38.574,0
1610634940.140,66.406,40.527,35.645,71.777,31.738,0
1610634940.144,10.254,43.457,50.293,10.742,63.477,0
1610634940.148,-17.578,51.758,50.293,-18.066,50.293,0
1610634940.152,16.602,54.688,46.875,25.879,33.691,0
1610634940.154,71.289,51.270,41.016,79.590,21.484,0
1610634940.158,69.336,38.574,41.504,69.824,66.895,0
1610634940.162,15.137,32.227,46.875,18.555,15.625,0
1610634940.166,-17.090,36.133,38.574,-11.230,-24.414,0
1610634940.170,5.859,44.434,31.250,12.207,24.902,0
1610634940.174,72.754,44.922,38.574,66.406,47.852,0
1610634940.178,74.707,39.062,40.527,79.590,74.219,0
1610634940.181,19.043,41.016,37.598,36.133,63.965,0
1610634940.185,-6.348,44.922,27.832,-12.207,-31.738,0
1610634940.189,8.301,52.734,26.367,14.160,32.715,0
1610634940.193,74.219,55.176,41.016,81.055,97.656,0
1610634940.197,93.750,48.340,43.457,80.078,38.086,0
1610634940.199,45.898,46.875,41.016,30.273,30.762,0
1610634940.203,-12.695,35.156,36.133,-6.836,31.250,0
1610634940.207,-7.324,31.250,35.645,6.348,-30.273,0
1610634940.211,50.781,40.039,37.109,56.152,7.324,0
1610634940.215,65.918,38.086,29.785,76.660,84.961,0
1610634940.219,31.738,34.668,23.926,40.527,22.949,0
1610634940.223,-12.207,38.574,31.250,5.371,-17.090,0
1610634940.226,-13.672,35.156,32.715,11.230,-35.156,0
1610634940.230,38.574,29.297,30.273,51.758,4.395,0
1610634940.234,86.914,40.527,35.156,87.402,81.055,0
1610634940.238,39.551,38.574,35.645,52.246,66.895,0
1610634940.242,-31.250,25.391,35.156,-17.090,71.777,0
1610634940.244,-21.484,30.273,38.086,-12.695,13.184,0
1610634940.248,23.926,35.645,40.039,38.574,-26.855,0
1610634940.252,58.105,38.086,40.527,65.918,69.824,0
1610634940.256,45.410,36.133,44.434,52.734,70.801,0
1610634940.260,3.906,37.109,43.457,5.371,-23.926,0
1610634940.264,-21.484,33.691,31.738,-21.484,-20.996,0
1610634940.268,3.906,22.461,22.949,12.695,41.016,0
1610634940.271,54.688,26.855,33.203,64.453,23.438,0
1610634940.275,46.875,31.738,43.457,59.570,10.254,0
1610634940.279,-4.883,34.180,42.480,12.695,0.977,0
1610634940.283,-18.555,34.668,45.410,-12.695,-16.113,0
1610634940.287,27.832,44.434,57.129,29.785,14.160,0
1610634940.305,68.359,41.992,56.641,76.172,82.031,0
1610634940.309,39.551,33.691,42.969,68.848,72.266,0
1610634940.313,4.395,45.898,45.898,25.391,-34.180,0
1610634940.317,0.977,44.434,46.387,-14.160,-72.754,0
1610634940.321,4.883,28.809,39.062,1.953,-35.645,0
1610634940.325,58.105,27.344,41.992,67.871,24.902,0
1610634940.329,54.199,24.902,34.180,67.383,49.316,0
1610634940.332,-3.906,28.320,29.297,1.953,34.180,0
1610634940.336,-41.016,29.785,41.016,-37.598,13.672,0
1610634940.340,-17.578,18.066,53.223,-10.254,-29.297,0
1610634940.344,63.477,24.902,60.547,53.223,32.227,0
1610634940.348,67.871,48.828,60.547,76.660,12.207,0
1610634940.350,6.348,50.781,50.781,32.715,-16.602,0
1610634940.354,-28.809,40.527,42.969,-25.879,26.855,0
1610634940.358,-0.488,43.945,45.898,4.883,64.453,0
1610634940.362,59.082,48.340,42.969,60.547,101.562,0
1610634940.366,82.520,50.781,47.852,75.195,21.484,0
1610634940.370,42.480,52.734,48.340,38.574,8.789,0
1610634940.374,-3.418,50.293,34.180,-10.254,-0.488,0
1610634940.377,-2.441,46.387,49.805,5.859,-25.391,0
1610634940.381,44.922,24.902,57.129,50.293,45.898,0
1610634940.385,59.082,16.113,42.480,59.082,68.848,0
1610634940.389,15.137,36.133,50.293,26.855,84.961,0
1610634940.393,-5.371,33.691,52.734,-24.902,57.129,0
1610634940.395,-1.953,25.391,50.293,-18.555,39.062,0
1610634940.399,42.969,36.133,57.617,48.828,29.297,0
1610634940.403,78.125,39.062,61.523,75.195,45.410,0
1610634940.407,42.480,40.527,57.129,42.969,31.738,0
1610634940.411,-4.883,47.363,47.363,10.254,-12.695,0
1610634940.415,-0.977,49.805,41.504,5.371,1.465,0
1610634940.419,47.852,47.363,51.270,45.410,11.230,0
1610634940.422,77.637,37.598,56.641,81.543,52.734,0
1610634940.426,38.574,33.691,48.828,46.875,45.410,0
1610634940.430,-5.371,26.855,49.316,-14.160,-37.109,0
1610634940.434,0.488,24.902,46.387,-18.555,-20.020,0
1610634940.438,40.039,38.574,42.480,29.297,36.621,0
1610634940.439,75.684,39.551,47.852,65.918,45.410,0
1610634940.443,46.875,40.527,58.105,52.246,30.762,0
1610634940.447,-9.766,45.898,48.828,4.883,-14.648,0
1610634940.451,5.859,53.711,40.527,1.953,-8.301,0
1610634940.455,50.293,46.875,42.969,41.992,-1.465,0
1610634940.459,63.477,32.715,37.109,76.660,36.133,0
1610634940.463,46.387,40.527,47.852,62.500,24.902,0
1610634940.466,-0.488,42.480,47.852,-2.930,-32.715,0
1610634940.470,-19.531,32.227,30.762,-28.809,-24.414,0
1610634940.474,30.273,42.480,38.574,24.414,3.906,0
1610634940.478,90.332,51.270,44.922,76.660,-47.363,0
1610634940.482,73.730,42.969,20.996,56.641,-40.039,0
1610634940.485,9.766,49.805,27.344,20.508,54.199,0
1610634940.489,-6.836,58.105,48.340,-1.953,26.855,0
1610634940.493,12.207,52.734,53.223,17.578,-26.855,0
1610634940.497,48.340,42.480,45.898,57.617,-27.832,0
1610634940.501,56.152,41.992,34.180,57.129,39.062,0
1610634940.505,12.695,47.852,35.156,18.066,74.219,0
1610634940.509,-15.625,40.039,34.180,-15.625,20.020,0
1610634940.512,11.230,40.039,42.480,20.020,29.785,0
1610634940.516,56.152,37.109,41.992,72.754,86.426,0
1610634940.520,62.988,31.250,37.598,66.895,46.875,0
1610634940.524,24.414,31.738,43.945,26.367,31.250,0
1610634940.528,-24.902,37.598,44.922,-7.812,12.207,0
1610634940.529,-7.324,53.223,36.133,19.531,3.906,0
1610634940.533,69.336,53.711,32.227,75.684,39.551,0
1610634940.537,82.520,40.039,33.691,67.871,11.719,0
1610634940.541,16.113,33.203,40.039,18.066,2.441,0
1610634940.545,-29.785,31.738,45.410,-29.297,18.066,0
1610634940.549,-3.418,37.109,45.410,-10.254,-3.906,0
1610634940.553,41.504,42.480,47.852,46.875,21.973,0
1610634940.556,73.730,43.457,38.574,68.359,76.660,0
1610634940.560,43.945,47.852,46.387,49.316,46.875,0
1610634940.564,-6.348,43.945,47.852,-1.953,-17.578,0
1610634940.568,-13.672,34.668,39.551,-14.648,25.391,0
1610634940.572,19.531,30.762,40.527,37.109,69.824,0
1610634940.574,90.820,45.898,37.598,83.008,38.574,0
1610634940.578,77.637,51.758,36.133,67.871,27.344,0
1610634940.582,-5.371,32.715,25.391,-7.324,12.207,0
1610634940.586,-22.949,35.156,25.879,-28.320,-39.062,0
1610634940.590,10.742,44.434,37.598,30.273,-36.133,0
1610634940.594,54.199,45.898,31.738,76.660,-16.602,0
1610634940.598,33.691,39.062,24.414,53.711,-20.996,0
1610634940.601,-6.836,34.180,32.715,-0.488,-10.742,0
1610634940.605,-4.395,46.875,46.875,-13.672,0.000,0
1610634940.609,31.250,46.875,42.969,34.180,40.039,0
1610634940.613,75.195,39.062,36.621,80.078,73.730,0
1610634940.617,54.199,46.387,42.969,78.125,103.027,0
1610634940.620,15.625,56.641,57.129,33.203,46.875,0
1610634940.624,-6.836,51.270,40.039,-11.230,3.418,0
1610634940.628,11.230,41.992,23.926,5.859,40.527,0
1610634940.632,63.965,45.898,35.156,66.895,48.340,0
1610634940.636,68.359,59.082,45.898,81.543,38.086,0
1610634940.640,17.578,54.688,47.363,14.648,67.871,0
1610634940.644,-15.625,38.086,31.738,-24.414,19.043,0
1610634940.647,28.320,44.922,39.062,20.508,-51.758,0
1610634940.651,84.473,53.711,57.129,72.754,42.969,0
1610634940.655,72.266,44.434,52.246,73.730,134.277,0
1610634940.659,10.742,33.691,50.781,17.578,122.559,0
1610634940.663,-17.090,39.062,50.293,-12.695,27.344,0
1610634940.679,26.855,58.594,58.594,37.598,-1.953,0
1610634940.683,81.543,62.988,62.988,87.402,36.133,0
1610634940.687,77.148,50.781,53.711,85.449,24.414,0
1610634940.691,33.203,53.223,60.547,49.805,11.230,0
1610634940.695,-1.465,58.594,61.523,7.812,19.043,0
1610634940.699,12.207,51.270,45.410,23.438,-2.441,0
1610634940.703,70.801,51.270,39.551,72.754,9.766,0
1610634940.706,96.191,47.363,59.082,86.426,-8.789,0
1610634940.710,48.828,49.316,72.266,53.711,-0.488,0
1610634940.714,-1.953,49.805,66.406,0.000,21.973,0
1610634940.718,7.812,40.527,62.988,4.395,19.043,0
1610634940.722,54.688,45.410,59.570,58.105,29.785,0
1610634940.724,70.801,57.129,58.105,88.379,77.148,0
1610634940.728,44.922,72.266,67.871,70.312,61.035,0
1610634940.732,3.906,58.594,56.641,-5.371,65.918,0
1610634940.736,-25.391,35.156,40.039,-20.996,74.707,0
1610634940.740,28.320,42.969,37.598,57.617,27.344,0
1610634940.744,82.031,44.922,32.227,80.566,57.129,0
1610634940.748,42.969,45.410,48.340,49.805,89.844,0
1610634940.751,-11.719,47.363,62.012,-0.977,71.289,0
1610634940.755,-0.488,44.434,51.758,-5.859,98.145,0
1610634940.759,50.781,40.527,33.691,44.922,47.363,0
1610634940.763,91.797,47.852,49.316,79.590,24.414,0
1610634940.767,52.246,47.852,64.941,56.641,45.410,0
1610634940.770,-9.277,33.203,53.711,-4.395,22.461,0
1610634940.774,-24.902,31.250,49.805,-17.578,2.930,0
1610634940.778,11.230,38.086,39.551,31.738,-10.254,0
1610634940.782,72.754,40.039,32.227,61.523,-4.395,0
1610634940.786,61.035,43.457,53.711,50.781,40.527,0
1610634940.790,1.953,49.316,58.594,16.113,55.664,0
1610634940.794,-13.184,45.410,44.434,-8.301,38.086,0
1610634940.797,17.578,38.086,38.574,21.973,22.461,0
1610634940.801,63.477,31.250,23.926,56.641,19.531,0
1610634940.805,59.570,39.062,34.668,63.477,22.949,0
1610634940.809,2.441,44.922,45.898,18.066,-59.570,0
1610634940.813,-32.715,36.621,33.691,-29.297,-16.602,0
1610634940.814,-6.836,31.250,24.414,5.371,98.145,0
1610634940.818,51.270,35.645,25.879,63.477,117.188,0
1610634940.822,50.293,38.086,33.691,74.707,52.246,0
1610634940.826,11.230,41.016,40.527,35.645,14.648,0
1610634940.830,-3.906,53.711,43.457,-2.441,-3.418,0
1610634940.834,19.531,49.316,40.039,14.648,-59.570,0
1610634940.838,54.688,29.785,29.297,45.898,15.137,0
1610634940.841,62.500,30.273,39.062,59.570,39.551,0
1610634940.845,14.160,33.691,53.223,28.809,20.508,0
1610634940.849,-31.250,33.203,37.598,-23.926,-2.930,0
1610634940.853,-6.348,43.457,21.973,5.371,-49.805,0
1610634940.857,63.477,52.734,19.043,70.312,2.441,0
1610634940.860,80.566,49.316,27.832,81.055,31.250,0
1610634940.864,12.695,39.551,41.992,39.551,27.832,0
1610634940.868,-16.602,50.781,51.758,-2.930,6.836,0
1610634940.872,8.789,54.688,45.898,13.184,-73.242,0
1610634940.876,45.410,44.922,31.738,69.336,-40.527,0
1610634940.880,64.453,35.156,37.109,84.961,15.137,0
1610634940.884,15.625,19.043,40.527,30.273,29.785,0
1610634940.887,-21.484,32.227,35.645,-17.090,-9.766,0
1610634940.891,-3.906,49.805,32.715,-2.930,20.996,0
1610634940.895,43.457,45.410,24.902,47.852,29.785,0
1610634940.899,80.566,40.039,19.531,73.730,26.855,0
1610634940.903,32.715,42.480,18.555,37.598,31.250,0
1610634940.904,-24.414,44.434,35.156,-6.348,38.574,0
1610634940.908,-13.672,41.504,46.875,-1.953,113.770,0
1610634940.912,23.926,39.551,43.945,41.016,108.398,0
1610634940.916,69.824,40.527,45.898,69.336,95.215,0
1610634940.920,36.621,35.645,40.527,39.062,52.246,0
1610634940.924,-16.113,28.809,34.668,-6.348,-46.387,0
1610634940.928,-10.254,31.250,38.086,-9.766,-1.953,0
1610634940.931,26.855,36.133,32.715,27.832,77.637,0
1610634940.935,79.102,48.340,37.109,75.195,76.660,0
1610634940.939,61.523,51.758,54.688,68.848,67.383,0
1610634940.943,-9.277,34.668,60.547,3.418,43.945,0
1610634940.947,-32.227,30.273,51.758,-24.902,45.898,0
1610634940.949,12.207,33.691,37.109,28.320,7.324,0
1610634940.953,64.941,42.480,36.133,82.520,28.809,0
1610634940.957,53.223,49.805,39.062,62.012,62.988,0
1610634940.961,6.836,45.898,34.180,-0.977,32.227,0
1610634940.965,-22.461,40.039,39.062,-28.320,11.719,0
1610634940.969,8.301,41.016,47.852,12.207,53.711,0
1610634940.973,87.402,44.434,52.734,75.195,37.598,0
1610634940.976,77.637,40.527,44.922,72.754,25.391,0
1610634940.980,24.902,45.410,56.152,22.949,63.965,0
1610634940.984,6.836,49.805,59.082,-4.395,12.695,0
1610634940.988,32.715,54.688,45.898,33.203,9.766,0
1610634940.992,75.684,53.223,36.133,76.660,-19.043,0
1610634940.994,71.777,39.062,41.504,66.406,-24.902,0
1610634940.998,14.648,36.133,49.805,15.625,10.742,0
1610634941.002,-20.996,40.527,41.992,-35.645,-23.926,0
1610634941.006,-11.230,44.434,38.574,-2.930,-17.578,0
1610634941.010,55.176,47.363,40.039,69.824,-64.453,0
1610634941.014,91.309,52.734,40.527,89.844,-2.441,0
1610634941.018,37.598,49.316,39.062,38.574,25.879,0
1610634941.021,-11.719,45.410,47.852,-19.531,-30.762,0
1610634941.025,5.371,48.828,47.363,1.465,-34.180,0
1610634941.029,69.824,57.129,41.504,61.035,-11.230,0
1610634941.033,85.449,55.176,53.711,78.613,83.008,0
1610634941.037,26.367,40.039,51.270,30.273,75.195,0
1610634941.039,-14.648,39.062,45.898,-13.184,23.438,0
1610634941.043,8.301,41.992,37.598,4.395,58.105,0
1610634941.047,48.340,31.738,24.902,53.223,29.785,0
1610634941.051,81.055,40.527,35.156,81.055,14.160,0
1610634941.055,51.270,46.875,41.016,48.340,33.691,0
1610634941.059,-14.648,30.273,36.133,-21.484,24.902,0
1610634941.063,-26.367,34.668,46.387,-19.531,24.902,0
1610634941.066,38.574,41.016,46.387,38.086,62.500,0
1610634941.070,83.496,43.945,45.410,77.148,51.758,0
1610634941.074,47.852,54.688,63.965,67.871,48.828,0
1610634941.078,14.648,62.500,62.988,24.902,19.531,0
1610634941.082,9.766,58.594,55.176,4.883,2.441,0
1610634941.099,53.223,49.805,55.176,40.527,59.082,0
1610634941.103,93.750,41.992,48.828,70.312,80.566,0
1610634941.107,48.828,37.109,53.223,44.922,129.395,0
1610634941.111,0.488,41.504,52.246,4.883,64.941,0
1610634941.115,-1.465,44.434,56.152,-7.812,20.508,0
1610634941.119,44.434,45.898,51.758,39.551,-22.461,0
1610634941.123,103.516,49.316,51.270,98.145,-50.293,0
1610634941.126,48.340,56.152,60.547,73.730,20.020,0
1610634941.130,-3.906,65.918,60.059,20.508,22.461,0
1610634941.134,36.133,82.031,65.918,20.996,24.414,0
1610634941.138,47.852,74.707,67.871,43.457,84.961,0
1610634941.142,65.918,47.363,47.852,60.059,45.898,0
1610634941.144,59.082,41.016,51.758,60.059,-15.137,0
1610634941.148,13.184,41.504,68.848,10.742,43.945,0
1610634941.152,-16.113,42.480,54.199,-17.090,66.406,0
1610634941.156,17.578,49.316,41.504,27.344,35.156,0
1610634941.160,80.078,45.898,33.203,61.035,26.367,0
1610634941.164,52.246,36.621,26.855,60.059,38.574,0
1610634941.168,-0.977,47.363,36.133,31.738,-1.465,0
1610634941.171,-19.531,44.922,36.133,-18.066,-2.441,0
1610634941.175,8.789,45.898,37.109,13.672,-13.672,0
1610634941.179,70.312,49.316,40.039,71.777,-41.016,0
1610634941.183,82.520,45.898,50.781,80.566,38.086,0
1610634941.187,19.043,33.203,47.363,32.227,45.410,0
1610634941.189,-35.645,27.344,26.855,-26.367,17.090,0
1610634941.193,-10.254,40.039,39.062,-2.930,82.520,0
1610634941.197,38.574,33.691,50.293,41.992,45.898,0
1610634941.201,51.758,34.180,50.781,62.500,58.594,0
1610634941.205,18.555,38.086,48.828,39.062,73.242,0
1610634941.209,-12.207,40.527,39.551,-4.395,20.996,0
1610634941.213,17.090,49.805,40.039,8.301,-13.672,0
1610634941.216,74.219,46.387,37.109,60.547,23.438,0
1610634941.220,97.168,39.062,23.438,68.359,88.867,0
1610634941.224,62.012,43.457,44.922,43.945,22.949,0
1610634941.228,3.418,42.480,61.035,3.906,11.719,0
1610634941.232,-0.488,39.551,56.152,11.719,18.555,0
1610634941.234,36.621,32.227,50.781,58.594,11.719,0
1610634941.238,49.316,29.297,49.316,71.289,62.500,0
1610634941.242,14.160,29.785,43.945,41.016,53.223,0
1610634941.246,-15.625,25.391,37.598,-14.160,30.273,0
1610634941.250,-6.836,44.922,38.574,-6.836,0.000,0
1610634941.254,45.410,58.594,41.504,51.758,-50.293,0
1610634941.258,77.148,42.480,51.758,79.102,-1.465,0
1610634941.261,42.480,35.645,59.082,51.270,48.828,0
1610634941.265,-4.395,41.992,61.523,5.371,53.223,0
1610634941.269,-21.973,40.039,54.688,-5.371,18.066,0
1610634941.273,8.301,27.344,37.109,20.996,-11.719,0
1610634941.277,60.059,24.414,35.156,51.270,40.527,0
1610634941.279,42.480,28.809,49.316,50.781,98.145,0
1610634941.283,-9.766,25.391,53.223,1.465,43.457,0
1610634941.287,-13.672,41.992,47.363,-12.207,24.902,0
1610634941.291,38.574,55.664,42.969,36.133,6.836,0
1610634941.295,73.242,39.551,42.480,69.824,31.250,0
1610634941.299,57.129,35.645,45.898,64.453,50.293,0
1610634941.303,14.648,41.504,48.340,24.902,9.277,0
1610634941.306,-9.766,43.945,48.828,-13.672,18.066,0
1610634941.310,26.367,50.293,48.340,15.625,27.832,0
1610634941.314,65.918,43.945,37.598,58.594,-25.879,0
1610634941.318,49.316,35.645,45.410,52.734,-22.949,0
1610634941.322,-5.859,27.832,47.363,-1.465,34.180,0
1610634941.325,-21.484,27.344,31.738,-41.016,-43.945,0
1610634941.329,0.488,31.250,34.180,0.000,-56.641,0
1610634941.333,53.223,31.738,37.598,63.477,22.461,0
1610634941.337,52.246,40.039,46.875,87.891,38.574,0
1610634941.341,9.766,46.875,55.664,35.156,97.656,0
1610634941.345,-6.836,37.109,46.875,-22.461,48.340,0
1610634941.349,10.254,43.457,43.945,8.301,6.836,0
1610634941.352,65.918,53.711,49.805,68.359,25.391,0
1610634941.356,69.336,38.574,58.594,53.711,29.785,0
1610634941.360,0.488,27.344,63.965,4.883,58.105,0
1610634941.364,-36.133,32.227,57.617,-30.762,61.035,0
1610634941.368,-12.207,41.016,50.781,-19.043,37.598,0
1610634941.369,41.992,36.133,47.363,41.016,38.574,0
1610634941.373,54.199,30.762,40.527,70.801,89.355,0
1610634941.377,21.484,41.504,38.086,41.016,39.062,0
1610634941.381,4.395,50.781,36.621,-12.207,-20.996,0
1610634941.385,3.906,49.316,34.180,-16.113,-34.180,0
1610634941.389,45.898,51.270,25.391,44.434,-26.367,0
1610634941.393,92.773,53.711,29.297,88.379,9.766,0
1610634941.396,44.922,50.781,43.945,47.852,30.762,0
1610634941.400,-17.090,40.039,40.527,-15.625,-13.184,0
1610634941.404,-10.254,34.180,40.039,-18.066,-23.438,0
1610634941.408,38.086,41.992,49.316,41.504,44.434,0
1610634941.412,80.566,41.992,52.734,80.566,40.039,0
1610634941.429,41.504,43.945,50.293,44.434,78.125,0
1610634941.433,-8.301,40.039,40.527,-8.789,31.738,0
1610634941.437,5.859,36.133,52.734,-0.977,-19.043,0
1610634941.441,35.645,42.480,57.129,43.945,11.719,0
1610634941.445,72.266,42.480,42.969,71.777,46.875,0
1610634941.449,45.410,44.922,22.461,66.406,57.617,0
1610634941.453,-8.789,48.340,23.438,21.973,55.176,0
1610634941.456,-13.672,46.387,41.504,-17.090,-1.465,0
1610634941.460,21.484,42.480,47.363,19.043,11.719,0
1610634941.464,76.660,38.086,44.922,67.871,70.801,0
1610634941.468,52.734,39.062,40.527,55.664,15.625,0
1610634941.472,-17.578,38.574,34.668,6.348,-32.227,0
1610634941.475,-21.973,36.621,35.156,-14.648,-22.949,0
1610634941.479,31.738,44.922,43.457,31.738,-27.832,0
1610634941.483,74.707,33.691,26.367,67.871,12.695,0
1610634941.487,37.598,25.391,16.602,51.758,32.227,0
1610634941.491,-16.602,35.645,21.484,11.719,23.926,0
1610634941.495,-24.414,41.504,22.949,-15.137,37.109,0
1610634941.499,10.742,48.828,32.715,25.879,17.578,0
1610634941.502,79.102,53.711,42.480,83.984,17.090,0
1610634941.506,70.312,47.363,43.945,76.172,44.922,0
1610634941.510,0.000,37.598,34.668,15.137,69.824,0
1610634941.514,-26.367,37.598,31.738,-22.461,22.461,0
1610634941.518,0.488,41.504,41.992,8.789,-16.113,0
1610634941.520,56.641,40.039,40.527,63.965,1.465,0
1610634941.524,84.961,43.457,37.598,76.660,17.090,0
1610634941.528,32.227,47.363,30.762,41.992,20.996,0
1610634941.532,-21.484,40.527,32.227,-3.418,-44.434,0
1610634941.536,-7.812,29.297,34.180,1.953,35.645,0
1610634941.540,48.340,26.367,26.367,40.039,106.934,0
1610634941.544,83.008,41.016,33.203,60.547,49.805,0
1610634941.547,36.621,58.105,46.387,47.363,-10.742,0
1610634941.551,-18.066,42.969,28.320,-10.742,-23.438,0
1610634941.555,-23.926,24.414,13.672,-11.719,10.254,0
1610634941.559,42.480,37.109,23.438,54.199,20.020,0
1610634941.563,86.914,49.316,29.297,81.055,17.578,0
1610634941.564,44.922,47.852,15.625,46.387,29.785,0
1610634941.568,-6.348,41.992,-0.977,-7.324,-19.043,0
1610634941.572,-16.113,34.668,10.254,-13.184,-19.043,0
1610634941.576,41.504,40.527,33.691,44.434,51.270,0
1610634941.580,80.078,41.504,39.551,90.820,68.848,0
1610634941.584,32.227,30.273,18.066,58.594,63.477,0
1610634941.588,-18.555,30.273,14.648,0.977,14.648,0
1610634941.591,-4.883,45.410,30.762,-2.441,-15.625,0
1610634941.595,43.457,45.410,24.902,39.062,10.742,0
1610634941.599,73.730,30.762,23.926,62.500,34.668,0
1610634941.603,46.875,34.180,37.109,50.781,58.594,0
1610634941.607,-1.953,43.945,41.016,9.766,19.043,0
1610634941.609,-7.812,46.387,33.691,-17.090,32.227,0
1610634941.613,20.996,50.293,26.367,28.320,34.668,0
1610634941.617,74.707,50.781,39.551,85.449,-4.395,0
1610634941.621,80.566,47.852,63.965,80.078,-4.883,0
1610634941.625,4.395,36.621,60.059,14.160,2.441,0
1610634941.629,-18.066,32.227,43.457,-22.461,36.133,0
1610634941.633,22.461,36.133,41.992,27.832,-20.020,0
1610634941.636,81.543,44.922,48.340,80.078,-21.973,0
1610634941.640,76.660,51.758,58.105,63.965,41.504,0
1610634941.644,-1.465,39.062,55.664,10.254,-13.184,0
1610634941.648,-20.508,36.133,47.363,-21.484,-56.152,0
1610634941.652,19.531,51.758,56.641,23.438,-1.953,0
1610634941.655,77.148,55.664,53.711,80.566,36.133,0
1610634941.659,62.500,44.434,42.480,71.777,44.922,0
1610634941.663,9.766,37.598,44.922,17.090,57.617,0
1610634941.667,-23.438,41.504,55.176,-14.160,74.707,0
1610634941.671,1.953,50.781,53.223,24.414,84.473,0
1610634941.675,74.707,55.176,35.156,78.125,71.777,0
1610634941.679,99.609,63.477,40.039,92.773,114.746,0
1610634941.682,40.527,60.059,50.293,48.340,102.539,0
1610634941.686,-12.695,42.480,53.223,-7.812,41.504,0
1610634941.690,15.137,40.039,51.758,18.066,36.133,0
1610634941.694,71.777,41.504,43.457,88.867,38.086,0
1610634941.698,87.891,45.898,39.062,99.121,10.742,0
1610634941.699,39.062,43.945,41.992,42.480,-31.738,0
1610634941.703,-15.137,36.621,56.152,-18.066,-44.922,0
1610634941.707,3.906,44.434,64.453,-3.906,43.945,0
1610634941.711,57.129,47.363,60.059,61.523,97.168,0
1610634941.715,81.055,39.551,50.781,78.125,31.738,0
1610634941.719,39.062,46.875,54.688,46.387,62.012,0
1610634941.723,2.930,54.688,48.340,6.348,38.086,0
1610634941.726,15.137,50.293,51.270,14.648,-13.184,0
1610634941.730,62.988,46.875,71.777,70.801,-2.930,0
1610634941.734,86.914,50.781,60.059,101.074,44.922,0
1610634941.738,24.902,37.598,31.738,53.711,18.066,0
1610634941.742,-14.648,30.273,29.297,-9.766,-25.391,0
1610634941.744,-12.207,36.621,45.898,-13.672,28.809,0
1610634941.748,31.250,35.156,50.293,36.133,36.621,0
1610634941.752,78.125,42.480,53.711,76.660,1.465,0
1610634941.756,49.316,49.805,52.734,57.617,19.531,0
1610634941.760,2.930,41.504,46.875,5.371,34.668,0
1610634941.764,-1.953,46.387,58.594,2.930,31.738,0
1610634941.768,50.293,60.059,54.199,63.477,47.363,0
1610634941.771,100.098,49.805,25.879,97.168,1.953,0
1610634941.775,73.242,40.039,33.203,66.406,22.461,0
1610634941.779,13.672,46.387,55.664,18.066,71.289,0
1610634941.783,9.766,55.176,53.711,7.324,49.316,0
1610634941.787,24.902,54.688,38.086,30.762,57.617,0
1610634941.790,58.105,41.016,29.785,58.105,38.086,0
1610634941.794,55.176,35.645,32.227,55.176,-15.137,0
1610634941.798,5.859,43.945,41.992,18.555,-5.859,0
1610634941.802,-0.977,47.363,48.828,-8.301,25.391,0
1610634941.806,38.574,55.664,52.246,25.879,-0.488,0
1610634941.810,76.660,56.152,45.410,80.078,-16.602,0
1610634941.814,69.336,45.898,42.480,75.195,-12.207,0
1610634941.817,8.301,44.434,48.340,24.902,14.648,0
1610634941.821,-6.348,48.340,53.711,7.324,-22.949,0
1610634941.825,24.414,51.270,63.477,24.902,-61.523,0
1610634941.829,57.617,44.434,60.547,47.852,18.555,0
1610634941.833,60.547,45.898,56.152,64.941,19.043,0
1610634941.850,14.160,54.688,63.477,35.645,0.488,0
1610634941.854,-4.395,51.270,54.199,-11.230,39.062,0
1610634941.858,4.883,43.945,38.574,11.719,44.922,0
1610634941.862,46.387,35.645,42.480,69.824,46.875,0
1610634941.866,73.242,39.551,50.781,86.914,30.273,0
1610634941.870,34.668,49.805,35.645,49.316,-19.531,0
1610634941.874,-5.371,50.293,30.762,-3.418,-22.461,0
1610634941.877,8.301,52.734,62.988,18.555,-49.805,0
1610634941.881,72.266,51.270,65.430,82.520,-13.184,0
1610634941.885,102.539,42.480,42.480,87.891,69.336,0
1610634941.889,44.434,39.551,59.570,41.992,33.691,0
1610634941.893,-4.883,48.340,76.172,4.883,34.180,0
1610634941.894,-1.465,53.711,66.895,11.719,85.449,0
1610634941.898,41.016,48.828,47.852,56.641,34.668,0
1610634941.902,61.035,42.969,39.551,84.961,51.758,0
1610634941.906,16.113,41.504,38.086,42.969,48.828,0
1610634941.910,-14.648,41.992,39.062,-11.230,38.574,0
1610634941.914,-10.254,37.598,37.598,-6.348,38.574,0
1610634941.918,39.551,44.434,35.156,43.457,18.066,0
1610634941.921,100.586,57.617,37.598,87.891,34.668,0
1610634941.925,68.848,45.898,25.879,41.504,71.777,0
1610634941.929,-3.418,39.062,28.809,-22.461,64.941,0
1610634941.933,-20.020,45.898,41.992,-24.902,19.043,0
1610634941.937,18.555,45.898,40.039,24.902,53.711,0
1610634941.939,74.219,46.387,44.922,74.219,67.383,0
1610634941.943,41.992,42.969,45.410,53.223,36.133,0
1610634941.947,-15.137,47.363,47.363,8.301,77.148,0
1610634941.951,-15.625,49.316,44.434,-4.883,85.449,0
1610634941.955,26.367,41.016,40.039,33.691,36.133,0
1610634941.959,74.219,39.551,43.945,69.824,27.832,0
1610634941.963,45.898,38.574,40.039,45.898,26.367,0
1610634941.966,-11.230,35.645,26.855,1.953,-3.906,0
1610634941.970,-16.602,38.086,9.277,-29.785,-7.812,0
1610634941.974,2.930,40.039,22.949,6.836,18.555,0
1610634941.978,44.434,26.367,46.875,68.359,17.090,0
1610634941.982,56.641,32.715,46.875,61.523,30.273,0
1610634941.984,5.371,45.898,43.457,6.836,44.434,0
1610634941.988,-11.719,49.316,42.480,-12.207,72.754,0
1610634941.992,-0.977,50.293,35.645,22.949,68.848,0
1610634941.996,47.363,43.457,32.715,58.105,71.777,0
1610634942.000,76.660,50.293,47.852,65.430,80.566,0
1610634942.004,12.207,50.293,50.781,14.160,77.637,0
1610634942.008,-30.762,40.039,40.039,-32.715,44.434,0
1610634942.011,-1.953,33.691,29.785,-0.488,21.484,0
1610634942.015,55.176,35.645,36.621,59.570,9.766,0
1610634942.019,66.406,41.504,45.898,67.383,18.555,0
1610634942.023,26.367,44.434,48.340,26.367,48.340,0
1610634942.027,-5.859,43.457,44.434,-22.461,31.250,0
1610634942.029,12.207,58.594,43.457,8.301,-43.457,0
1610634942.033,62.988,62.500,33.203,68.848,2.930,0
1610634942.037,57.617,36.621,30.273,74.707,32.227,0
1610634942.041,17.578,38.086,41.016,37.598,-19.043,0
1610634942.045,-7.324,46.875,41.992,-18.066,-17.578,0
1610634942.049,-12.695,33.691,38.086,-6.348,-23.926,0
1610634942.053,59.082,46.387,41.504,62.988,38.574,0
1610634942.056,92.285,59.570,51.758,89.844,90.820,0
1610634942.060,36.133,41.504,45.410,43.457,87.402,0
1610634942.064,-10.742,29.297,33.691,-25.391,108.398,0
1610634942.068,-17.090,29.785,26.855,-21.484,97.168,0
1610634942.072,29.785,37.109,26.855,41.504,-3.906,0
1610634942.075,75.684,41.504,28.809,67.871,52.734,0
1610634942.079,44.434,43.945,36.133,52.246,86.426,0
1610634942.083,-17.090,43.457,39.062,8.301,12.695,0
1610634942.087,-11.719,40.039,32.715,0.488,-15.625,0
1610634942.091,56.641,48.340,31.738,54.199,-18.066,0
1610634942.095,91.797,47.852,39.062,86.426,22.949,0
1610634942.099,58.594,41.504,53.223,58.594,48.340,0
1610634942.102,-11.230,44.434,57.617,5.859,57.617,0
1610634942.106,-20.020,47.852,53.223,-10.742,5.371,0
1610634942.110,37.598,52.246,51.270,40.527,14.648,0
1610634942.114,78.125,48.340,53.223,75.684,64.941,0
1610634942.118,60.547,43.457,54.199,56.641,31.250,0
1610634942.119,16.113,50.781,55.176,17.578,8.301,0
1610634942.123,2.441,46.875,47.363,-2.441,-17.090,0
1610634942.127,22.461,38.086,42.969,22.949,-13.184,0
1610634942.131,72.266,48.340,53.223,73.730,15.625,0
1610634942.135,67.871,55.176,54.199,70.312,-17.578,0
1610634942.139,7.324,47.363,44.434,7.812,-41.504,0
1610634942.143,-3.906,45.898,44.434,-20.996,-62.500,0
1610634942.146,39.551,50.781,30.762,25.391,-4.395,0
1610634942.150,82.031,52.734,31.250,78.125,63.477,0
1610634942.154,71.777,42.480,54.688,77.148,45.410,0
1610634942.158,13.184,35.156,53.711,27.344,18.555,0
1610634942.162,-8.301,45.410,50.781,-3.418,-15.137,0
1610634942.179,16.113,46.387,48.340,32.227,38.086,0
1610634942.183,59.570,44.434,36.621,66.895,111.816,0
1610634942.187,92.773,55.664,57.617,77.637,94.727,0
1610634942.191,41.992,61.523,73.242,43.945,4.883,0
1610634942.195,-17.578,54.688,53.711,-21.973,-29.297,0
1610634942.199,-4.395,46.387,41.016,-5.859,1.953,0
1610634942.203,47.363,40.039,41.504,54.688,55.664,0
1610634942.206,65.430,46.387,42.969,70.801,112.305,0
1610634942.210,6.348,48.340,40.527,37.109,99.121,0
1610634942.214,-27.832,39.551,35.645,-8.789,52.734,0
1610634942.218,2.930,36.133,33.691,6.348,17.578,0
1610634942.222,53.711,39.062,44.922,67.871,45.410,0
1610634942.224,86.426,47.363,57.617,96.680,34.668,0
1610634942.228,39.551,43.457,57.617,57.617,50.781,0
1610634942.232,-16.602,30.762,44.922,0.000,79.590,0
1610634942.236,-1.465,36.133,39.551,-0.488,41.016,0
1610634942.240,54.199,41.016,45.898,57.129,25.879,0
1610634942.244,83.984,35.156,47.363,79.590,32.227,0
1610634942.248,43.457,41.016,51.758,58.105,18.555,0
1610634942.251,-5.371,46.387,49.805,6.348,8.789,0
1610634942.255,-7.812,41.504,45.898,-8.301,-5.859,0
1610634942.259,41.504,35.645,38.574,43.457,-16.602,0
1610634942.263,89.844,38.574,41.016,74.707,31.738,0
1610634942.267,45.898,41.016,50.293,54.688,22.949,0
1610634942.269,-2.930,44.434,49.316,12.695,-74.219,0
1610634942.273,-0.977,41.016,34.180,0.977,-63.965,0
1610634942.277,26.367,32.715,28.320,30.762,22.949,0
1610634942.281,67.871,39.551,40.527,70.801,52.246,0
1610634942.285,62.988,55.176,43.945,65.918,78.613,0
1610634942.289,10.742,49.805,47.363,18.066,53.223,0
1610634942.293,-8.301,35.645,50.781,-15.625,15.137,0
1610634942.296,16.113,32.715,48.340,23.926,13.672,0
1610634942.300,66.895,39.062,42.969,78.613,46.387,0
1610634942.304,65.430,43.945,35.645,65.918,79.590,0
1610634942.308,-0.977,39.062,37.598,22.461,39.062,0
1610634942.312,-18.555,34.180,37.109,2.441,8.301,0
1610634942.315,8.301,35.645,25.879,17.090,21.973,0
1610634942.319,58.594,46.387,42.480,64.941,24.414,0
1610634942.323,64.453,44.434,62.500,63.477,44.434,0
1610634942.327,9.277,37.109,66.406,10.254,39.551,0
1610634942.331,-11.230,41.504,56.641,-15.625,-28.809,0
1610634942.335,9.766,37.598,41.016,12.695,5.371,0
1610634942.339,63.965,36.621,45.898,60.059,51.758,0
1610634942.342,78.613,38.574,48.828,73.730,106.445,0
1610634942.346,25.879,44.922,49.316,32.227,122.559,0
1610634942.350,2.930,51.758,42.969,-10.254,36.133,0
1610634942.354,13.184,46.875,29.297,14.160,30.273,0
1610634942.358,55.664,37.598,29.297,68.359,4.395,0
1610634942.359,80.566,38.086,42.969,73.242,-20.020,0
1610634942.363,22.949,38.086,49.316,19.531,31.250,0
1610634942.367,-21.973,34.668,44.922,-22.461,30.762,0
1610634942.371,-1.953,37.109,42.969,-0.488,22.949,0
1610634942.375,49.805,36.621,41.016,53.223,-12.207,0
1610634942.379,78.125,29.297,41.016,76.660,-15.625,0
1610634942.383,36.621,36.621,44.434,46.387,18.555,0
1610634942.386,-4.883,44.434,26.367,-0.977,-10.254,0
1610634942.390,-5.371,41.992,18.555,0.977,20.020,0
1610634942.394,39.551,49.316,39.062,46.387,64.453,0
1610634942.398,80.078,51.270,43.457,80.566,61.035,0
1610634942.402,43.945,44.922,38.574,49.316,10.254,0
1610634942.404,-0.977,41.504,38.574,-2.930,16.602,0
1610634942.408,-3.418,35.156,34.668,-9.766,13.184,0
1610634942.412,43.945,45.410,27.832,48.828,21.973,0
1610634942.416,99.121,61.523,35.645,103.027,55.176,0
1610634942.420,60.547,57.617,36.621,68.848,22.461,0
1610634942.424,-3.418,45.410,22.461,1.953,16.602,0
1610634942.428,-10.742,40.039,27.832,-3.418,55.664,0
1610634942.431,30.762,38.574,27.344,39.551,42.480,0
1610634942.435,86.914,41.992,23.926,70.801,13.184,0
1610634942.439,58.594,46.387,35.645,55.664,-9.766,0
1610634942.443,-7.324,51.758,41.016,15.625,-20.996,0
1610634942.447,-17.578,43.457,33.691,-4.883,32.227,0
1610634942.449,29.785,37.109,33.203,34.180,38.574,0
1610634942.453,89.355,47.363,41.992,92.285,10.742,0
1610634942.457,65.430,50.293,45.898,69.336,51.270,0
1610634942.461,3.418,43.457,50.293,13.672,67.871,0
1610634942.465,-5.371,49.316,55.664,2.441,54.688,0
1610634942.469,40.527,52.734,52.734,25.391,53.223,0
1610634942.473,78.125,36.133,43.457,55.664,53.223,0
1610634942.476,51.270,28.809,38.086,47.852,45.898,0
1610634942.480,0.000,42.480,52.246,-0.488,22.461,0
1610634942.484,-7.812,52.246,58.105,-18.555,25.391,0
1610634942.488,26.367,55.664,48.340,23.926,-18.066,0
1610634942.492,78.613,59.570,53.223,67.383,-39.551,0
1610634942.494,77.148,55.664,58.594,62.988,53.711,0
1610634942.498,21.973,50.781,41.016,24.902,53.223,0
1610634942.502,-13.672,43.457,34.180,-16.602,13.672,0
1610634942.506,5.859,39.551,41.504,4.883,36.621,0
1610634942.510,60.547,40.527,39.062,61.523,32.715,0
1610634942.514,59.082,40.527,39.551,62.500,30.273,0
1610634942.518,4.395,39.551,40.039,19.043,22.949,0
1610634942.521,-22.949,40.527,40.039,-19.043,32.227,0
1610634942.525,-3.418,47.852,45.410,-2.441,24.902,0
1610634942.529,49.805,44.922,43.945,46.387,33.691,0
1610634942.533,65.918,37.109,44.922,63.965,54.688,0
1610634942.537,16.602,38.574,52.246,20.996,29.785,0
1610634942.540,-26.855,43.457,55.664,-20.020,36.133,0
1610634942.544,-11.719,38.086,47.363,-10.254,-5.859,0
1610634942.548,25.879,20.508,31.250,39.062,41.504,0
1610634942.552,61.035,35.645,32.227,68.848,62.988,0
1610634942.556,44.434,54.688,37.109,41.504,61.035,0
1610634942.560,-2.930,48.828,16.602,-0.488,35.645,0
1610634942.564,-11.230,44.922,24.902,-2.441,-21.484,0
1610634942.567,31.738,41.504,42.969,36.133,-22.461,0
1610634942.571,83.008,45.410,44.922,72.754,-36.621,0
1610634942.575,41.992,56.641,58.594,61.035,32.227,0
1610634942.579,-17.090,53.711,58.594,2.441,0.977,0
1610634942.583,-15.137,44.922,46.387,-10.254,27.832,0
1610634942.600,7.812,38.574,30.273,34.180,124.512,0
1610634942.604,63.965,36.621,37.109,66.406,70.312,0
1610634942.608,45.898,37.109,42.480,54.688,54.199,0
1610634942.612,-16.113,39.551,33.203,3.906,17.578,0
1610634942.616,-23.438,45.410,42.969,-15.137,-34.668,0
1610634942.620,20.020,40.527,35.156,24.414,-13.672,0
1610634942.624,69.824,34.668,26.367,66.895,38.086,0
1610634942.627,47.363,38.086,39.062,48.828,58.594,0
1610634942.631,0.000,47.363,48.828,0.488,38.574,0
1610634942.635,-2.930,47.363,49.316,-21.973,9.277,0
1610634942.639,28.320,40.039,47.363,16.113,16.602,0
1610634942.643,71.289,55.664,47.852,70.312,43.457,0
1610634942.645,47.852,63.965,51.270,66.406,27.832,0
1610634942.649,-25.391,49.316,46.387,8.789,25.391,0
1610634942.653,-36.133,42.969,36.133,-28.809,56.641,0
1610634942.657,3.906,43.457,34.668,9.277,60.059,0
1610634942.661,49.316,41.992,28.809,56.641,45.898,0
1610634942.665,44.922,44.922,31.250,52.246,25.879,0
1610634942.669,-15.137,46.875,45.410,-3.906,-22.949,0
1610634942.672,-55.664,38.086,53.223,-45.410,-3.906,0
1610634942.676,-28.809,37.598,57.129,-17.090,23.926,0
1610634942.680,26.855,51.758,52.734,31.738,3.418,0
1610634942.684,23.438,57.617,54.199,38.086,3.418,0
1610634942.688,-32.227,56.641,60.059,-7.812,-19.043,0
1610634942.690,-58.105,50.293,61.035,-53.711,-31.738,0
1610634942.694,-45.898,43.945,54.199,-49.316,-7.324,0
1610634942.698,-22.949,47.363,48.828,-10.254,-18.066,0
1610634942.702,-7.812,54.199,48.340,-2.930,40.527,0
1610634942.706,-50.781,55.176,50.293,-61.035,51.758,0
1610634942.710,-95.215,49.316,49.805,-107.910,12.695,0
1610634942.714,-98.633,52.734,46.875,-95.703,-14.160,0
1610634942.717,-64.453,60.547,41.504,-59.570,-10.254,0
1610634942.721,-26.855,63.965,37.598,-37.598,49.316,0
1610634942.725,-81.055,61.523,49.805,-70.312,83.496,0
1610634942.729,-124.023,61.035,62.012,-116.699,10.254,0
1610634942.733,-93.262,72.266,62.012,-86.426,-15.625,0
1610634942.734,-45.410,67.871,53.223,-33.203,27.832,0
1610634942.738,-25.879,59.570,43.945,-22.949,83.984,0
1610634942.742,-56.641,50.781,42.480,-46.875,82.520,0
1610634942.746,-90.332,46.387,47.363,-84.961,41.504,0
1610634942.750,-102.051,51.758,45.410,-95.215,59.082,0
1610634942.754,-42.480,51.270,35.645,-47.852,35.645,0
1610634942.758,21.973,53.223,34.180,-1.465,63.965,0
1610634942.761,-1.953,58.594,37.598,-8.789,20.996,0
1610634942.765,-58.594,57.617,43.945,-57.617,-34.668,0
1610634942.769,-68.359,47.363,39.062,-80.566,25.879,0
1610634942.773,-13.672,45.898,28.320,-24.902,42.969,0
1610634942.777,53.223,45.898,31.250,28.809,61.035,0
1610634942.780,40.039,49.805,37.598,29.297,14.648,0
1610634942.784,-29.785,43.457,38.086,-17.578,-31.738,0
1610634942.788,-37.598,36.621,35.645,-36.133,-9.766,0
1610634942.792,18.555,42.480,16.602,20.508,27.344,0
1610634942.796,77.637,42.480,10.742,81.543,36.133,0
1610634942.800,66.895,39.551,38.086,67.383,-8.789,0
1610634942.804,3.418,39.551,47.852,0.977,57.129,0
1610634942.807,-16.113,42.969,36.133,-15.137,49.316,0
1610634942.811,32.227,44.922,33.203,38.574,-60.547,0
1610634942.815,86.914,48.340,42.480,90.820,4.395,0
1610634942.819,83.496,42.969,41.992,90.332,80.078,0
1610634942.823,31.738,32.227,35.645,39.551,32.715,0
1610634942.824,14.648,45.410,35.645,20.508,20.020,0
1610634942.828,44.434,59.082,36.133,57.129,45.410,0
1610634942.832,86.426,50.293,35.156,99.609,53.711,0
1610634942.836,109.375,45.898,40.039,111.328,32.227,0
1610634942.840,54.688,46.387,38.086,67.871,-19.531,0
1610634942.844,15.625,41.504,34.668,22.461,-2.441,0
1610634942.848,38.086,35.645,35.645,33.691,10.254,0
1610634942.851,96.680,41.992,36.133,87.402,26.367,0
1610634942.855,123.535,60.059,47.852,118.164,62.012,0
1610634942.859,75.195,57.129,46.875,84.961,63.965,0
1610634942.863,16.602,33.203,32.227,27.344,56.641,0
1610634942.867,27.344,35.645,35.645,33.691,22.949,0
1610634942.869,91.797,38.086,31.250,87.402,37.109,0
1610634942.873,114.258,46.387,37.109,117.676,51.758,0
1610634942.877,67.871,60.547,46.387,81.543,7.812,0
1610634942.881,25.391,48.828,35.156,28.320,11.230,0
1610634942.885,22.949,44.434,25.879,47.363,2.441,0
1610634942.889,88.379,46.875,16.602,104.980,-33.203,0
1610634942.893,128.906,54.688,31.738,124.023,30.762,0
1610634942.896,75.195,58.594,57.129,78.613,54.199,0
1610634942.900,17.090,46.387,53.711,17.090,-1.465,0
1610634942.904,17.578,39.551,41.504,22.461,-62.988,0
1610634942.908,70.801,39.551,43.457,85.938,-36.133,0
1610634942.912,108.887,38.086,40.039,116.699,64.941,0
1610634942.929,69.336,43.945,33.691,87.891,41.016,0
1610634942.933,22.949,42.969,38.574,41.992,58.105,0
1610634942.937,20.020,45.898,43.945,25.391,67.383,0
1610634942.941,71.777,59.570,49.805,62.988,20.020,0
1610634942.945,109.375,53.711,51.270,99.609,40.039,0
1610634942.949,67.871,39.551,30.762,87.891,80.566,0
1610634942.953,22.949,38.574,20.020,32.715,28.809,0
1610634942.956,16.113,43.457,35.645,2.930,-27.344,0
1610634942.960,62.012,44.434,47.363,57.129,12.207,0
1610634942.964,97.656,36.621,55.176,100.098,38.574,0
1610634942.968,75.195,34.668,59.082,74.219,46.875,0
1610634942.972,8.789,37.109,55.664,23.926,6.836,0
1610634942.974,-14.160,34.668,42.969,1.953,-15.137,0
1610634942.978,25.391,29.297,32.227,34.180,11.719,0
1610634942.982,78.613,31.738,38.574,76.172,78.613,0
1610634942.986,82.031,41.992,44.434,78.125,19.043,0
1610634942.990,38.086,57.129,42.969,50.781,3.418,0
1610634942.994,16.113,48.340,39.551,20.508,33.203,0
1610634942.998,24.902,31.250,36.133,39.062,3.418,0
1610634943.001,80.078,42.480,42.969,85.938,-13.184,0
1610634943.005,90.820,48.340,50.293,83.984,19.531,0
1610634943.009,33.203,42.480,48.828,39.551,54.688,0
1610634943.013,-4.883,46.387,52.734,7.324,39.551,0
1610634943.017,19.043,35.645,37.109,20.508,32.715,0
1610634943.020,62.500,28.320,30.762,72.754,11.230,0
1610634943.024,78.125,40.039,41.016,87.891,50.781,0
1610634943.028,30.762,39.551,42.969,28.809,42.480,0
1610634943.032,-14.160,34.180,37.598,-12.695,-13.184,0
1610634943.036,20.508,45.410,35.156,16.602,-37.598,0
1610634943.040,74.219,48.828,36.133,85.449,-49.316,0
1610634943.044,94.238,42.969,36.133,105.469,43.945,0
1610634943.047,40.527,36.133,37.598,44.922,45.410,0
1610634943.051,-15.625,32.715,40.039,-9.277,15.625,0
1610634943.055,4.883,41.016,43.945,6.348,35.645,0
1610634943.059,55.664,47.363,40.039,60.547,28.320,0
1610634943.063,83.008,44.922,38.574,96.191,40.039,0
1610634943.065,46.875,50.293,51.758,85.449,39.062,0
1610634943.069,-4.883,49.805,46.875,23.926,29.297,0
1610634943.073,3.418,39.062,37.109,-2.930,43.457,0
1610634943.077,40.527,32.227,48.340,41.016,21.484,0
1610634943.081,71.289,25.879,45.410,71.289,66.895,0
1610634943.085,48.340,32.227,42.969,54.199,71.289,0
1610634943.089,0.977,39.551,62.500,7.812,17.578,0
1610634943.092,-6.348,40.039,50.781,0.488,30.762,0
1610634943.096,26.855,35.156,30.273,48.340,21.973,0
1610634943.100,67.871,29.297,46.875,77.148,-1.465,0
1610634943.104,42.969,34.668,48.340,61.035,-17.578,0
1610634943.108,-7.324,41.016,41.992,4.883,1.953,0
1610634943.110,-10.254,49.805,60.547,-12.695,35.156,0
1610634943.114,38.086,53.223,64.941,46.387,60.547,0
1610634943.118,72.266,41.504,50.293,70.801,103.516,0
1610634943.122,63.965,42.480,54.199,60.059,100.098,0
1610634943.126,25.879,52.734,55.664,17.578,78.125,0
1610634943.130,-15.625,47.363,48.340,-18.066,10.254,0
1610634943.134,11.719,39.551,40.039,31.250,-21.484,0
1610634943.137,86.426,46.387,34.180,89.844,2.441,0
1610634943.141,56.641,43.945,43.945,59.570,-5.859,0
1610634943.145,-11.230,35.645,54.688,-3.906,7.324,0
1610634943.149,-14.648,34.180,50.293,-22.949,55.664,0
1610634943.153,19.531,33.203,47.363,25.391,41.016,0
1610634943.155,80.566,48.340,69.824,91.797,22.461,0
1610634943.159,83.984,48.828,56.152,82.031,19.043,0
1610634943.163,15.137,29.785,38.574,8.301,4.883,0
1610634943.167,-19.043,37.109,52.734,-29.785,71.777,0
1610634943.171,-2.441,42.480,48.340,3.418,65.918,0
1610634943.175,61.523,40.527,46.387,57.617,34.180,0
1610634943.179,78.613,42.480,50.781,67.871,56.152,0
1610634943.182,27.344,42.969,43.457,24.902,61.523,0
1610634943.186,-7.812,45.898,46.387,-18.555,2.930,0
1610634943.190,3.906,37.598,44.434,5.371,-65.430,0
1610634943.194,57.617,34.180,48.828,68.359,-11.719,0
1610634943.198,78.613,35.645,57.129,79.590,33.203,0
1610634943.199,15.137,34.668,51.270,33.203,-1.465,0
1610634943.203,-16.602,48.340,54.688,-6.348,-26.855,0
1610634943.207,-2.930,43.457,48.340,14.648,-26.367,0
1610634943.211,35.156,31.250,35.156,58.594,19.043,0
1610634943.215,79.102,29.785,44.922,65.918,17.090,0
1610634943.219,37.109,33.691,54.199,36.133,4.883,0
1610634943.223,-9.277,47.363,55.664,1.953,25.879,0
1610634943.226,-3.418,41.504,46.875,-4.395,2.441,0
1610634943.230,38.574,34.668,29.785,45.410,-11.230,0
1610634943.234,80.566,30.273,21.973,98.633,73.730,0
1610634943.238,54.199,29.297,32.715,65.918,79.102,0
1610634943.242,-5.859,44.922,43.945,-3.906,46.387,0
1610634943.246,-20.996,46.387,39.062,-6.836,44.434,0
1610634943.250,37.109,42.969,31.250,43.945,41.504,0
1610634943.254,79.102,34.180,25.879,64.453,85.938,0
1610634943.258,55.664,37.598,32.227,54.688,23.926,0
1610634943.262,6.836,52.734,29.785,10.254,5.371,0
1610634943.266,-15.137,37.109,16.113,-20.996,31.250,0
1610634943.270,19.043,24.414,14.160,20.996,0.000,0
1610634943.273,75.195,40.527,27.832,75.684,47.363,0
1610634943.277,61.523,53.711,36.133,61.523,85.449,0
1610634943.281,17.090,51.758,14.648,9.766,56.641,0
1610634943.285,-10.742,41.504,20.996,-19.043,92.773,0
1610634943.289,20.996,39.551,50.293,13.672,15.625,0
1610634943.291,86.914,54.199,57.129,72.754,-75.195,0
1610634943.295,65.918,49.805,45.410,61.523,19.043,0
1610634943.299,7.812,34.180,37.109,7.812,13.184,0
1610634943.303,-20.508,30.273,43.457,-10.742,2.930,0
1610634943.307,7.812,33.691,42.969,30.762,88.379,0
1610634943.311,72.754,39.062,28.320,78.613,68.359,0
1610634943.315,78.125,47.852,19.531,80.566,-0.977,0
1610634943.318,28.320,49.805,37.598,36.133,-0.488,0
1610634943.322,-2.441,48.340,41.992,-4.395,54.688,0
1610634943.326,17.090,53.223,26.367,30.762,25.879,0
1610634943.330,77.637,52.246,20.508,96.680,42.480,0
1610634943.334,88.379,51.270,48.340,86.914,105.469,0
1610634943.350,5.371,46.387,68.359,5.859,18.066,0
1610634943.354,-32.227,39.551,60.059,-37.598,-61.035,0
1610634943.358,-15.137,34.668,49.316,-9.277,-36.133,0
1610634943.362,36.133,36.133,39.062,48.340,20.020,0
1610634943.366,64.941,41.504,39.551,68.359,88.867,0
1610634943.370,13.184,43.457,36.621,22.461,84.473,0
1610634943.374,-15.137,49.316,37.598,-19.531,45.410,0
1610634943.377,17.090,53.711,42.969,15.137,-42.969,0
1610634943.381,70.312,54.688,35.645,79.590,-18.066,0
1610634943.385,82.520,43.457,38.086,84.961,24.902,0
1610634943.389,17.578,31.738,51.758,12.207,-35.645,0
1610634943.393,-28.320,33.691,47.363,-46.387,-49.316,0
1610634943.395,-16.602,42.480,41.992,-20.508,8.789,0
1610634943.399,26.855,41.016,42.969,38.574,53.711,0
1610634943.403,71.777,36.621,46.387,68.848,102.051,0
1610634943.407,30.273,39.551,47.852,46.875,79.102,0
1610634943.411,-16.113,43.945,39.551,3.418,18.555,0
1610634943.415,-3.418,43.945,41.504,10.742,0.977,0
1610634943.419,36.133,37.598,45.898,51.270,52.246,0
1610634943.422,73.242,36.621,30.762,69.824,47.852,0
1610634943.426,52.734,42.969,30.273,55.176,-41.504,0
1610634943.430,6.348,47.363,45.410,4.395,-48.340,0
1610634943.434,5.859,41.992,48.828,0.977,-36.621,0
1610634943.438,24.902,24.902,45.410,46.387,-32.227,0
1610634943.440,74.219,41.016,54.688,97.168,-37.598,0
1610634943.444,73.730,56.152,61.035,83.984,35.156,0
1610634943.448,3.906,52.734,53.711,11.719,78.125,0
1610634943.452,-7.812,47.852,40.527,-10.254,-35.645,0
1610634943.456,24.902,29.785,34.180,33.691,-21.973,0
1610634943.460,71.777,33.691,36.133,75.684,46.875,0
1610634943.464,61.523,45.410,39.062,55.176,36.133,0
1610634943.467,12.695,55.176,44.434,14.160,50.293,0
1610634943.471,-0.977,48.340,45.898,-8.789,5.859,0
1610634943.475,23.438,41.504,49.805,26.367,39.551,0
1610634943.479,74.707,44.434,51.758,77.637,38.086,0
1610634943.483,58.594,44.922,45.898,78.125,-31.738,0
1610634943.484,21.973,46.387,38.574,29.785,2.441,0
1610634943.488,-13.184,41.992,35.645,-12.695,39.551,0
1610634943.492,8.301,31.250,35.645,24.414,20.020,0
1610634943.496,75.195,32.227,31.738,76.172,25.391,0
1610634943.500,63.477,40.039,35.156,61.523,25.879,0
1610634943.504,8.301,36.621,41.504,10.254,-20.508,0
1610634943.508,-14.160,38.574,47.852,-24.414,-4.883,0
1610634943.511,9.277,41.504,47.363,0.488,28.809,0
1610634943.515,46.875,31.738,33.691,51.758,56.152,0
1610634943.519,71.777,35.645,41.992,68.359,62.988,0
1610634943.523,26.855,36.133,57.617,34.668,51.758,0
1610634943.527,-23.438,23.926,57.617,-15.625,11.719,0
1610634943.530,-1.953,29.297,52.246,-11.230,-6.348,0
1610634943.534,50.293,37.598,45.898,47.852,28.809,0
1610634943.538,67.871,33.691,45.410,62.988,36.133,0
1610634943.542,16.602,24.902,43.457,18.555,-28.320,0
1610634943.546,-21.484,28.320,49.805,-9.766,-39.062,0
1610634943.550,-17.090,31.738,52.246,1.953,-20.996,0
1610634943.554,26.367,35.645,41.992,43.945,-0.488,0
1610634943.557,76.172,44.922,47.852,71.289,53.711,0
1610634943.561,41.016,50.781,55.176,41.504,52.246,0
1610634943.565,-13.184,43.945,43.457,-7.324,0.977,0
1610634943.569,-13.184,30.762,35.156,-9.766,6.348,0
1610634943.573,30.273,34.668,36.133,42.969,41.504,0
1610634943.574,65.430,39.062,43.945,70.312,97.656,0
1610634943.578,15.137,26.367,44.922,34.668,92.773,0
1610634943.582,-29.297,20.020,37.109,-12.207,44.434,0
1610634943.586,-16.602,37.109,42.480,-15.625,60.547,0
1610634943.590,22.461,39.551,35.645,28.320,76.660,0
1610634943.594,72.754,26.855,21.973,58.594,87.402,0
1610634943.598,29.297,32.715,34.668,40.527,93.750,0
1610634943.601,-33.691,37.109,46.875,-14.160,9.766,0
1610634943.605,-18.066,36.621,54.199,-27.344,-58.594,0
1610634943.609,28.809,41.016,50.293,40.527,-9.766,0
1610634943.613,63.477,45.898,42.969,89.355,26.367,0
1610634943.617,46.387,47.852,41.016,60.059,49.805,0
1610634943.619,-7.324,35.645,31.738,-5.859,59.082,0
1610634943.623,-29.297,24.414,30.762,-31.250,20.508,0
1610634943.627,10.254,27.832,38.574,11.719,3.418,0
1610634943.631,74.219,39.062,39.551,86.426,23.926,0
1610634943.635,65.918,47.363,30.273,92.773,9.766,0
1610634943.639,-6.348,40.039,26.367,15.625,-21.973,0
1610634943.643,-21.973,34.668,35.645,-28.320,0.488,0
1610634943.646,17.090,24.902,47.852,0.000,20.508,0
1610634943.650,52.246,29.297,50.781,68.359,37.598,0
1610634943.654,53.711,42.969,43.457,72.754,37.109,0
1610634943.658,11.230,32.715,38.086,12.207,14.648,0
1610634943.662,-18.555,38.086,41.992,-24.902,19.043,0
1610634943.664,2.930,41.992,45.410,5.371,18.555,0
1610634943.668,59.570,39.551,45.898,62.500,39.062,0
1610634943.672,74.219,47.852,43.457,80.078,66.895,0
1610634943.676,10.742,41.504,33.203,31.738,24.902,0
1610634943.680,-36.133,29.297,21.973,-14.648,54.199,0
1610634943.684,-2.441,35.645,14.160,17.090,94.238,0
1610634943.688,61.035,42.969,12.207,65.918,64.453,0
1610634943.691,68.848,41.992,18.066,77.637,39.551,0
1610634943.695,20.020,40.527,24.414,33.203,43.945,0
1610634943.699,-18.555,40.039,42.969,-23.926,56.641,2
1610634943.703,1.953,44.922,54.199,10.742,-4.883,0
1610634943.707,59.082,41.992,41.016,74.219,-34.668,0
1610634943.724,74.707,37.598,23.926,76.172,70.801,0
1610634943.728,24.414,31.738,23.438,27.344,72.754,0
1610634943.732,-15.137,31.738,33.691,-17.090,-4.395,0
1610634943.736,3.418,42.969,36.621,-0.977,29.785,0
1610634943.740,52.734,45.898,35.156,67.383,62.012,0
1610634943.744,77.148,39.062,30.273,102.051,67.383,0
1610634943.748,36.621,39.062,30.762,55.176,82.031,0
1610634943.751,-8.789,46.387,34.668,-3.418,21.484,0
1610634943.755,3.418,49.316,27.344,-0.488,-53.223,0
1610634943.759,46.387,57.129,19.043,60.547,-42.480,0
1610634943.763,76.172,59.082,27.832,93.262,23.438,0
1610634943.767,52.734,41.016,36.133,59.082,26.367,0
1610634943.770,0.000,31.738,40.527,-2.441,10.742,0
1610634943.774,-15.137,31.250,39.551,-16.113,19.531,0
1610634943.778,22.949,32.227,23.926,21.484,11.719,0
1610634943.782,57.129,34.668,20.508,55.176,7.812,0
1610634943.786,30.762,29.297,23.438,40.527,8.301,0
1610634943.790,-12.695,35.645,34.180,11.230,17.578,0
1610634943.794,-20.508,44.922,35.645,-10.254,26.855,0
1610634943.797,7.324,36.621,26.855,14.160,51.270,0
1610634943.801,65.918,41.504,28.320,71.289,75.684,0
1610634943.805,63.965,48.340,35.645,53.711,63.477,0
1610634943.809,-1.465,34.180,34.668,-4.395,75.195,0
1610634943.813,-26.367,27.344,26.367,-21.973,104.004,0
1610634943.815,8.301,29.297,34.180,18.066,72.266,0
1610634943.819,65.430,33.691,43.945,65.430,39.551,0
1610634943.823,59.570,41.016,44.922,68.848,34.668,0
1610634943.827,-4.395,39.062,33.691,11.719,45.410,0
1610634943.831,-29.297,30.762,21.484,-28.320,27.832,0
1610634943.835,-2.441,20.020,26.367,-1.465,-10.254,0
1610634943.839,46.875,24.902,24.414,50.293,47.852,0
1610634943.842,61.035,32.715,17.578,54.688,60.547,0
1610634943.846,-0.488,31.250,26.855,8.301,16.113,0
1610634943.850,-16.113,29.297,42.969,-25.879,-7.812,0
1610634943.854,8.301,29.785,43.457,3.906,-17.578,0
1610634943.858,41.992,34.180,30.762,62.988,-12.695,0
1610634943.860,63.965,39.062,40.039,83.008,25.391,0
1610634943.864,24.414,44.922,57.617,45.898,52.246,0
1610634943.868,-10.254,42.969,55.664,-7.324,55.664,0
1610634943.872,-2.930,36.133,54.199,-4.883,50.781,0
1610634943.876,51.270,42.480,49.805,62.500,40.527,0
1610634943.880,70.801,38.574,43.457,65.430,52.734,0
1610634943.884,18.066,25.879,39.062,21.973,56.641,0
1610634943.887,-16.602,26.855,40.039,-0.977,38.086,0
1610634943.891,-5.371,26.367,41.504,-7.324,4.395,0
1610634943.895,33.691,32.715,31.738,35.645,-51.270,0
1610634943.899,57.129,43.457,32.715,56.641,9.277,0
1610634943.903,34.668,36.621,36.621,28.809,34.668,0
1610634943.904,-25.391,35.156,34.180,-11.719,-43.945,0
1610634943.908,-23.926,41.504,48.828,-16.602,-7.324,0
1610634943.912,32.227,37.598,48.828,40.039,79.590,0
1610634943.916,70.312,38.574,39.062,83.496,58.105,0
1610634943.920,47.363,54.199,48.828,66.406,69.336,0
1610634943.924,-0.488,52.734,39.551,15.137,60.059,0
1610634943.928,-18.066,36.133,28.320,-14.648,12.695,0
1610634943.931,24.414,39.551,31.250,35.645,47.363,0
1610634943.935,77.148,41.992,25.391,81.543,85.449,0
1610634943.939,42.969,29.785,19.043,50.293,79.590,0
1610634943.943,-2.441,28.320,14.648,4.883,36.133,0
1610634943.947,-16.602,33.691,9.277,-14.160,24.414,0
1610634943.950,20.508,38.086,17.090,22.949,23.438,0
1610634943.954,60.547,42.969,31.738,63.965,62.500,0
1610634943.958,39.551,48.340,35.156,53.711,59.082,0
1610634943.962,9.277,47.852,37.598,14.160,-15.625,0
1610634943.966,-10.742,41.016,27.344,-18.066,20.508,0
1610634943.970,16.113,38.574,17.090,19.043,7.324,0
1610634943.974,83.008,35.645,19.531,70.801,-41.992,0
1610634943.977,76.660,35.156,29.297,48.828,41.992,0
1610634943.981,17.090,36.621,32.715,-4.395,38.086,0
1610634943.985,-21.484,34.180,31.250,-25.391,32.227,0
1610634943.989,-1.465,35.156,18.555,13.672,8.789,0
1610634943.993,62.012,46.387,24.902,68.848,-40.039,0
1610634943.996,69.336,56.641,48.828,78.613,-21.973,0
1610634944.000,9.277,45.410,43.457,32.227,27.344,0
1610634944.004,-19.043,43.945,30.762,-13.672,72.754,0
1610634944.008,4.883,45.410,32.227,11.719,3.418,0
1610634944.012,44.434,34.180,26.855,52.246,0.488,0
1610634944.016,51.758,30.273,19.531,59.082,16.602,0
1610634944.020,5.371,27.832,23.926,18.555,-53.223,0
1610634944.023,-2.930,36.133,27.344,-17.578,-5.859,0
1610634944.027,8.301,42.969,20.508,5.371,33.691,0
1610634944.031,43.945,40.039,8.789,57.617,33.691,0
1610634944.035,91.309,44.434,14.160,80.078,51.758,0
1610634944.039,43.457,52.734,23.926,55.176,51.758,0
1610634944.039,-16.113,51.758,19.043,10.254,54.199,0
1610634944.043,-8.301,39.551,16.602,-0.488,52.734,0
1610634944.047,48.828,33.691,20.508,45.410,27.344,0
1610634944.051,80.078,44.922,34.668,84.473,35.156,0
1610634944.055,34.180,50.781,42.480,48.340,39.062,0
1610634944.059,-15.137,34.180,46.387,-6.348,-9.277,0
1610634944.063,-17.090,24.902,42.969,-9.766,16.113,0
1610634944.066,41.504,40.039,39.551,52.246,52.246,0
1610634944.070,82.520,41.992,36.621,74.219,46.875,0
1610634944.074,25.391,23.926,35.645,9.277,35.156,0
1610634944.078,-25.879,26.855,45.410,-32.227,55.176,0
1610634944.082,-6.836,39.551,39.551,-15.137,8.789,0
1610634944.099,40.039,39.062,38.086,34.668,11.719,0
1610634944.103,72.754,38.574,44.434,69.336,76.172,0
1610634944.107,33.203,37.598,35.156,44.434,-7.324,0
1610634944.111,-8.301,37.598,32.227,8.789,-58.594,0
1610634944.115,-10.254,29.297,36.133,-1.953,-16.113,0
1610634944.119,18.555,32.715,34.668,31.738,-25.391,0
1610634944.123,83.008,40.039,30.273,69.336,-9.766,0
1610634944.126,50.781,29.785,18.555,50.781,-28.320,0
1610634944.130,-15.625,31.250,18.555,-3.418,-54.688,0
1610634944.134,-27.832,39.551,26.855,-15.625,-37.598,0
1610634944.138,18.555,45.898,35.645,27.344,66.406,0
1610634944.142,79.102,47.363,35.645,73.730,66.895,0
1610634944.145,65.918,46.875,37.598,62.500,-25.391,0
1610634944.149,-1.465,45.410,33.203,7.812,43.457,0
1610634944.153,-13.184,37.598,26.367,-20.020,65.430,0
1610634944.157,18.066,28.320,33.691,8.301,-9.277,0
1610634944.161,59.570,34.668,39.062,72.754,32.715,0
1610634944.165,63.477,41.992,34.668,65.918,86.914,0
1610634944.169,0.488,39.551,35.645,1.953,44.922,0
1610634944.172,-15.137,45.898,41.992,-14.648,41.016,0
1610634944.176,18.555,47.852,35.156,13.672,18.066,0
1610634944.180,58.594,41.992,24.902,62.500,41.504,0
1610634944.184,77.637,37.109,33.203,61.523,50.293,0
1610634944.188,26.855,49.805,36.621,15.137,55.664,0
1610634944.189,-12.207,60.547,41.016,-7.812,-7.324,0
1610634944.193,8.789,44.922,49.316,7.324,30.273,0
1610634944.197,62.988,32.227,31.250,53.711,75.195,0
1610634944.201,64.453,32.227,21.484,73.730,39.062,0
1610634944.205,9.277,25.391,31.738,37.109,37.109,0
1610634944.209,-30.273,23.438,23.438,-19.531,13.672,0
1610634944.213,-7.324,32.227,26.855,0.977,29.785,0
1610634944.216,57.129,42.480,58.105,70.801,5.859,0
1610634944.220,73.730,40.527,64.453,69.336,33.203,0
1610634944.224,37.598,36.133,59.570,28.320,23.926,0
1610634944.228,-7.812,42.969,58.105,1.465,61.035,0
1610634944.232,-4.395,40.039,48.340,-0.977,125.488,0
1610634944.235,49.805,30.273,44.922,48.828,48.828,0
1610634944.239,62.012,32.715,49.316,77.637,96.680,0
1610634944.243,27.344,39.062,57.617,46.387,69.336,0
1610634944.247,-2.930,40.039,47.363,0.000,22.461,0
1610634944.251,-5.859,36.133,30.273,-8.301,6.836,0
1610634944.255,32.227,40.039,26.367,38.574,-51.758,0
1610634944.259,62.012,30.762,24.414,76.660,27.344,0
1610634944.262,54.688,46.387,46.875,66.895,39.551,0
1610634944.266,11.230,62.012,66.895,14.648,15.625,0
1610634944.270,-17.090,43.457,55.664,-13.672,62.988,0
1610634944.274,24.902,31.250,43.457,31.250,64.941,0
1610634944.278,62.012,35.156,37.598,74.219,15.137,0
1610634944.279,44.434,41.504,41.016,53.711,25.879,0
1610634944.283,15.625,51.270,61.523,12.695,54.199,0
1610634944.287,6.836,51.270,54.199,-3.906,39.551,0
1610634944.291,18.555,35.645,24.414,37.109,4.395,0
1610634944.295,55.176,31.738,26.367,87.402,-5.859,0
1610634944.299,49.805,35.156,42.969,65.430,-16.602,0
1610634944.303,-10.742,42.480,50.781,20.996,-31.250,0
1610634944.306,-14.648,48.828,44.922,-3.906,-10.254,0
1610634944.310,23.438,43.945,47.852,32.227,-51.270,0
1610634944.314,68.359,39.551,59.570,72.266,-62.500,0
1610634944.318,60.059,41.992,43.457,64.941,-12.207,0
1610634944.322,5.371,41.992,36.621,19.531,-5.371,0
1610634944.324,-13.184,47.363,54.688,-3.906,10.742,0
1610634944.328,22.461,47.852,46.875,30.762,-41.504,0
1610634944.332,73.242,42.480,35.156,65.918,-39.551,0
1610634944.336,56.152,41.992,38.086,66.895,84.961,0
1610634944.340,4.883,43.945,36.133,26.367,89.355,0
1610634944.344,-0.977,53.223,38.574,-12.207,43.457,0
1610634944.348,15.137,45.898,35.156,8.301,26.855,0
1610634944.351,50.293,31.250,37.109,68.359,-7.812,0
1610634944.355,60.059,37.109,48.828,70.801,6.348,0
1610634944.359,17.090,48.340,46.387,26.855,21.973,0
1610634944.363,-5.859,54.688,47.852,3.906,7.812,0
1610634944.367,11.719,52.734,52.246,18.555,-9.766,0
1610634944.369,65.918,47.363,40.527,69.824,-1.465,0
1610634944.373,82.031,46.875,32.715,81.055,5.859,0
1610634944.377,25.879,41.016,30.273,40.527,27.832,0
1610634944.381,-24.414,36.621,23.438,-8.789,68.848,0
1610634944.385,-17.578,37.109,20.996,-12.695,73.730,0
1610634944.389,39.062,32.715,18.066,40.039,32.715,0
1610634944.393,62.500,32.715,26.855,58.594,-23.438,0
1610634944.396,28.809,39.551,43.457,31.738,43.457,0
1610634944.400,0.488,50.293,51.270,0.000,72.754,0
1610634944.404,-9.277,43.945,35.156,-5.859,-4.395,0
1610634944.408,32.715,33.691,31.250,34.668,24.902,0
1610634944.412,76.660,42.969,41.504,67.383,104.492,0
1610634944.414,43.457,40.039,38.086,44.434,70.312,0
1610634944.418,-7.812,33.203,31.738,-9.277,-25.879,0
1610634944.422,-18.066,45.898,33.203,-5.371,12.207,0
1610634944.426,20.508,47.363,27.832,38.574,50.781,0
1610634944.430,64.453,40.527,16.113,60.547,58.105,0
1610634944.434,44.922,46.387,26.855,48.828,66.895,0
1610634944.438,-9.277,41.016,39.551,-7.812,51.270,0
1610634944.441,-18.555,35.645,38.574,-19.043,69.824,0
1610634944.445,21.973,41.992,36.621,32.715,78.125,0
1610634944.449,82.520,49.316,38.086,76.172,19.531,0
1610634944.453,59.570,48.340,41.992,64.453,-0.488,0
1610634944.457,-7.812,43.457,37.109,2.441,3.418,0
1610634944.474,-11.719,47.363,27.344,-14.648,-30.762,0
1610634944.478,27.344,40.527,30.273,24.414,-11.230,0
1610634944.482,81.543,35.645,45.410,76.660,30.273,0
1610634944.486,70.801,51.758,30.762,75.684,44.434,0
1610634944.490,3.418,46.387,11.230,6.836,34.668,0
1610634944.494,-26.367,30.762,20.020,-32.227,-31.250,0
1610634944.498,1.465,31.738,25.391,5.859,1.953,0
1610634944.501,53.223,35.645,34.180,61.035,57.617,0
1610634944.505,53.223,34.668,46.875,62.012,55.176,0
1610634944.509,5.371,35.156,53.711,15.625,48.340,0
1610634944.513,-20.996,41.504,53.223,-13.672,68.359,0
1610634944.517,-3.418,41.504,43.945,6.836,54.688,0
1610634944.519,51.758,39.551,32.715,60.059,-5.371,0
1610634944.523,74.707,41.504,27.832,73.730,-4.883,0
1610634944.527,32.227,45.410,29.297,25.879,4.395,0
1610634944.531,-7.324,46.387,24.902,-22.949,61.523,0
1610634944.535,-0.977,47.852,34.180,0.000,29.297,0
1610634944.539,40.039,34.668,28.320,50.781,-8.301,0
1610634944.543,66.895,29.297,20.996,64.453,52.734,0
1610634944.546,26.855,38.574,29.297,34.180,34.180,0
1610634944.550,-12.695,36.621,32.715,-14.160,11.719,0
1610634944.554,0.000,36.133,40.039,3.906,32.715,0
1610634944.558,46.875,41.992,41.992,76.660,34.668,0
1610634944.562,77.637,44.434,26.855,92.285,11.230,0
1610634944.564,49.805,49.316,27.344,39.551,36.621,0
1610634944.568,-7.812,44.922,28.809,-25.879,29.785,0
1610634944.572,-19.531,41.016,26.367,-21.973,52.246,0
1610634944.576,38.574,46.875,38.086,46.875,40.527,0
1610634944.580,85.449,45.898,37.109,74.219,25.879,0
1610634944.584,44.922,41.504,32.715,42.969,71.289,0
1610634944.588,-2.441,46.875,39.062,-1.953,43.945,0
1610634944.591,-5.371,51.758,50.781,-3.418,36.621,0
1610634944.595,29.785,38.086,35.156,37.598,-37.109,0
1610634944.599,68.359,33.691,33.203,64.453,-41.016,0
1610634944.603,41.504,45.410,45.410,53.223,-3.418,0
1610634944.607,-5.371,45.898,38.574,11.719,-47.363,0
1610634944.609,-22.461,33.691,32.227,-15.625,-0.977,0
1610634944.613,24.902,34.180,26.855,26.367,0.000,0
1610634944.617,79.102,41.016,30.762,75.195,48.340,0
1610634944.621,58.105,43.945,38.574,57.617,96.191,0
1610634944.625,2.441,35.156,29.785,0.000,55.176,0
1610634944.629,-15.137,30.762,29.297,-18.555,22.461,0
1610634944.633,21.484,35.156,39.062,34.668,-5.371,0
1610634944.636,59.570,33.691,26.855,70.312,16.113,0
1610634944.640,44.434,30.273,16.602,48.340,12.695,0
1610634944.644,-11.230,22.949,19.531,-2.930,39.551,0
1610634944.648,-26.855,27.344,20.508,-36.133,55.664,0
1610634944.652,16.113,41.992,20.508,0.488,41.016,0
1610634944.654,76.660,46.875,29.297,57.129,51.270,0
1610634944.658,68.848,38.574,34.180,54.199,41.016,0
1610634944.662,1.953,30.273,31.250,8.789,21.973,0
1610634944.666,-24.414,30.762,33.203,-25.879,11.230,0
1610634944.670,-12.695,32.715,37.109,1.465,44.434,0
1610634944.674,44.434,30.762,29.785,66.895,87.402,0
1610634944.678,68.359,34.668,24.902,74.707,76.660,0
1610634944.681,10.254,35.645,28.320,14.648,19.043,0
1610634944.685,-19.531,31.738,37.598,-23.926,28.809,0
1610634944.689,1.465,38.574,43.945,-2.930,35.645,0
1610634944.693,51.758,39.062,32.715,38.574,24.414,0
1610634944.697,62.988,28.809,22.461,63.477,50.293,0
1610634944.700,19.043,28.320,28.809,24.414,-2.441,0
1610634944.704,-3.906,41.016,51.270,-16.113,-24.902,0
1610634944.708,5.859,48.340,51.758,9.277,8.789,0
1610634944.712,57.129,50.293,52.734,65.430,46.387,0
1610634944.716,85.938,50.781,56.641,91.309,60.547,0
1610634944.720,51.758,50.293,41.504,63.477,23.438,0
1610634944.724,-6.836,46.875,31.250,-0.977,8.301,0
1610634944.727,-3.418,46.875,43.457,-7.324,48.340,0
1610634944.731,65.918,60.059,64.941,54.199,9.766,0
1610634944.735,83.984,52.246,56.641,80.566,-50.781,0
1610634944.739,24.414,39.551,40.039,41.992,27.832,0
1610634944.743,-12.207,50.781,39.062,4.395,36.621,0
1610634944.745,1.465,56.641,45.898,9.766,11.230,0
1610634944.749,54.199,51.758,47.852,49.805,0.000,0
1610634944.753,89.355,44.922,44.434,82.520,56.641,0
1610634944.757,57.129,52.246,48.340,65.918,66.406,0
1610634944.761,7.812,58.105,57.617,12.207,-12.207,0
1610634944.765,-5.859,46.875,41.504,2.441,29.785,0
1610634944.769,36.621,45.898,31.250,52.246,19.043,0
1610634944.772,84.473,52.246,40.527,81.055,-2.441,0
1610634944.776,49.805,49.316,39.551,61.523,62.012,0
1610634944.780,3.418,49.316,45.898,7.324,59.570,0
1610634944.784,2.930,50.781,58.105,-14.160,29.785,0
1610634944.788,22.949,45.898,50.293,18.555,31.738,0
1610634944.789,72.266,45.898,48.828,68.359,5.371,0
1610634944.793,58.594,44.434,60.059,68.848,-61.035,0
1610634944.797,1.953,42.480,50.781,10.742,-65.918,0
1610634944.801,-13.184,43.945,38.086,-14.648,30.762,0
1610634944.805,10.742,40.527,30.273,23.926,67.383,0
1610634944.809,62.500,34.668,11.719,62.500,-18.555,0
1610634944.813,58.105,39.551,12.695,51.758,-25.879,0
1610634944.816,6.836,43.945,27.832,13.184,30.273,0
1610634944.820,-10.254,42.480,33.691,-10.742,-14.648,0
1610634944.824,14.160,44.922,31.738,16.113,21.973,0
1610634944.828,59.082,42.480,24.902,62.500,93.262,0
1610634944.832,66.895,35.156,31.250,68.848,48.828,0
1610634944.849,6.348,30.762,30.762,20.508,15.625,0
1610634944.853,-29.297,28.809,20.996,-20.020,11.719,0
1610634944.857,-8.301,31.738,22.949,13.184,22.949,0
1610634944.861,55.664,35.645,12.695,54.199,-2.930,0
1610634944.865,75.195,38.574,11.719,65.918,-5.371,0
1610634944.869,23.926,46.387,41.992,45.410,58.594,0
1610634944.873,-14.648,48.340,44.434,-7.812,72.754,0
1610634944.876,1.953,40.039,26.855,5.371,1.953,0
1610634944.880,55.176,40.039,21.973,62.012,-21.973,0
1610634944.884,82.520,44.922,17.578,75.195,21.973,0
1610634944.888,32.715,43.457,25.879,31.738,15.625,0
1610634944.892,-22.461,30.762,33.203,-23.926,11.719,0
1610634944.894,-20.508,26.367,27.344,-4.395,28.809,0
1610634944.898,32.715,34.668,21.973,41.504,19.531,0
1610634944.902,63.965,42.480,29.785,67.383,27.832,0
1610634944.906,37.598,45.898,30.273,54.688,69.336,0
1610634944.910,-2.930,39.551,19.043,-10.254,40.527,0
1610634944.914,-10.742,31.250,22.461,-13.184,-0.488,0
1610634944.918,32.227,36.621,27.344,49.805,23.926,0
1610634944.921,68.848,42.480,20.020,82.520,18.555,0
1610634944.925,41.016,53.711,18.555,60.059,71.777,0
1610634944.929,5.859,52.246,35.156,7.324,70.801,0
1610634944.933,-7.812,42.969,45.410,-4.883,23.438,0
1610634944.937,28.320,50.293,39.062,37.598,2.441,0
1610634944.939,95.703,52.246,29.785,78.125,33.691,0
1610634944.943,57.129,39.551,34.180,53.223,42.969,0
1610634944.947,-1.953,41.016,41.992,14.160,-20.020,0
1610634944.951,-13.184,47.363,33.691,3.418,-5.859,0
1610634944.955,26.367,44.922,34.180,37.109,-9.766,0
1610634944.959,73.242,40.039,30.762,83.496,6.348,0
1610634944.963,71.289,47.852,39.551,76.660,1.953,0
1610634944.966,26.855,61.523,44.434,33.691,-57.617,0
1610634944.970,-6.836,45.410,31.738,-15.137,-14.160,0
1610634944.974,30.273,41.504,43.945,24.414,16.113,0
1610634944.978,83.008,53.223,47.363,87.402,23.438,0
1610634944.982,63.965,47.363,32.715,77.637,55.664,0
1610634944.985,27.832,60.059,38.086,45.410,37.598,0
1610634944.989,6.348,67.871,45.410,9.766,-68.848,0
1610634944.993,19.531,52.734,41.992,29.297,-37.109,0
1610634944.997,79.590,54.199,35.645,83.496,105.469,0
1610634945.001,81.055,58.594,32.715,79.590,96.680,0
1610634945.005,20.996,55.664,43.945,27.344,21.973,0
1610634945.009,-11.719,54.688,55.176,-9.766,47.363,0
1610634945.012,22.949,60.547,59.082,25.391,55.176,0
1610634945.016,74.707,56.152,52.246,77.637,57.617,0
1610634945.020,80.078,48.340,43.945,77.148,80.078,0
1610634945.024,30.273,49.316,43.945,42.969,21.484,0
1610634945.028,-18.066,53.223,42.969,0.488,-15.137,0
1610634945.029,16.602,59.082,35.645,20.020,37.598,0
1610634945.033,85.449,64.453,32.715,75.195,40.039,0
1610634945.037,78.125,52.246,37.109,79.590,31.738,0
1610634945.041,30.273,43.945,47.852,46.875,22.949,0
1610634945.045,-1.465,49.805,42.480,11.719,5.371,0
1610634945.049,2.930,52.246,21.484,12.695,21.973,0
1610634945.053,43.945,49.316,36.621,55.664,29.297,0
1610634945.056,72.754,40.527,47.852,74.219,26.367,0
1610634945.060,40.527,46.387,46.387,39.062,48.340,0
1610634945.064,-5.371,51.270,48.828,-14.160,9.766,0
1610634945.068,-5.371,44.922,48.340,0.000,-11.719,0
1610634945.072,51.758,47.363,46.875,61.035,24.902,0
1610634945.075,86.914,54.688,42.969,81.543,41.016,0
1610634945.079,56.152,53.711,44.434,57.129,11.719,0
1610634945.083,-1.465,45.898,36.621,5.371,-29.297,0
1610634945.087,-20.508,35.645,25.879,-12.207,33.691,0
1610634945.091,28.320,32.715,28.809,41.504,43.457,0
1610634945.095,81.543,40.527,37.109,88.379,16.113,0
1610634945.099,57.617,48.828,30.273,69.336,20.508,0
1610634945.102,9.277,50.781,33.691,17.090,37.598,0
1610634945.106,-13.184,41.016,43.945,-18.555,-9.766,0
1610634945.110,8.301,32.715,39.062,15.625,-1.465,0
1610634945.114,62.012,36.621,38.086,68.359,48.828,0
1610634945.118,57.129,37.109,47.852,60.059,85.449,0
1610634945.120,10.254,39.551,56.152,6.836,47.852,0
1610634945.124,-12.695,42.969,53.711,-2.930,-22.461,0
1610634945.128,36.133,64.941,52.246,58.594,-10.742,0
1610634945.132,88.867,70.801,57.129,94.727,85.938,0
1610634945.136,61.523,46.875,53.223,63.965,74.707,0
1610634945.140,0.000,41.992,48.340,11.719,37.109,0
1610634945.144,-12.207,41.504,40.527,-13.184,52.246,0
1610634945.147,19.531,42.969,32.715,20.020,11.230,0
1610634945.151,64.941,49.316,30.762,67.871,6.348,0
1610634945.155,72.754,46.875,45.410,66.895,31.738,0
1610634945.159,25.391,46.387,62.500,21.484,0.000,0
1610634945.163,-13.184,43.945,64.941,-13.184,-7.812,0
1610634945.165,12.207,47.363,59.570,16.113,16.602,0
1610634945.169,70.312,57.129,49.316,72.754,13.672,0
1610634945.173,81.055,56.641,42.480,77.148,20.020,0
1610634945.177,23.438,51.270,46.387,26.855,18.066,0
1610634945.181,-11.719,53.223,41.016,-7.812,-1.465,0
1610634945.185,-2.441,50.293,31.250,13.184,31.738,0
1610634945.189,49.805,41.504,41.504,59.082,66.406,0
1610634945.192,75.195,40.527,50.781,79.590,35.645,0
1610634945.196,24.902,51.270,56.152,49.316,7.812,0
1610634945.200,0.488,51.270,53.223,-7.812,23.438,0
1610634945.204,12.695,42.480,43.457,-3.418,30.762,0
1610634945.208,45.410,45.410,45.898,54.688,8.301,0
1610634945.224,77.148,47.363,49.316,76.172,13.184,0
1610634945.228,35.645,45.410,47.852,33.691,31.738,0
1610634945.232,3.906,48.340,47.852,-14.648,-7.812,0
1610634945.236,32.227,66.406,58.594,16.113,27.832,0
1610634945.240,71.777,73.730,52.734,70.801,95.703,0
1610634945.244,79.102,49.805,28.320,70.312,56.641,0
1610634945.248,18.066,26.367,40.527,24.414,53.711,0
1610634945.251,-25.391,29.297,61.035,-18.555,17.578,0
1610634945.255,-12.695,32.715,50.293,-16.113,-1.953,0
1610634945.259,26.855,34.180,41.992,33.203,40.039,0
1610634945.263,64.941,41.504,46.387,79.590,18.555,0
1610634945.267,45.898,46.875,56.152,57.129,18.555,0
1610634945.270,-9.766,51.758,50.781,7.812,25.391,0
1610634945.274,-3.906,47.852,41.992,2.930,-4.883,0
1610634945.278,57.129,51.270,47.852,53.711,72.266,0
1610634945.282,86.426,51.758,39.062,83.496,101.074,0
1610634945.286,51.270,45.410,32.227,57.129,47.363,0
1610634945.290,13.672,59.082,59.570,21.973,26.855,0
1610634945.294,-8.789,52.246,58.105,-7.324,23.438,0
1610634945.297,-1.953,30.273,41.504,12.695,28.809,0
1610634945.301,41.992,25.391,40.039,59.570,35.156,0
1610634945.305,42.969,33.691,41.992,50.781,11.719,0
1610634945.309,-6.348,37.109,50.781,13.672,-18.066,0
1610634945.313,-13.672,40.039,57.129,-6.836,27.832,0
1610634945.314,15.625,38.574,47.852,16.602,13.184,0
1610634945.318,64.453,36.621,32.227,68.848,-17.090,0
1610634945.322,61.035,47.852,39.551,73.730,25.879,0
1610634945.326,5.859,48.340,47.363,14.160,7.324,0
1610634945.330,-0.977,50.781,42.969,-19.531,24.902,0
1610634945.334,22.949,49.805,43.457,19.043,61.035,0
1610634945.338,67.383,35.645,41.992,62.012,42.969,0
1610634945.341,75.684,40.527,39.062,65.918,41.016,0
1610634945.345,36.621,49.316,39.062,35.156,13.672,0
1610634945.349,3.418,41.504,41.992,-1.465,-35.156,0
1610634945.353,0.977,41.016,42.480,11.230,8.789,0
1610634945.357,42.969,42.969,37.598,67.383,0.488,0
1610634945.359,65.430,40.039,34.180,88.379,16.602,0
1610634945.363,14.160,39.551,26.855,49.316,15.625,0
1610634945.367,-14.648,42.969,28.320,8.789,-1.953,0
1610634945.371,11.719,48.340,41.504,30.762,80.566,0
1610634945.375,77.148,56.152,53.711,90.820,72.754,0
1610634945.379,91.797,49.805,33.691,92.285,49.316,0
1610634945.383,29.785,42.969,21.484,39.551,76.660,0
1610634945.386,-10.254,49.316,38.574,-3.906,59.570,0
1610634945.390,-4.395,43.945,29.785,-5.371,57.617,0
1610634945.394,42.969,40.039,27.344,42.969,59.082,0
1610634945.398,72.266,45.410,41.016,81.055,43.457,0
1610634945.402,48.340,53.223,40.527,58.594,33.691,0
1610634945.405,-2.441,49.805,36.133,0.977,36.133,0
1610634945.409,-4.883,44.434,38.574,0.488,87.891,0
1610634945.413,24.414,44.922,41.992,52.246,53.223,0
1610634945.417,64.941,49.805,47.852,83.984,2.930,0
1610634945.421,59.570,45.898,35.645,49.316,2.930,0
1610634945.425,8.301,53.711,32.715,-10.254,27.344,0
1610634945.429,3.418,68.359,38.086,-7.812,60.059,0
1610634945.432,38.086,60.547,26.855,50.781,89.844,0
1610634945.436,100.098,55.664,30.273,85.938,102.539,0
1610634945.440,68.848,52.246,34.668,49.805,39.062,0
1610634945.444,-0.977,47.363,40.039,3.906,0.488,0
1610634945.448,-11.230,51.758,43.457,-10.742,-33.691,0
1610634945.451,20.020,42.969,38.574,18.555,-10.254,0
1610634945.455,62.500,33.691,32.715,64.941,69.336,0
1610634945.459,46.875,43.945,29.297,53.711,26.855,0
1610634945.463,-1.465,44.922,32.715,8.789,4.883,0
1610634945.467,-10.742,45.898,32.715,-5.371,0.977,0
1610634945.471,18.555,50.293,31.250,31.738,4.883,0
1610634945.475,71.289,47.363,19.531,78.613,52.246,0
1610634945.478,69.336,50.293,20.996,74.707,50.781,0
1610634945.482,5.859,48.340,37.109,1.465,42.969,0
1610634945.486,-12.207,42.480,25.391,-30.273,23.926,0
1610634945.490,4.395,42.969,24.414,24.902,7.324,0
1610634945.494,66.406,49.805,49.805,74.219,25.879,0
1610634945.494,71.289,46.875,51.758,62.012,37.109,0
1610634945.498,14.160,45.410,51.270,25.391,0.000,0
1610634945.502,-11.230,44.922,38.086,-4.883,-18.066,0
1610634945.506,4.883,32.715,28.320,11.230,-2.930,0
1610634945.510,57.617,30.762,34.180,68.848,21.973,0
1610634945.514,85.449,39.551,34.180,82.031,66.406,0
1610634945.518,21.484,43.457,34.180,27.832,32.227,0
1610634945.521,-14.160,49.805,38.086,-22.949,27.832,0
1610634945.525,8.789,44.922,38.574,0.977,25.391,0
1610634945.529,53.711,41.992,29.297,53.223,56.641,0
1610634945.533,84.961,53.223,39.062,78.613,71.777,0
1610634945.537,36.621,57.129,48.828,52.246,53.711,0
1610634945.539,-30.762,46.387,39.551,-5.371,46.387,0
1610634945.543,-13.672,37.598,29.785,-3.418,-15.137,0
1610634945.547,52.734,40.039,31.250,59.570,-11.230,0
1610634945.551,83.984,35.156,47.363,89.844,-12.695,0
1610634945.555,41.504,40.527,52.246,55.664,-48.340,0
1610634945.559,-3.906,55.664,44.434,10.254,-47.363,0
1610634945.563,4.883,50.781,34.668,5.859,-19.043,0
1610634945.566,45.410,43.945,38.086,35.645,12.207,0
1610634945.570,78.125,47.363,40.039,65.918,75.195,0
1610634945.574,43.945,41.992,24.902,41.992,95.215,0
1610634945.578,-19.043,41.504,21.484,-8.301,34.668,0
1610634945.582,-21.973,42.480,34.668,-15.625,7.812,0
1610634945.599,37.598,42.969,46.387,38.086,3.418,0
1610634945.603,70.801,41.016,43.945,73.730,5.371,0
1610634945.607,40.527,35.645,40.527,41.992,31.250,0
1610634945.611,-11.719,37.109,32.227,-10.254,69.824,0
1610634945.615,-11.230,37.598,22.461,-19.043,46.875,0
1610634945.619,30.762,37.109,19.531,25.879,20.996,0
1610634945.623,73.730,42.969,34.180,73.242,72.266,0
1610634945.626,60.547,46.387,50.293,66.895,68.848,0
1610634945.630,-5.371,41.504,39.062,3.906,23.926,0
1610634945.634,-24.902,36.133,37.598,-22.461,32.227,0
1610634945.638,20.996,32.715,42.480,11.230,20.508,0
1610634945.642,66.406,36.133,35.645,55.664,54.199,0
1610634945.644,44.922,44.434,33.203,59.570,67.871,0
1610634945.648,-19.531,40.527,35.645,3.906,21.484,0
1610634945.652,-12.695,41.504,43.945,-17.090,11.230,0
1610634945.656,30.273,51.270,49.316,30.762,0.977,0
1610634945.660,68.359,44.434,39.062,73.242,1.465,0
1610634945.664,59.570,33.203,38.086,64.453,53.223,0
1610634945.668,4.395,34.668,41.016,12.695,17.578,0
1610634945.671,-22.949,45.410,48.340,-10.742,-9.766,0
1610634945.675,12.695,54.199,45.898,22.461,18.066,0
1610634945.679,63.965,51.758,35.156,58.594,33.691,0
1610634945.683,64.453,42.969,33.691,55.176,41.504,0
1610634945.687,16.602,36.133,28.809,16.113,13.672,0
1610634945.690,-9.766,42.480,36.621,-10.254,-18.066,0
1610634945.694,19.531,53.223,49.316,23.438,-66.895,0
1610634945.698,51.758,41.016,41.016,69.824,-56.641,0
1610634945.702,58.594,27.344,26.855,65.430,-0.488,0
1610634945.706,37.109,29.297,39.062,29.785,82.520,0
1610634945.710,-6.836,36.133,44.922,-6.836,14.160,0
1610634945.714,-5.371,43.945,32.227,-5.371,-34.180,0
1610634945.717,57.617,44.922,31.738,60.547,23.926,0
1610634945.721,91.309,35.645,32.227,83.496,39.551,0
1610634945.725,36.133,41.992,35.645,39.062,43.457,0
1610634945.729,-18.066,51.270,41.504,-12.207,-1.465,0
1610634945.733,-13.184,44.434,31.250,-10.254,-6.348,0
1610634945.735,47.852,41.992,24.414,43.945,69.336,0
1610634945.739,92.773,53.223,38.086,82.520,90.332,0
1610634945.743,48.828,52.246,48.340,53.223,94.238,0
1610634945.747,-13.184,32.715,41.504,-7.812,60.059,0
1610634945.751,-20.508,33.203,45.410,-4.395,-18.555,0
1610634945.755,23.926,42.480,52.734,46.387,-22.949,0
1610634945.759,74.219,39.551,45.898,78.125,-5.371,0
1610634945.762,50.293,40.527,37.598,60.547,20.020,0
1610634945.766,-3.418,40.527,40.039,-1.465,40.527,0
1610634945.770,-9.766,43.457,48.828,-16.113,44.922,0
1610634945.774,30.762,48.340,45.898,40.039,53.711,0
1610634945.778,87.891,49.316,53.711,81.055,60.547,0
1610634945.779,70.312,53.223,52.246,62.988,79.590,0
1610634945.783,14.160,50.781,43.945,15.625,46.387,0
1610634945.787,4.395,51.270,51.270,3.906,19.531,0
1610634945.791,30.762,55.664,51.270,40.039,52.734,0
1610634945.795,74.707,54.688,46.387,79.590,77.637,0
1610634945.799,66.406,46.875,55.664,70.312,87.402,0
1610634945.803,14.160,42.480,56.152,25.879,62.500,0
1610634945.806,-6.348,49.316,46.387,-8.301,83.496,0
1610634945.810,33.203,58.105,51.270,21.973,64.941,0
1610634945.814,74.707,58.105,38.574,74.219,32.715,0
1610634945.818,75.684,43.457,29.785,73.730,48.828,0
1610634945.822,34.180,41.992,39.062,33.691,0.977,0
1610634945.824,4.883,53.711,37.109,5.371,-20.508,0
1610634945.828,15.137,40.039,31.250,13.672,63.965,0
1610634945.832,53.223,35.156,33.691,59.570,78.125,0
1610634945.836,76.660,46.387,41.504,84.473,20.996,0
1610634945.840,9.766,41.992,39.062,33.203,29.297,0
1610634945.844,-18.066,42.480,39.062,-11.719,56.152,0
1610634945.848,24.902,54.688,50.781,20.508,15.625,0
1610634945.851,63.477,51.270,52.734,66.406,59.570,0
1610634945.855,72.266,45.410,44.922,69.824,66.895,0
1610634945.859,25.879,44.434,42.480,30.762,-27.344,0
1610634945.863,-31.738,42.969,36.621,-4.395,-6.836,0
1610634945.867,-13.184,45.410,37.109,18.555,35.156,0
1610634945.869,72.266,45.898,35.645,63.965,8.301,0
1610634945.873,84.961,39.551,32.227,76.660,9.277,0
1610634945.877,36.621,42.480,42.969,40.527,51.270,0
1610634945.881,3.906,54.199,55.176,1.465,22.461,0
1610634945.885,-4.395,44.434,50.781,0.977,-36.621,0
1610634945.889,30.273,32.227,28.320,43.945,-36.621,0
1610634945.893,63.477,31.738,29.297,80.078,3.418,0
1610634945.896,32.715,31.738,43.457,38.086,18.555,0
1610634945.900,-10.742,37.109,44.434,-17.578,-9.277,0
1610634945.904,2.930,46.875,48.828,5.371,6.348,0
1610634945.908,54.688,55.664,48.340,59.570,76.172,0
1610634945.912,76.172,51.758,39.551,86.426,78.125,0
1610634945.916,53.223,47.363,45.898,53.711,56.152,0
1610634945.920,3.906,41.992,49.316,0.488,-3.906,0
1610634945.924,-13.184,38.574,36.621,-8.789,29.785,0
1610634945.928,34.668,41.992,42.969,30.762,45.898,0
1610634945.932,75.195,36.133,45.898,70.312,28.320,0
1610634945.936,41.016,35.645,39.062,62.988,6.836,0
1610634945.940,-20.996,41.016,38.574,8.301,-21.973,0
1610634945.943,-20.996,43.457,39.551,-15.137,0.000,0
1610634945.947,19.531,46.387,32.227,33.691,37.598,0
1610634945.951,67.871,41.992,20.996,81.055,47.852,0
1610634945.955,49.316,42.969,27.832,72.754,12.207,0
1610634945.959,-6.836,50.293,41.016,20.508,1.465,0
1610634945.974,-5.371,50.293,41.016,3.418,-2.441,0
1610634945.978,22.949,31.250,36.621,29.785,-27.344,0
1610634945.982,60.059,25.879,36.621,69.824,39.551,0
1610634945.986,51.758,36.133,41.016,74.707,76.172,0
1610634945.990,8.789,52.246,49.316,19.043,15.137,0
1610634945.994,-20.508,58.594,46.875,-12.207,-15.137,0
1610634945.998,-1.953,44.434,33.691,18.555,-55.176,0
1610634946.001,72.754,44.434,35.156,64.941,-19.043,0
1610634946.005,82.031,49.805,38.574,74.707,29.785,0
1610634946.009,15.137,38.574,32.227,21.973,35.156,0
1610634946.013,-25.879,29.785,25.391,-25.391,-9.766,0
1610634946.017,1.465,30.273,33.203,1.465,-23.438,0
1610634946.019,66.406,24.414,38.574,58.105,2.441,0
1610634946.023,72.754,29.785,25.391,67.383,8.789,0
1610634946.027,16.113,41.016,31.250,17.090,-34.668,0
1610634946.031,-11.230,41.016,46.387,-25.879,-66.895,0
1610634946.035,7.324,37.598,57.129,3.906,-9.277,0
1610634946.039,51.270,39.062,62.500,64.941,37.109,0
1610634946.043,67.383,42.969,56.641,79.590,20.996,0
1610634946.046,22.949,44.922,54.688,28.809,1.465,0
1610634946.050,-14.648,46.875,54.688,-21.484,-15.137,0
1610634946.054,-5.371,39.062,52.734,-1.953,-18.555,0
1610634946.058,31.738,41.992,60.547,53.711,35.156,0
1610634946.062,61.523,48.828,55.664,83.984,2.930,0
1610634946.065,35.645,39.062,44.922,45.898,-0.488,0
1610634946.069,-9.277,34.180,50.293,-11.719,20.996,0
1610634946.073,-14.648,40.527,40.527,-3.906,31.250,0
1610634946.077,39.062,45.410,34.180,44.922,10.742,0
1610634946.081,65.430,43.457,45.410,71.289,49.316,0
1610634946.085,34.668,46.387,51.270,53.223,62.500,0
1610634946.089,-6.836,42.969,42.969,1.953,42.969,0
1610634946.092,-12.695,41.016,41.016,-6.836,28.809,0
1610634946.096,36.621,40.039,42.480,28.320,43.945,0
1610634946.100,72.266,32.227,54.688,64.453,22.949,0
1610634946.104,49.316,45.410,57.617,55.176,40.527,0
1610634946.108,-6.348,43.457,34.668,-7.324,50.293,0
1610634946.109,-16.113,37.109,42.480,-18.555,12.695,0
1610634946.113,16.602,48.828,47.852,19.043,-1.465,0
1610634946.117,69.336,55.664,43.457,53.711,1.465,0
1610634946.121,60.547,49.316,46.875,48.340,40.527,0
1610634946.125,-6.348,40.527,45.410,-2.930,31.738,0
1610634946.129,-16.113,37.598,35.645,-17.090,8.301,0
1610634946.133,24.414,40.527,35.645,23.438,13.672,0
1610634946.136,70.801,43.457,35.645,69.336,18.555,0
1610634946.140,58.105,44.922,39.062,74.219,77.148,0
1610634946.144,6.348,45.410,48.340,16.113,23.926,0
1610634946.148,-12.695,39.551,41.016,-24.902,-1.953,0
1610634946.152,28.809,39.062,45.898,14.648,77.637,0
1610634946.154,88.867,50.781,55.664,76.660,28.809,0
1610634946.158,72.754,56.152,49.316,79.102,33.203,0
1610634946.162,14.160,52.734,40.039,28.320,69.336,0
1610634946.166,-14.648,43.945,41.016,-19.043,2.930,0
1610634946.170,1.953,38.086,38.086,0.488,36.621,0
1610634946.174,73.730,41.992,34.180,62.988,76.172,0
1610634946.178,83.008,44.434,47.363,77.148,57.129,0
1610634946.181,17.578,38.086,42.480,26.367,40.527,0
1610634946.185,-6.348,37.109,39.062,-18.066,50.781,0
1610634946.189,17.090,47.852,46.875,15.137,52.246,0
1610634946.193,68.848,45.898,41.504,76.660,29.785,0
1610634946.197,71.289,29.297,48.828,72.266,47.852,0
1610634946.200,24.414,32.715,65.918,34.180,62.012,0
1610634946.204,-10.742,40.039,48.340,-8.301,41.992,0
1610634946.208,0.488,32.227,27.832,0.000,31.738,0
1610634946.212,50.293,36.621,20.020,54.199,38.574,0
1610634946.216,79.102,44.434,20.996,70.801,47.363,0
1610634946.220,35.156,42.480,28.809,34.668,33.691,0
1610634946.224,1.465,34.180,27.344,-9.277,-2.930,0
1610634946.227,15.625,40.039,46.387,1.953,24.414,0
1610634946.231,46.875,43.945,55.664,52.734,-14.648,0
1610634946.235,81.055,36.133,42.969,77.148,-35.645,0
1610634946.239,40.527,31.738,44.922,43.457,72.266,0
1610634946.243,-18.066,36.133,46.875,-8.301,70.312,0
1610634946.244,-14.648,45.410,44.434,-6.836,30.273,0
1610634946.248,40.527,47.852,40.039,45.410,14.648,0
1610634946.252,77.637,44.434,38.086,86.914,0.977,0
1610634946.256,52.734,48.828,44.434,67.871,24.902,0
1610634946.260,4.883,51.270,46.387,6.348,55.176,0
1610634946.264,-3.418,41.016,35.645,-10.254,-0.977,0
1610634946.268,29.297,30.762,26.367,32.715,-51.270,0
1610634946.271,66.895,40.527,36.621,74.219,-6.836,0
1610634946.275,61.523,47.852,51.270,62.012,56.152,0
1610634946.279,5.371,41.504,48.340,-5.859,48.340,0
1610634946.283,-10.254,37.109,52.246,-21.973,34.668,0
1610634946.287,23.438,45.898,64.453,34.668,42.480,0
1610634946.289,69.336,43.945,59.082,82.520,68.359,0
1610634946.293,60.059,35.156,54.199,70.801,20.020,0
1610634946.297,0.488,42.969,47.852,15.625,-6.836,0
1610634946.301,-19.043,44.922,33.691,-14.160,19.531,0
1610634946.305,18.066,42.969,29.297,23.926,-29.297,0
1610634946.309,62.012,35.645,29.785,63.965,-0.488,0
1610634946.313,49.316,32.715,32.715,56.152,-27.832,0
1610634946.316,3.418,35.645,35.645,18.066,-47.363,0
1610634946.320,-11.230,38.574,36.133,-11.230,45.898,0
1610634946.324,17.578,44.434,36.621,16.602,15.137,0
1610634946.328,69.336,48.828,28.320,67.383,-28.809,0
1610634946.332,77.637,50.293,28.809,83.984,41.992,0
1610634946.349,13.184,40.039,31.738,33.203,64.453,0
1610634946.353,-16.113,40.039,38.574,-13.672,20.020,0
1610634946.357,17.090,49.316,39.551,22.949,-24.414,0
1610634946.361,61.035,43.457,21.973,72.754,-89.844,0
1610634946.365,74.707,39.551,20.508,76.172,-11.230,0
1610634946.369,16.602,37.598,23.926,39.062,-4.395,0
1610634946.373,-18.555,37.109,23.926,-3.418,-17.578,0
1610634946.376,2.930,39.551,29.785,5.371,10.254,0
1610634946.380,48.828,40.527,38.086,55.664,-18.555,0
1610634946.384,67.871,41.992,43.945,70.312,-25.391,0
1610634946.388,21.484,39.062,35.156,27.344,20.508,0
1610634946.392,-23.438,33.691,36.621,-15.137,24.414,0
1610634946.394,-10.254,33.691,38.086,0.977,13.672,0
1610634946.398,52.734,39.551,35.645,57.617,7.324,0
1610634946.402,79.102,48.828,36.133,87.891,58.594,0
1610634946.406,41.016,57.129,48.340,47.363,79.590,0
1610634946.410,-22.949,41.504,51.270,-14.160,12.207,0
1610634946.414,-11.719,30.762,31.250,-20.508,-4.395,0
1610634946.418,58.594,40.527,33.203,37.598,43.945,0
1610634946.421,77.148,33.203,46.387,78.613,76.660,0
1610634946.425,20.508,28.320,49.316,47.852,33.203,0
1610634946.429,-18.555,37.109,54.688,-4.883,35.156,0
1610634946.433,-6.836,37.109,59.082,-14.648,44.922,0
1610634946.437,17.578,38.086,55.664,36.621,37.109,0
1610634946.440,64.453,41.504,48.340,73.730,66.895,0
1610634946.444,50.293,33.203,44.434,57.129,73.242,0
1610634946.448,-15.137,27.344,41.016,7.812,27.344,0
1610634946.452,-11.719,37.109,50.293,-0.488,4.395,0
1610634946.456,33.691,47.363,63.477,48.340,21.484,0
1610634946.460,66.895,44.434,54.199,77.148,50.293,0
1610634946.464,45.410,44.922,43.457,59.082,68.359,0
1610634946.467,6.836,56.641,43.457,12.207,21.973,0
1610634946.471,-10.742,48.828,42.969,-12.695,55.664,0
1610634946.475,27.832,38.086,55.664,30.273,35.156,0
1610634946.479,71.289,45.410,63.965,80.078,-26.855,0
1610634946.483,47.363,36.133,53.711,68.359,45.898,0
1610634946.484,7.812,26.367,45.410,12.695,38.086,0
1610634946.488,-7.812,41.016,32.715,-19.043,-16.602,0
1610634946.492,12.695,48.828,24.902,4.883,13.672,0
1610634946.496,61.035,42.480,20.996,61.035,35.645,0
1610634946.500,63.477,39.062,19.043,67.383,11.719,0
1610634946.504,11.719,47.852,25.391,18.555,4.395,0
1610634946.508,-10.254,49.316,35.645,-8.789,35.156,0
1610634946.511,16.113,51.270,36.621,14.160,42.969,0
1610634946.515,67.871,52.734,28.809,63.477,45.410,0
1610634946.519,73.242,42.480,35.645,66.406,62.500,0
1610634946.523,14.160,44.434,45.410,30.762,34.180,0
1610634946.527,-0.977,37.598,37.109,-6.348,-5.371,0
1610634946.529,9.766,22.461,24.902,1.953,40.039,0
1610634946.533,50.781,34.180,23.438,59.570,65.918,0
1610634946.537,82.031,41.016,39.062,85.938,59.082,0
1610634946.541,10.254,26.367,35.645,38.574,37.598,0
1610634946.545,-23.926,32.715,31.250,-10.254,60.547,0
1610634946.549,7.812,44.434,31.250,7.812,51.270,0
1610634946.553,41.016,41.504,27.832,53.711,-20.508,0
1610634946.556,77.637,38.086,39.551,76.172,4.883,0
1610634946.560,47.363,42.480,50.781,50.293,51.270,0
1610634946.564,-18.555,43.457,45.410,0.488,23.926,0
1610634946.568,-13.184,35.156,35.156,-9.277,-4.395,0
1610634946.572,39.062,34.180,38.086,46.875,53.223,0
1610634946.574,62.500,38.574,41.016,81.055,92.773,0
1610634946.578,45.898,39.062,34.668,46.875,32.227,0
1610634946.582,11.230,42.969,38.574,4.883,-24.414,0
1610634946.586,-1.465,50.293,40.039,8.301,0.977,0
1610634946.590,44.922,43.945,24.414,49.805,56.641,0
1610634946.594,90.820,39.062,11.719,78.125,56.152,0
1610634946.598,52.246,41.992,24.414,58.105,23.438,0
1610634946.601,-10.742,39.551,42.480,1.465,41.992,0
1610634946.605,-13.672,39.062,42.969,-14.648,23.926,0
1610634946.609,26.367,43.945,38.574,28.809,18.555,0
1610634946.613,70.312,39.551,37.598,70.312,38.574,0
1610634946.617,59.082,39.551,45.898,71.289,-5.371,0
1610634946.619,0.000,45.410,41.504,9.277,10.254,0
1610634946.623,-17.578,40.039,26.367,-24.902,4.883,0
1610634946.627,25.879,39.551,28.320,26.367,11.230,0
1610634946.631,77.637,38.086,35.156,69.336,75.195,0
1610634946.635,57.617,39.551,42.969,65.918,110.352,0
1610634946.639,-0.488,43.457,41.504,24.414,116.211,0
1610634946.643,-18.555,42.969,31.738,-11.719,64.453,0
1610634946.646,16.602,47.852,35.645,19.043,69.336,0
1610634946.650,79.102,49.805,44.434,77.148,52.734,0
1610634946.654,83.008,50.781,41.992,79.590,24.414,0
1610634946.658,36.621,57.617,50.293,38.086,16.113,0
1610634946.662,11.230,46.875,59.082,7.324,-17.578,0
1610634946.666,31.738,45.410,53.223,27.344,-2.930,0
1610634946.670,75.684,56.641,45.898,76.660,6.836,0
1610634946.674,71.289,62.500,53.223,88.867,60.059,0
1610634946.678,19.043,62.012,61.523,42.480,-1.465,0
1610634946.682,-21.484,53.711,53.223,-2.441,-93.750,0
1610634946.686,-10.742,49.316,39.551,7.324,-17.090,0
1610634946.690,47.363,57.129,40.527,58.594,26.855,0
1610634946.693,74.707,52.734,33.691,70.801,85.938,0
1610634946.697,17.090,42.480,29.785,30.273,115.723,0
1610634946.701,-25.879,43.945,40.039,-15.137,19.531,0
1610634946.705,-5.859,44.922,46.875,0.000,-20.508,0
1610634946.709,43.457,41.504,53.223,60.059,40.527,0
1610634946.725,69.824,40.527,50.781,79.102,85.449,0
1610634946.729,28.320,43.945,50.781,39.062,81.543,0
1610634946.733,-17.090,39.062,54.199,-14.160,-11.230,0
1610634946.737,-8.789,45.898,57.129,-11.230,13.672,0
1610634946.741,42.969,67.871,56.152,62.012,51.270,0
1610634946.745,88.867,62.988,44.434,99.121,41.016,0
1610634946.749,41.016,39.062,36.621,31.738,33.203,0
1610634946.752,-24.902,35.156,45.410,-28.809,-2.930,0
1610634946.756,-20.020,35.645,45.898,-23.438,3.906,0
1610634946.760,30.273,38.086,45.410,24.902,15.137,0
1610634946.764,71.289,43.945,49.805,76.660,18.066,0
1610634946.768,37.598,44.434,48.828,58.105,16.113,0
1610634946.770,-11.230,43.457,36.621,-5.371,26.855,0
1610634946.774,-22.461,39.062,31.250,-28.320,-3.418,0
1610634946.778,11.230,43.457,40.527,10.742,-18.066,0
1610634946.782,43.457,44.922,44.434,49.316,54.688,0
1610634946.786,13.184,34.668,40.039,25.391,47.852,0
1610634946.790,-32.715,37.598,40.527,-24.902,14.648,0
1610634946.794,-54.199,43.945,41.016,-51.270,-17.090,0
1610634946.797,-21.973,51.758,42.969,-7.812,-58.105,0
1610634946.801,25.879,50.781,46.875,41.016,60.547,0
1610634946.805,-10.254,38.086,43.945,-0.977,77.637,0
1610634946.809,-75.195,31.738,36.621,-62.500,30.762,0
1610634946.813,-78.125,42.969,37.598,-79.590,46.387,0
1610634946.814,-51.758,49.316,48.828,-39.062,54.199,0
1610634946.818,-6.836,44.922,32.715,-9.766,43.457,0
1610634946.822,-22.949,49.316,32.715,-26.855,42.969,0
1610634946.826,-81.543,41.016,41.992,-71.777,81.055,0
1610634946.830,-107.422,31.738,31.250,-111.816,39.551,0
1610634946.834,-85.938,29.297,36.621,-81.055,23.926,0
1610634946.838,-15.625,24.902,49.805,-17.090,71.777,0
1610634946.841,-6.836,34.180,51.270,0.977,143.555,0
1610634946.845,-59.082,41.504,37.109,-44.434,87.402,0
1610634946.849,-82.520,45.410,31.250,-83.496,-54.688,0
1610634946.853,-47.852,49.316,45.898,-36.621,-56.152,0
1610634946.857,8.789,40.527,41.992,23.438,5.371,0
1610634946.859,20.508,39.062,37.109,27.832,14.160,0
1610634946.863,-24.414,36.621,45.898,-6.348,19.043,0
1610634946.867,-42.480,27.832,33.203,-41.504,11.719,0
1610634946.871,-10.742,38.086,23.926,-15.137,-3.418,0
1610634946.875,33.203,40.527,30.762,44.922,77.637,0
1610634946.879,69.336,31.738,29.785,55.664,43.945,0
1610634946.883,38.086,35.156,30.762,29.297,-61.523,0
1610634946.886,-0.977,32.227,30.273,6.348,-20.508,0
1610634946.890,16.113,23.438,28.320,13.184,19.043,0
1610634946.894,72.754,38.086,36.621,64.941,-30.273,0
1610634946.898,93.750,41.016,28.809,98.633,33.203,0
1610634946.902,63.965,34.668,27.344,75.684,116.211,0
1610634946.905,27.832,35.156,41.992,34.180,33.691,0
1610634946.909,20.020,32.227,40.039,33.203,43.945,0
1610634946.913,67.871,39.062,26.367,85.449,57.129,0
1610634946.917,107.422,42.969,23.926,118.164,-13.184,0
1610634946.921,82.520,40.527,35.156,92.773,23.438,0
1610634946.925,14.648,35.156,21.484,41.504,21.973,0
1610634946.929,23.438,39.062,17.090,33.691,5.371,0
1610634946.932,77.637,37.598,23.438,86.914,10.742,0
1610634946.936,98.145,27.344,15.625,108.398,44.922,0
1610634946.940,71.777,25.879,20.020,74.219,67.871,0
1610634946.944,16.602,29.297,22.461,27.344,53.223,0
1610634946.948,6.348,33.203,13.672,16.113,38.574,0
1610634946.950,44.922,34.668,16.113,62.012,0.488,0
1610634946.954,92.285,35.645,23.926,110.840,14.160,0
1610634946.958,84.473,41.016,32.715,96.680,29.785,0
1610634946.962,40.527,52.246,38.574,54.199,5.859,0
1610634946.966,22.949,45.898,33.203,32.227,-57.129,0
1610634946.970,37.109,32.715,25.391,50.781,10.742,0
1610634946.974,78.125,37.598,28.320,94.727,85.938,0
1610634946.977,91.309,51.270,47.852,100.586,107.910,0
1610634946.981,57.129,59.082,53.223,67.383,68.848,0
1610634946.985,19.043,44.922,34.180,25.391,-30.762,0
1610634946.989,20.508,28.809,25.879,32.715,-59.570,0
1610634946.993,76.172,31.738,26.855,78.125,-6.348,0
1610634946.994,101.562,52.246,43.945,97.168,0.000,0
1610634946.998,45.410,50.293,47.363,51.758,43.945,0
1610634947.002,-11.719,36.133,29.785,-5.371,52.246,0
1610634947.006,11.230,34.668,33.691,14.160,68.848,0
1610634947.010,77.637,31.738,35.645,70.312,57.617,0
1610634947.014,86.426,38.574,43.945,85.449,31.250,0
1610634947.018,44.922,50.781,46.875,52.246,36.133,0
1610634947.021,11.719,45.898,37.109,1.465,-28.809,0
1610634947.025,14.648,41.504,41.016,16.113,-6.348,0
1610634947.029,44.922,45.410,46.875,78.125,60.547,0
1610634947.033,76.660,40.527,51.758,90.820,51.270,0
1610634947.037,43.457,36.133,38.574,41.504,13.184,0
1610634947.039,-16.602,30.273,25.391,-15.625,3.906,0
1610634947.043,-10.742,25.391,21.484,-2.441,27.344,0
1610634947.047,50.293,36.621,29.297,60.059,41.992,0
1610634947.051,80.078,45.898,38.086,85.449,64.941,0
1610634947.055,32.227,40.527,32.715,50.293,-7.324,0
1610634947.059,5.371,42.969,30.762,20.020,-17.578,0
1610634947.063,25.879,46.875,35.645,31.250,39.062,0
1610634947.066,55.176,38.086,40.527,51.758,-7.812,0
1610634947.070,73.730,38.574,45.410,69.336,53.711,0
1610634947.074,27.832,35.645,39.551,38.574,53.711,0
1610634947.078,-23.926,28.320,35.645,-15.137,-18.555,0
1610634947.082,-3.906,24.414,36.133,-7.324,22.461,0
1610634947.099,53.711,38.574,23.438,49.316,49.316,0
1610634947.103,83.496,52.246,20.508,80.566,42.480,0
1610634947.107,56.152,47.852,34.180,50.781,18.555,0
1610634947.111,10.742,43.457,45.898,4.395,17.578,0
1610634947.115,-2.441,43.457,37.109,-2.441,6.836,0
1610634947.119,37.109,41.016,35.156,41.992,6.348,0
1610634947.123,83.984,28.809,47.363,73.242,28.320,0
1610634947.126,52.246,33.691,46.875,62.500,32.227,0
1610634947.130,-0.977,34.668,43.457,7.324,13.184,0
1610634947.134,-12.695,29.297,43.457,-21.484,8.789,0
1610634947.138,21.484,35.156,45.410,28.809,46.387,0
1610634947.142,63.965,38.574,41.504,73.730,46.875,0
1610634947.144,57.617,43.945,36.621,65.918,26.855,0
1610634947.148,14.648,44.434,34.668,13.184,-36.621,0
1610634947.152,-10.742,35.156,27.832,-5.859,-21.973,0
1610634947.156,33.203,42.969,29.785,40.527,17.578,0
1610634947.160,64.453,47.852,24.902,70.801,32.715,0
1610634947.164,60.547,32.227,34.668,56.152,49.316,0
1610634947.168,26.855,25.391,50.781,12.207,6.348,0
1610634947.171,-19.043,24.902,38.574,-21.484,10.742,0
1610634947.175,14.160,29.785,25.879,10.742,43.945,0
1610634947.179,67.383,37.598,32.227,56.152,20.996,0
1610634947.183,73.242,41.504,50.293,57.129,55.176,0
1610634947.187,20.020,35.156,50.293,22.461,81.055,0
1610634947.189,-17.578,29.297,44.922,-16.602,42.480,0
