timestamps,TP9,AF7,AF8,TP10,Right AUX,Marker0
1610547100.396,-191.895,22.461,-0.977,-120.117,-1000.000,0
1610547100.400,152.344,12.207,4.395,103.027,-657.227,0
1610547100.404,384.277,12.207,7.812,213.867,47.363,0
1610547100.408,97.168,10.254,3.906,57.129,-85.938,0
1610547100.412,-247.070,14.648,0.000,-155.273,-765.625,0
1610547100.416,-218.262,17.578,3.418,-125.977,-1000.000,0
1610547100.420,104.004,10.254,-2.930,96.191,-731.445,0
1610547100.423,376.465,4.395,-12.695,212.891,-9.766,0
1610547100.427,155.273,9.766,-2.930,76.660,-3.906,0
1610547100.431,-204.590,22.461,9.277,-127.930,-706.543,0
1610547100.435,-216.309,27.344,8.789,-128.418,-1000.000,0
1610547100.439,80.078,17.090,0.977,72.266,-784.180,0
1610547100.442,357.910,2.930,-4.883,212.402,-65.918,0
1610547100.446,179.199,7.812,-0.488,116.211,71.777,0
1610547100.450,-187.500,21.973,7.812,-97.656,-645.020,0
1610547100.454,-241.699,22.461,16.602,-152.832,-1000.000,0
1610547100.458,31.250,18.555,15.137,44.434,-835.938,0
1610547100.462,343.262,9.277,-12.695,224.121,-152.344,0
1610547100.466,239.258,4.395,-24.414,152.832,105.469,0
1610547100.469,-144.043,11.230,7.812,-84.473,-582.031,0
1610547100.473,-272.461,20.508,22.461,-180.664,-1000.000,0
1610547100.477,-31.738,20.508,10.254,-1.953,-870.605,0
1610547100.481,323.242,13.672,2.930,201.660,-244.141,0
1610547100.485,272.461,16.602,8.789,164.062,152.832,0
1610547100.501,-107.422,25.391,18.066,-65.918,-468.262,0
1610547100.505,-277.832,23.438,15.625,-180.176,-993.164,0
1610547100.509,-78.125,17.090,11.719,-16.602,-919.922,0
1610547100.513,286.621,10.254,8.789,188.965,-333.008,0
1610547100.517,305.664,9.766,8.301,164.062,168.457,0
1610547100.521,-72.266,24.902,19.531,-40.039,-405.273,0
1610547100.525,-276.855,34.180,29.297,-172.852,-979.004,0
1610547100.528,-111.816,19.043,15.625,-60.059,-959.961,0
1610547100.532,248.535,8.301,9.766,164.551,-451.660,0
1610547100.536,312.988,12.207,16.113,190.430,167.480,0
1610547100.540,-26.855,22.461,24.414,-11.230,-269.531,0
1610547100.544,-257.324,25.879,31.250,-173.828,-917.480,0
1610547100.546,-137.207,27.344,32.227,-68.359,-1000.000,0
1610547100.550,229.492,18.066,25.879,164.062,-563.477,0
1610547100.554,350.586,-2.930,11.719,208.984,125.488,0
1610547100.558,17.090,8.301,13.184,24.902,-162.109,0
1610547100.562,-267.578,23.438,26.855,-158.691,-843.262,0
1610547100.566,-183.594,14.160,34.668,-103.516,-1000.000,0
1610547100.570,176.758,11.230,29.297,126.465,-646.973,0
1610547100.573,362.793,11.719,27.832,210.449,67.871,0
1610547100.577,63.965,12.207,36.621,39.551,-116.211,0
1610547100.581,-233.398,29.297,54.199,-146.484,-807.129,0
1610547100.585,-182.617,32.227,50.781,-108.887,-1000.000,0
1610547100.589,133.789,8.789,31.738,99.121,-701.660,0
1610547100.591,375.977,1.465,29.297,221.680,33.203,0
1610547100.595,134.277,21.484,34.668,81.543,-37.598,0
1610547100.599,-216.309,34.180,45.410,-137.695,-741.699,0
1610547100.603,-219.727,22.461,42.969,-133.789,-1000.000,0
1610547100.607,93.750,10.742,34.180,71.777,-747.070,0
1610547100.611,353.516,2.930,34.668,211.426,-18.066,0
1610547100.615,173.828,8.301,41.504,106.934,28.809,0
1610547100.618,-183.105,11.719,41.992,-127.441,-685.059,0
1610547100.622,-247.559,11.230,42.480,-161.621,-1000.000,0
1610547100.626,28.809,7.812,37.598,40.039,-821.289,0
1610547100.630,335.938,-4.395,19.531,193.848,-131.836,0
1610547100.634,216.797,6.348,18.555,109.863,73.242,0
1610547100.636,-164.551,20.508,30.273,-107.910,-618.652,0
1610547100.640,-271.973,20.508,37.598,-160.645,-1000.000,0
1610547100.644,-22.461,12.695,26.855,16.602,-859.863,0
1610547100.648,337.891,5.371,18.555,196.777,-180.176,0
1610547100.652,267.578,9.766,37.598,144.531,168.945,0
1610547100.656,-133.301,15.137,41.504,-88.867,-516.113,0
1610547100.660,-265.625,22.949,39.551,-176.270,-1000.000,0
1610547100.663,-47.363,21.484,42.480,-1.953,-907.715,0
1610547100.667,294.434,1.953,32.715,197.266,-338.867,0
1610547100.671,286.133,-4.883,24.414,161.133,121.094,0
1610547100.675,-99.609,13.184,32.715,-60.547,-445.312,0
1610547100.679,-288.086,24.414,46.875,-180.176,-985.352,0
1610547100.682,-86.426,14.160,39.062,-48.828,-940.430,0
1610547100.686,269.043,-4.883,20.996,169.434,-399.902,0
1610547100.690,315.918,-7.812,24.902,183.594,174.316,0
1610547100.694,-34.668,4.395,37.598,-28.809,-319.824,0
1610547100.698,-275.879,0.488,32.227,-169.922,-951.172,0
1610547100.702,-143.555,12.695,33.691,-54.688,-977.051,0
1610547100.706,228.516,17.578,30.273,153.320,-476.562,0
1610547100.709,343.750,5.371,16.113,187.500,151.367,0
1610547100.713,3.418,20.508,21.484,2.441,-236.816,0
1610547100.717,-271.484,26.367,18.066,-180.664,-872.559,0
1610547100.721,-166.992,21.484,11.230,-101.562,-1000.000,0
1610547100.725,189.453,10.254,9.277,129.395,-598.145,0
1610547100.728,356.445,0.977,10.254,199.219,145.996,0
1610547100.732,43.945,17.090,13.672,26.855,-82.031,0
1610547100.736,-256.836,25.391,16.113,-164.551,-807.129,0
1610547100.740,-174.805,16.113,17.090,-116.211,-1000.000,0
1610547100.744,151.855,2.441,7.324,103.516,-635.254,0
1610547100.748,368.164,-2.930,3.418,207.520,124.023,0
1610547100.752,111.328,20.020,14.648,74.707,-2.930,0
1610547100.755,-222.656,32.227,18.555,-135.742,-740.723,0
1610547100.759,-211.426,9.277,11.230,-139.160,-1000.000,0
1610547100.763,100.098,-1.953,4.395,79.102,-713.379,0
1610547100.767,361.328,3.418,-5.371,213.867,45.410,0
1610547100.771,157.715,12.695,2.441,91.309,87.891,0
1610547100.772,-192.871,24.414,18.555,-127.930,-647.461,0
1610547100.776,-222.168,22.461,20.020,-152.344,-1000.000,0
1610547100.780,58.105,8.789,12.695,50.781,-761.230,0
1610547100.784,366.211,9.766,10.254,213.379,-19.043,0
1610547100.788,218.750,18.555,9.277,116.699,154.785,0
1610547100.792,-180.664,11.230,4.883,-119.629,-561.523,0
1610547100.796,-264.648,14.648,11.230,-170.410,-1000.000,0
1610547100.799,16.602,17.090,7.812,24.902,-822.754,0
1610547100.803,354.492,3.906,-6.348,198.730,-90.820,0
1610547100.807,245.605,5.859,-0.488,134.277,213.867,0
1610547100.811,-135.742,19.531,11.230,-89.844,-487.305,0
1610547100.815,-270.020,20.508,11.230,-170.410,-1000.000,0
1610547100.817,-35.645,13.672,8.301,5.371,-874.512,0
1610547100.821,321.777,2.930,3.906,199.219,-227.051,0
1610547100.825,279.297,6.348,15.625,162.598,193.848,0
1610547100.829,-103.027,25.879,25.879,-50.781,-420.410,0
1610547100.833,-274.414,26.855,15.625,-178.711,-978.516,0
1610547100.837,-77.637,17.578,11.719,-33.203,-932.129,0
1610547100.841,266.113,10.254,12.695,180.176,-355.469,0
1610547100.844,298.340,6.348,10.254,160.156,188.965,0
1610547100.848,-65.430,14.160,7.812,-47.363,-317.383,0
1610547100.852,-282.227,24.902,15.625,-176.270,-940.918,0
1610547100.856,-131.836,20.020,14.160,-57.617,-958.984,0
1610547100.860,235.352,6.348,5.371,155.273,-422.852,0
1610547100.877,335.938,4.883,3.418,186.523,179.199,0
1610547100.881,-14.160,18.066,6.348,-2.930,-233.887,0
1610547100.885,-253.418,34.180,19.531,-164.062,-896.484,0
1610547100.889,-132.324,29.785,21.484,-74.219,-1000.000,0
1610547100.893,208.008,7.812,6.348,139.648,-524.414,0
1610547100.897,354.980,4.395,8.301,194.824,130.859,0
1610547100.901,39.062,16.602,19.043,19.043,-209.473,0
1610547100.904,-255.859,21.973,19.043,-163.086,-856.934,0
1610547100.908,-178.711,23.926,24.414,-98.633,-1000.000,0
1610547100.912,166.504,16.113,22.949,122.559,-651.855,0
1610547100.916,370.117,8.301,15.625,211.914,67.383,0
1610547100.920,96.191,15.137,20.508,61.035,-81.055,0
1610547100.921,-238.281,21.973,24.414,-137.207,-764.648,0
1610547100.925,-212.402,29.785,28.320,-102.051,-1000.000,0
1610547100.929,121.582,18.066,18.066,97.168,-716.797,0
1610547100.933,367.676,6.348,-0.488,200.684,14.160,0
1610547100.937,141.602,20.508,12.207,83.008,-18.066,0
1610547100.941,-213.867,27.344,30.762,-126.953,-731.445,0
1610547100.945,-227.539,20.508,31.250,-142.578,-1000.000,0
1610547100.948,73.730,14.648,21.973,58.105,-780.273,0
1610547100.952,355.957,9.766,15.137,212.402,-67.383,0
1610547100.956,192.383,23.438,25.879,126.953,46.387,0
1610547100.960,-186.035,31.250,27.344,-112.305,-653.809,0
1610547100.964,-252.441,16.602,17.090,-163.086,-1000.000,0
1610547100.968,32.715,9.277,17.578,41.504,-816.406,0
1610547100.972,341.309,5.859,11.719,199.219,-115.723,0
1610547100.976,215.820,13.184,10.254,116.699,148.926,0
1610547100.980,-159.180,25.391,21.973,-96.680,-541.992,0
1610547100.984,-260.254,30.762,25.391,-159.180,-1000.000,0
1610547100.988,-21.484,25.391,17.090,16.602,-866.211,0
1610547100.992,314.453,5.859,8.301,205.078,-233.887,0
1610547100.995,271.973,6.348,9.277,165.527,143.555,0
1610547100.999,-106.445,31.738,19.043,-52.734,-490.723,0
1610547101.003,-265.625,45.410,28.320,-159.180,-1000.000,0
1610547101.007,-52.734,35.645,23.438,-9.277,-901.367,0
1610547101.011,293.945,16.113,7.324,196.777,-314.453,0
1610547101.011,294.922,16.113,3.906,182.617,166.992,0
1610547101.015,-67.383,26.367,15.137,-41.504,-382.324,0
1610547101.019,-266.113,28.320,22.949,-168.457,-963.867,0
1610547101.023,-106.934,23.926,17.090,-42.969,-951.660,0
1610547101.027,248.047,13.184,8.789,171.875,-411.133,0
1610547101.031,322.754,8.789,12.695,194.336,164.551,0
1610547101.035,-25.391,20.020,20.020,-13.184,-287.598,0
1610547101.038,-267.578,32.227,27.344,-159.668,-908.691,0
1610547101.042,-136.719,31.738,27.832,-67.383,-994.629,0
1610547101.046,217.773,9.277,10.742,136.230,-520.996,0
1610547101.050,340.332,0.488,0.000,198.242,179.199,0
1610547101.054,13.672,16.602,14.648,18.066,-156.250,0
1610547101.056,-262.207,20.508,23.926,-165.039,-862.793,0
1610547101.060,-174.316,12.695,16.602,-94.238,-1000.000,0
1610547101.064,184.570,11.719,11.719,128.906,-593.262,0
1610547101.068,361.816,7.324,15.137,213.867,120.605,0
1610547101.072,48.340,10.254,20.508,43.457,-78.125,0
1610547101.076,-256.836,24.902,20.996,-154.785,-790.039,0
1610547101.080,-200.195,25.879,20.020,-113.281,-1000.000,0
1610547101.083,133.789,24.902,16.113,109.375,-661.133,0
1610547101.087,360.840,17.578,3.906,211.426,35.645,0
1610547101.091,95.703,4.395,-3.418,50.781,-36.621,0
1610547101.095,-256.348,9.277,-0.488,-154.297,-731.934,0
1610547101.099,-242.188,11.719,0.488,-150.391,-1000.000,0
1610547101.101,79.102,-1.465,-2.930,62.988,-746.582,0
1610547101.105,352.051,-14.160,-7.812,200.684,4.883,0
1610547101.109,148.438,-1.953,0.000,84.473,65.430,0
1610547101.113,-222.656,14.648,12.207,-125.488,-670.898,0
1610547101.117,-256.348,15.137,11.719,-156.738,-1000.000,0
1610547101.121,32.227,6.348,3.906,41.504,-804.199,0
1610547101.125,346.191,4.883,5.371,212.402,-98.633,0
1610547101.128,209.961,12.207,12.695,122.559,50.781,0
1610547101.132,-188.477,5.859,8.789,-114.258,-639.648,0
1610547101.136,-272.949,4.883,4.883,-179.688,-1000.000,0
1610547101.140,-2.930,2.930,4.883,9.766,-856.934,0
1610547101.144,331.055,-7.324,-2.441,188.477,-192.383,0
1610547101.146,236.816,-2.930,-3.906,122.070,148.438,0
1610547101.150,-150.879,11.719,8.789,-91.309,-512.695,0
1610547101.154,-260.742,15.137,15.137,-177.734,-996.094,0
1610547101.158,-36.133,3.906,9.766,-21.484,-919.434,0
1610547101.162,300.781,-13.184,-3.906,170.898,-327.148,0
1610547101.166,284.180,-7.812,-8.301,150.879,141.602,0
1610547101.170,-94.727,4.883,2.441,-59.082,-461.914,0
1610547101.173,-275.879,8.789,13.184,-176.270,-993.652,0
1610547101.177,-85.449,2.441,0.977,-51.758,-940.918,0
1610547101.181,262.695,-11.719,-19.043,145.508,-388.672,0
1610547101.185,304.199,-6.836,-15.137,159.180,168.945,0
1610547101.189,-56.641,4.395,-3.418,-46.387,-352.051,0
1610547101.192,-296.387,6.348,1.465,-192.383,-959.961,0
1610547101.196,-140.625,0.977,-1.465,-79.102,-970.215,0
1610547101.200,224.609,-4.395,-5.859,134.277,-487.793,0
1610547101.204,312.500,-10.254,-3.906,167.969,148.438,0
1610547101.208,-18.066,-1.465,1.465,-20.508,-227.539,0
1610547101.212,-267.578,18.555,7.812,-178.223,-893.066,0
1610547101.216,-172.363,15.137,4.395,-99.121,-1000.000,0
1610547101.219,164.062,-5.859,-13.184,107.422,-564.941,0
1610547101.223,333.496,-7.812,-15.137,179.199,148.926,0
1610547101.227,36.133,7.324,0.488,12.695,-118.164,0
1610547101.231,-258.301,15.137,9.277,-174.316,-828.125,0
1610547101.235,-187.500,9.766,6.836,-120.605,-1000.000,0
1610547101.251,155.762,2.930,-3.906,97.656,-635.742,0
1610547101.255,357.910,0.977,-6.836,205.566,92.773,0
1610547101.259,85.938,8.301,-2.441,57.617,-30.273,0
1610547101.263,-236.816,18.555,0.000,-163.574,-731.445,0
1610547101.267,-222.656,14.648,-5.371,-143.555,-1000.000,0
1610547101.271,105.957,10.254,-4.395,90.332,-721.191,0
1610547101.275,368.652,12.207,2.441,215.332,-9.766,0
1610547101.278,137.207,0.977,-7.324,68.848,22.949,0
1610547101.282,-225.098,4.395,-12.695,-151.855,-677.734,0
1610547101.286,-241.699,11.230,-11.719,-157.227,-1000.000,0
1610547101.290,61.523,2.441,-17.090,45.410,-770.020,0
1610547101.294,352.539,-0.977,-23.926,194.336,-34.668,0
1610547101.296,199.219,11.230,-16.602,96.680,101.074,0
1610547101.300,-180.664,18.066,-0.488,-120.117,-611.328,0
1610547101.304,-264.648,17.578,3.906,-163.574,-1000.000,0
1610547101.308,4.395,11.230,-4.883,14.648,-806.152,0
1610547101.312,338.379,0.488,-6.348,192.871,-90.332,0
1610547101.316,228.516,2.930,-2.441,135.742,158.203,0
1610547101.320,-152.344,21.484,8.301,-81.055,-528.320,0
1610547101.323,-254.883,29.785,14.160,-161.621,-1000.000,0
1610547101.327,-41.504,12.695,-3.418,-7.812,-867.188,0
1610547101.331,305.664,5.859,-12.207,191.895,-251.465,0
1610547101.335,276.367,11.719,-6.348,161.133,149.902,0
1610547101.339,-113.770,16.602,0.000,-67.383,-433.105,0
1610547101.341,-272.949,13.672,2.930,-168.945,-988.281,0
1610547101.345,-64.941,8.789,5.859,-22.461,-917.480,0
1610547101.349,284.668,5.371,-1.465,182.129,-313.965,0
1610547101.353,304.688,11.719,-1.465,180.176,189.941,0
1610547101.357,-54.688,21.973,8.301,-29.785,-362.305,0
1610547101.361,-265.625,25.391,8.301,-166.992,-958.496,0
1610547101.365,-102.051,19.043,-0.977,-52.246,-957.520,0
1610547101.368,263.672,11.719,-12.207,167.969,-422.852,0
1610547101.372,339.355,17.090,-5.859,197.266,153.809,0
1610547101.376,-20.508,21.973,0.000,-12.695,-310.059,0
1610547101.380,-279.297,18.555,-1.465,-181.152,-925.293,0
1610547101.384,-157.715,14.648,-0.488,-82.031,-987.793,0
1610547101.386,206.055,6.348,-7.324,145.996,-525.879,0
1610547101.390,351.562,-2.930,-7.812,196.289,153.809,0
1610547101.394,29.297,7.812,0.977,8.789,-143.555,0
1610547101.398,-267.090,24.902,5.859,-164.551,-837.891,0
1610547101.402,-180.176,23.926,2.441,-99.609,-1000.000,0
1610547101.406,171.387,14.160,-0.488,123.047,-619.629,0
1610547101.410,350.098,6.348,-1.953,204.102,122.559,0
1610547101.413,68.359,14.160,2.441,43.945,-83.008,0
1610547101.417,-238.770,31.738,22.949,-133.789,-802.734,0
1610547101.421,-199.219,24.414,16.113,-105.469,-1000.000,0
1610547101.425,112.305,2.441,-5.371,83.496,-702.148,0
1610547101.429,346.680,-4.883,-5.859,200.195,31.738,0
1610547101.433,115.234,0.977,4.395,67.383,-24.414,0
1610547101.437,-235.840,11.230,12.207,-148.926,-730.957,0
1610547101.441,-238.281,16.113,8.789,-143.555,-1000.000,0
1610547101.445,79.590,13.672,8.301,73.242,-781.738,0
1610547101.449,359.863,8.301,2.441,208.008,-89.844,0
1610547101.453,163.574,12.695,-5.371,99.121,44.434,0
1610547101.457,-208.984,20.020,4.883,-112.305,-644.531,0
1610547101.460,-243.652,30.762,20.020,-142.578,-1000.000,0
1610547101.464,34.180,27.832,15.137,45.410,-838.867,0
1610547101.468,325.684,1.953,-5.859,185.547,-145.020,0
1610547101.472,210.449,5.859,-2.930,107.910,104.492,0
1610547101.476,-173.828,21.484,1.953,-100.586,-595.703,0
1610547101.476,-264.160,17.090,-3.906,-175.293,-1000.000,0
1610547101.480,-0.977,8.789,-5.371,-0.488,-854.004,0
1610547101.484,323.242,5.371,-5.371,189.941,-228.516,0
1610547101.488,250.977,5.371,0.488,141.602,102.539,0
1610547101.492,-127.930,14.648,4.883,-67.871,-513.672,0
1610547101.496,-264.648,30.273,12.695,-155.273,-998.535,0
1610547101.500,-52.734,19.531,9.766,-0.488,-918.457,0
1610547101.503,291.504,3.906,-2.441,180.176,-343.750,0
1610547101.507,271.973,4.883,-0.488,153.320,115.234,0
1610547101.511,-103.516,7.812,4.395,-51.758,-439.941,0
1610547101.515,-275.391,17.090,9.766,-181.641,-973.633,0
1610547101.519,-90.332,17.578,5.371,-45.898,-952.148,0
1610547101.521,271.484,7.324,-1.953,162.598,-417.969,0
1610547101.525,319.824,5.859,2.441,174.316,173.340,0
1610547101.529,-47.363,16.113,12.207,-17.578,-301.270,0
1610547101.533,-277.832,26.367,15.625,-168.457,-937.500,0
1610547101.537,-139.648,24.902,12.207,-62.988,-983.398,0
1610547101.541,225.586,17.090,11.230,164.551,-513.672,0
1610547101.545,333.984,17.090,11.719,208.984,109.863,0
1610547101.548,11.719,20.020,8.301,0.977,-241.699,0
1610547101.552,-244.629,19.043,6.836,-176.270,-874.512,0
1610547101.556,-160.645,17.090,4.883,-93.262,-1000.000,0
1610547101.560,188.965,11.230,5.859,122.559,-600.586,0
1610547101.564,360.352,5.859,4.883,190.918,109.375,0
1610547101.566,66.406,15.625,7.324,29.297,-113.770,0
1610547101.570,-240.234,25.879,17.578,-149.902,-803.223,0
1610547101.574,-179.688,23.438,18.066,-105.469,-1000.000,0
1610547101.578,147.949,10.742,9.766,104.004,-664.062,0
1610547101.582,361.328,4.395,2.441,212.891,69.336,0
1610547101.586,122.070,18.555,9.766,72.266,-49.316,0
1610547101.590,-216.309,41.016,28.320,-127.930,-748.047,0
1610547101.593,-212.891,35.156,20.508,-119.629,-1000.000,0
1610547101.597,103.516,6.836,-0.488,69.824,-746.094,0
1610547101.601,369.629,1.953,-0.488,202.637,-2.930,0
1610547101.605,156.738,15.625,7.324,94.727,15.137,0
1610547101.609,-208.496,22.461,11.719,-118.164,-699.219,0
1610547101.626,-236.328,18.555,10.742,-141.113,-1000.000,99
1610547101.630,50.781,20.020,13.184,56.641,-808.594,0
1610547101.634,355.469,18.066,8.301,211.914,-99.609,0
1610547101.638,223.145,16.113,12.207,124.512,99.121,0
1610547101.642,-160.156,26.367,25.391,-86.426,-603.027,0
1610547101.646,-249.512,28.809,22.949,-147.949,-1000.000,0
1610547101.650,3.906,21.484,13.184,21.973,-838.379,0
1610547101.653,319.824,8.301,4.883,201.660,-172.363,0
1610547101.657,236.816,11.719,8.301,142.578,139.648,0
1610547101.661,-137.207,23.926,14.648,-75.195,-518.555,0
1610547101.665,-271.973,24.902,16.113,-162.109,-1000.000,0
1610547101.669,-41.992,20.020,11.230,-9.277,-897.461,0
1610547101.671,315.918,12.207,9.766,189.941,-284.180,0
1610547101.675,288.574,12.695,14.160,171.875,165.039,0
1610547101.679,-101.074,23.438,20.020,-47.363,-434.082,0
1610547101.683,-280.273,29.297,28.320,-156.738,-984.863,0
1610547101.687,-70.312,26.855,25.391,-12.695,-931.641,0
1610547101.691,281.250,13.184,4.395,188.965,-361.816,0
1610547101.695,307.617,10.742,-1.465,179.688,148.926,0
1610547101.698,-52.734,21.484,11.230,-33.691,-386.719,0
1610547101.702,-276.367,28.320,21.973,-169.922,-955.078,0
1610547101.706,-127.930,24.414,20.508,-54.688,-988.281,0
1610547101.710,239.746,11.230,6.836,156.738,-500.000,0
1610547101.714,344.727,6.836,2.930,191.406,152.344,0
1610547101.716,-1.465,23.438,16.602,10.254,-269.043,0
1610547101.720,-271.973,26.855,19.043,-155.762,-912.598,0
1610547101.724,-158.203,11.719,3.418,-83.008,-1000.000,0
1610547101.728,192.383,-2.441,-10.254,132.324,-594.238,0
1610547101.732,350.586,-1.465,-8.789,206.543,79.590,0
1610547101.736,40.527,14.160,3.906,37.109,-244.629,0
1610547101.740,-257.324,15.625,8.301,-158.203,-873.535,0
1610547101.743,-190.918,10.254,3.418,-104.004,-1000.000,0
1610547101.747,153.320,6.836,-1.465,112.793,-710.938,0
1610547101.751,368.164,6.836,1.953,198.730,-15.137,0
1610547101.755,94.727,12.695,6.348,43.945,-126.953,0
1610547101.759,-242.188,20.020,9.277,-149.414,-802.734,0
1610547101.762,-215.820,23.438,10.254,-122.559,-1000.000,0
1610547101.766,118.652,17.578,4.883,86.914,-747.559,0
1610547101.770,347.168,0.977,-9.277,201.660,-24.414,0
1610547101.774,120.605,3.418,-5.371,70.312,-58.105,0
1610547101.778,-219.238,13.672,6.836,-136.230,-760.254,0
1610547101.782,-237.305,15.625,-2.441,-144.531,-1000.000,0
1610547101.786,61.523,10.742,-9.766,60.059,-805.176,0
1610547101.789,347.656,1.953,-4.395,204.590,-138.672,0
1610547101.793,181.641,15.625,1.953,108.887,-46.387,0
1610547101.797,-192.383,25.879,12.207,-116.211,-699.707,0
1610547101.801,-264.648,10.742,7.812,-173.828,-1000.000,0
1610547101.805,3.418,4.395,7.324,28.809,-844.238,0
1610547101.806,332.031,9.766,12.207,205.566,-170.410,0
1610547101.810,215.332,6.836,7.812,117.188,103.027,0
1610547101.814,-168.945,12.207,9.277,-107.422,-580.566,0
1610547101.818,-274.414,17.090,11.719,-173.828,-1000.000,0
1610547101.822,-34.180,11.230,12.695,4.395,-890.137,0
1610547101.826,309.570,10.254,10.254,193.359,-283.691,0
1610547101.830,244.629,11.719,8.789,148.926,102.539,0
1610547101.833,-129.883,19.531,17.578,-62.012,-519.043,0
1610547101.837,-270.508,23.926,22.949,-170.898,-1000.000,0
1610547101.841,-74.219,10.254,11.230,-25.879,-910.156,0
1610547101.845,272.949,-1.465,0.000,178.223,-347.656,0
1610547101.849,286.621,-0.488,5.371,167.969,127.930,0
1610547101.852,-72.754,15.137,18.066,-41.992,-401.855,0
1610547101.856,-286.133,23.438,16.602,-180.664,-964.844,0
1610547101.860,-129.883,12.207,7.812,-56.152,-947.754,0
1610547101.864,243.164,6.348,2.930,159.668,-428.223,0
1610547101.868,314.941,6.348,0.977,173.340,152.344,0
1610547101.872,-32.227,16.113,9.277,-27.344,-273.926,0
1610547101.876,-271.973,24.414,14.160,-177.246,-907.715,0
1610547101.879,-147.949,19.531,11.230,-75.195,-1000.000,0
1610547101.883,200.195,8.789,-1.953,139.160,-528.809,0
1610547101.887,325.195,1.953,-5.371,190.430,160.645,0
1610547101.891,13.184,13.672,0.977,11.719,-188.965,0
1610547101.895,-267.090,26.855,2.930,-163.086,-870.605,0
1610547101.897,-177.246,26.367,8.789,-95.215,-1000.000,0
1610547101.901,185.547,15.137,-1.953,120.117,-598.633,0
1610547101.905,351.562,11.719,-7.812,202.148,92.285,0
1610547101.909,64.453,20.020,2.930,40.039,-118.652,0
1610547101.913,-233.887,28.809,8.789,-148.926,-800.781,0
1610547101.917,-194.336,31.738,8.301,-104.980,-1000.000,0
1610547101.921,132.324,21.484,6.836,112.305,-712.402,0
1610547101.924,365.234,16.113,2.930,216.797,-4.395,0
1610547101.928,122.559,18.066,1.953,67.871,-30.762,0
1610547101.932,-223.145,24.902,9.277,-139.648,-727.051,0
1610547101.936,-233.398,26.855,17.090,-125.977,-1000.000,0
1610547101.940,81.055,21.484,16.602,85.449,-758.301,0
1610547101.941,353.027,5.371,-2.930,210.449,-4.395,0
1610547101.945,134.766,7.324,-6.348,83.984,107.910,0
1610547101.949,-215.332,25.391,4.883,-123.047,-637.207,0
1610547101.953,-227.539,24.902,6.348,-141.113,-1000.000,0
1610547101.957,49.805,15.625,3.906,51.270,-808.105,0
1610547101.961,348.633,8.301,1.953,214.355,-83.008,0
1610547101.965,216.309,13.672,9.277,133.789,127.441,0
1610547101.968,-163.086,22.949,15.625,-89.355,-576.172,0
1610547101.972,-256.836,21.484,13.672,-152.344,-1000.000,0
1610547101.976,3.906,12.695,8.789,25.879,-845.703,0
1610547101.980,332.520,5.859,2.930,200.195,-175.781,0
1610547101.984,263.184,16.113,8.789,138.672,181.641,0
1610547102.001,-110.840,26.367,19.043,-68.359,-467.285,0
1610547102.005,-262.207,19.531,16.113,-154.785,-997.559,0
1610547102.009,-46.875,13.184,10.254,-9.766,-892.578,0
1610547102.013,298.828,4.395,3.906,184.082,-263.184,0
1610547102.017,291.992,5.371,5.371,160.156,209.473,0
1610547102.021,-90.332,20.996,19.043,-52.246,-370.605,0
1610547102.025,-277.832,25.879,27.344,-166.992,-970.215,0
1610547102.028,-88.379,16.113,20.020,-39.062,-923.340,0
1610547102.032,260.742,7.812,7.812,159.180,-312.500,0
1610547102.036,307.129,10.742,7.812,161.621,232.910,0
1610547102.040,-41.992,22.949,24.902,-28.809,-253.906,0
1610547102.044,-258.789,28.320,31.738,-170.410,-908.203,0
1610547102.046,-126.465,15.137,15.625,-70.801,-954.102,0
1610547102.050,221.680,2.441,5.371,145.020,-409.180,0
1610547102.054,336.914,3.418,10.254,175.781,206.055,0
1610547102.058,10.742,20.508,20.020,-13.672,-157.715,0
1610547102.062,-256.348,29.297,24.414,-174.805,-851.562,0
1610547102.066,-158.203,22.949,19.531,-94.727,-996.582,0
1610547102.070,194.336,9.766,11.719,125.000,-472.656,0
1610547102.073,365.723,4.883,7.324,188.965,263.184,0
1610547102.077,57.129,15.625,13.672,16.602,2.930,0
1610547102.081,-249.512,26.855,21.973,-158.691,-761.719,0
1610547102.085,-183.105,30.273,21.973,-108.887,-1000.000,0
1610547102.089,145.508,14.160,7.812,97.656,-524.414,0
1610547102.091,368.164,3.906,-1.953,192.383,215.820,0
1610547102.095,106.934,7.812,3.418,40.527,111.816,0
1610547102.099,-236.328,16.602,11.719,-161.133,-645.996,0
1610547102.103,-211.426,24.902,8.301,-139.160,-1000.000,0
1610547102.107,104.980,17.090,2.441,73.242,-624.023,0
1610547102.111,357.910,5.859,4.395,199.219,180.664,0
1610547102.115,137.695,9.766,8.301,73.730,194.824,0
1610547102.118,-215.820,23.926,17.578,-130.371,-569.336,0
1610547102.122,-229.004,24.902,15.137,-143.066,-1000.000,0
1610547102.126,52.246,8.789,-1.953,44.922,-727.539,0
1610547102.130,335.449,-1.465,-6.836,199.219,77.148,0
1610547102.134,193.848,5.371,2.930,114.746,288.574,0
1610547102.136,-174.805,13.184,9.766,-104.492,-449.219,0
1610547102.140,-244.141,13.184,11.719,-158.203,-1000.000,0
1610547102.144,26.367,8.789,6.348,25.391,-754.883,0
1610547102.148,349.121,8.301,0.488,203.613,25.879,0
1610547102.152,249.512,11.719,4.883,132.324,311.035,0
1610547102.156,-136.719,18.555,11.230,-83.984,-358.887,0
1610547102.160,-257.324,21.973,10.254,-161.621,-978.516,0
1610547102.163,-17.578,20.996,19.043,6.348,-830.078,0
1610547102.167,320.801,10.254,16.113,198.730,-99.609,0
1610547102.171,270.508,0.977,3.418,151.367,343.750,0
1610547102.175,-106.934,8.789,6.348,-64.941,-237.305,0
1610547102.179,-264.160,18.555,13.672,-166.016,-934.570,0
1610547102.182,-69.824,17.578,5.859,-23.438,-874.512,0
1610547102.186,274.414,5.371,-6.836,173.828,-158.691,0
1610547102.190,307.129,2.441,-5.859,160.156,358.398,0
1610547102.194,-60.547,19.043,3.418,-50.293,-158.203,0
1610547102.198,-271.484,25.391,8.301,-182.617,-868.652,0
1610547102.202,-99.121,18.555,4.395,-61.035,-934.570,0
1610547102.206,254.395,7.812,-6.836,150.879,-282.715,0
1610547102.209,336.426,18.066,-1.465,187.500,340.332,0
1610547102.213,-3.906,28.320,14.160,-8.301,-29.785,1
1610547102.217,-271.484,15.137,4.883,-191.406,-769.043,0
1610547102.221,-167.480,9.277,-1.465,-97.168,-955.566,0
1610547102.225,194.824,4.395,-0.488,125.000,-366.699,0
1610547102.226,349.121,1.465,-0.977,187.500,337.402,0
1610547102.230,37.598,10.254,-3.418,14.648,76.660,0
1610547102.234,-254.883,21.484,3.906,-166.992,-720.215,0
1610547102.238,-187.988,19.043,7.812,-105.957,-1000.000,0
1610547102.242,148.926,10.742,-0.977,111.816,-505.371,0
1610547102.246,345.703,5.371,-4.395,206.055,248.047,0
1610547102.250,75.195,18.066,2.930,52.246,104.004,0
1610547102.253,-249.512,29.785,9.277,-146.973,-675.781,0
1610547102.257,-208.984,20.508,-3.418,-129.883,-1000.000,0
1610547102.261,129.883,9.277,-10.254,78.613,-579.102,0
1610547102.265,365.234,5.859,-4.395,200.684,204.102,0
1610547102.269,120.117,8.789,1.953,69.824,170.410,0
1610547102.271,-227.051,14.648,6.348,-138.672,-597.656,0
1610547102.275,-244.629,15.625,0.000,-139.648,-1000.000,0
1610547102.279,56.152,9.277,-4.883,71.777,-708.008,0
1610547102.283,360.352,3.906,-5.859,211.914,77.637,0
1610547102.287,175.781,7.324,-7.324,88.867,192.871,0
1610547102.291,-204.102,19.043,2.930,-126.465,-562.988,0
1610547102.295,-256.836,18.555,13.184,-151.855,-1000.000,0
1610547102.298,20.996,11.230,7.324,33.203,-803.711,0
1610547102.302,326.172,6.836,-2.441,188.477,-62.012,0
1610547102.306,204.590,10.254,3.418,125.488,219.238,0
1610547102.310,-162.598,26.367,19.531,-83.984,-501.953,0
1610547102.314,-268.555,31.250,20.020,-160.156,-1000.000,0
1610547102.316,-25.879,14.648,7.812,8.789,-838.379,0
1610547102.320,325.684,2.441,2.930,195.312,-141.602,0
1610547102.324,253.906,3.418,5.371,148.438,226.562,0
1610547102.328,-126.953,20.508,15.625,-66.895,-410.156,0
1610547102.332,-269.043,31.738,20.996,-167.480,-980.469,0
1610547102.336,-73.242,17.578,12.695,-16.113,-895.020,0
1610547102.340,285.156,8.301,6.836,184.570,-285.156,0
1610547102.343,286.621,9.766,4.883,157.227,195.801,0
1610547102.347,-85.938,15.137,12.207,-58.105,-294.922,0
1610547102.351,-274.902,22.461,20.996,-183.105,-923.828,0
1610547102.355,-102.051,20.996,15.137,-54.688,-948.242,0
1610547102.359,247.070,9.766,7.812,152.344,-342.285,0
1610547102.362,304.199,5.371,15.137,156.250,278.809,0
1610547102.366,-39.551,22.461,24.902,-41.992,-178.711,0
1610547102.370,-277.344,31.738,27.832,-195.801,-888.672,0
1610547102.374,-157.227,27.344,28.320,-102.051,-973.633,0
1610547102.378,204.102,25.391,27.344,126.465,-424.316,0
1610547102.382,321.289,17.578,18.066,172.852,229.492,0
1610547102.386,-30.762,19.043,19.531,-22.949,-106.445,0
1610547102.389,-307.617,22.461,24.902,-214.844,-806.641,0
1610547102.393,-204.590,19.531,21.484,-150.391,-1000.000,0
1610547102.397,145.996,10.254,19.531,75.684,-540.039,0
1610547102.401,325.195,6.348,14.648,145.996,211.914,0
1610547102.405,22.949,22.949,18.555,-14.160,-0.488,0
1610547102.421,-285.645,37.109,27.832,-194.824,-751.465,0
1610547102.425,-231.445,32.715,28.320,-157.227,-1000.000,0
1610547102.429,91.797,16.602,21.973,62.500,-612.305,0
1610547102.433,325.195,12.695,21.973,175.781,123.535,0
1610547102.437,83.008,24.414,29.297,42.480,36.133,0
1610547102.441,-263.184,29.785,28.809,-166.504,-690.430,0
1610547102.445,-253.418,22.461,20.996,-166.504,-1000.000,0
1610547102.448,56.641,9.766,15.137,40.527,-707.520,0
1610547102.452,328.125,6.836,10.742,183.594,69.336,0
1610547102.456,135.742,16.113,14.648,72.754,106.445,0
1610547102.460,-226.562,22.949,23.438,-151.367,-639.160,0
1610547102.464,-259.766,24.902,16.602,-182.129,-1000.000,0
1610547102.466,29.785,16.602,3.906,20.020,-770.020,0
1610547102.470,336.426,10.254,7.812,181.641,2.930,0
1610547102.474,212.891,20.508,19.043,102.051,209.473,0
1610547102.478,-165.527,26.367,18.555,-115.723,-540.527,0
1610547102.482,-266.113,31.250,14.160,-167.969,-1000.000,0
1610547102.486,-3.418,23.438,10.742,14.648,-839.844,0
1610547102.490,332.031,9.766,4.395,186.035,-135.254,0
1610547102.493,259.766,12.207,4.395,134.277,186.523,0
1610547102.497,-112.305,24.902,16.113,-75.684,-496.094,0
1610547102.501,-250.977,28.320,20.996,-154.785,-1000.000,0
1610547102.505,-26.855,16.113,12.695,8.789,-884.277,0
1610547102.509,311.523,2.930,8.301,196.289,-227.539,0
1610547102.511,286.133,10.742,10.254,175.293,213.867,0
1610547102.515,-71.289,30.762,16.602,-30.762,-385.742,0
1610547102.519,-252.441,28.809,17.090,-163.086,-963.379,0
1610547102.523,-75.684,16.602,11.719,-33.203,-936.035,0
1610547102.527,283.691,10.742,5.371,172.852,-353.516,0
1610547102.531,322.266,14.160,3.906,173.828,176.758,0
1610547102.535,-36.133,22.461,7.812,-23.438,-330.566,0
1610547102.538,-254.395,26.855,11.230,-154.297,-934.570,0
1610547102.542,-108.887,23.926,13.672,-45.410,-983.887,0
1610547102.546,256.836,18.066,12.695,170.410,-492.188,0
1610547102.550,362.305,13.184,9.277,213.379,166.992,0
1610547102.554,17.090,15.137,11.719,19.531,-217.285,0
1610547102.557,-246.094,21.484,13.184,-150.879,-893.555,0
1610547102.561,-139.648,20.020,9.277,-66.895,-1000.000,0
1610547102.565,212.402,4.395,5.371,146.973,-555.664,0
1610547102.569,369.629,4.395,3.906,217.773,134.277,0
1610547102.573,64.453,19.043,11.719,41.504,-122.559,0
1610547102.577,-224.609,26.855,17.578,-152.344,-809.570,0
1610547102.581,-159.180,24.414,13.672,-99.121,-1000.000,0
1610547102.584,189.941,21.484,19.043,122.559,-664.062,0
1610547102.588,399.414,20.020,18.066,215.332,75.684,0
1610547102.592,117.676,13.672,13.672,57.129,-37.109,0
1610547102.596,-216.797,19.043,20.508,-132.324,-750.488,0
1610547102.600,-201.172,20.508,20.020,-107.910,-1000.000,0
1610547102.601,113.770,11.230,17.090,96.680,-725.586,0
1610547102.605,371.582,0.488,15.625,223.145,2.930,0
1610547102.609,147.461,8.789,20.508,107.422,-1.465,0
1610547102.613,-203.125,20.508,28.809,-100.098,-703.613,0
1610547102.617,-218.750,22.461,23.926,-118.652,-1000.000,0
1610547102.621,72.266,20.508,23.926,79.102,-790.527,0
1610547102.625,358.398,2.930,15.137,221.191,-78.125,0
1610547102.628,192.871,4.395,9.277,110.840,49.805,0
1610547102.632,-173.340,23.438,21.484,-101.562,-645.508,0
1610547102.636,-241.211,23.438,21.973,-143.066,-1000.000,0
1610547102.640,22.461,11.719,15.625,40.527,-836.914,0
1610547102.644,339.355,7.812,13.672,207.520,-166.504,0
1610547102.647,239.746,16.602,20.020,141.113,111.816,0
1610547102.651,-132.324,25.391,26.855,-72.754,-560.547,0
1610547102.655,-248.535,27.832,26.367,-153.809,-1000.000,0
1610547102.659,-20.508,21.973,22.461,5.371,-881.348,0
1610547102.663,323.730,15.625,21.484,203.125,-265.137,0
1610547102.667,278.809,17.090,28.809,172.852,122.559,0
1610547102.671,-108.398,20.508,27.832,-52.246,-506.348,0
1610547102.674,-276.367,21.484,26.855,-165.039,-999.512,0
1610547102.678,-69.336,12.207,20.508,-25.391,-928.223,0
1610547102.682,286.133,2.930,14.648,182.129,-355.957,0
1610547102.686,298.340,9.277,23.438,177.734,164.062,0
1610547102.690,-67.871,20.508,28.320,-24.902,-384.766,0
1610547102.691,-266.602,20.020,29.785,-149.902,-965.332,0
1610547102.695,-102.539,15.625,26.367,-43.457,-964.844,0
1610547102.699,260.742,12.207,22.461,163.574,-468.262,0
1610547102.703,345.215,15.137,21.973,192.383,104.004,0
1610547102.707,-16.113,14.160,19.531,-15.137,-325.684,0
1610547102.711,-263.672,14.160,20.996,-171.875,-923.828,0
1610547102.715,-135.742,19.043,23.926,-67.383,-1000.000,0
1610547102.718,213.867,11.230,22.461,146.484,-586.914,0
1610547102.722,345.703,0.977,18.066,192.383,108.398,0
1610547102.726,30.273,10.742,24.414,20.020,-213.867,0
1610547102.730,-242.188,24.414,30.762,-150.879,-887.695,0
1610547102.734,-165.527,18.066,23.438,-87.402,-1000.000,0
1610547102.736,172.852,10.742,16.602,132.324,-619.629,0
1610547102.740,375.977,17.578,24.414,216.309,85.938,0
1610547102.744,87.402,17.578,23.926,52.246,-98.633,0
1610547102.748,-235.352,19.043,19.531,-145.996,-787.598,0
1610547102.752,-194.336,20.020,21.973,-107.910,-1000.000,0
1610547102.756,136.719,15.625,20.996,111.816,-717.773,0
1610547102.760,373.047,14.648,16.602,221.191,9.766,0
1610547102.763,136.230,19.043,20.020,83.496,-0.488,0
1610547102.767,-201.660,24.414,25.391,-120.605,-708.496,0
1610547102.771,-204.590,19.043,28.320,-115.723,-1000.000,0
1610547102.775,92.285,6.836,19.043,84.961,-752.930,0
1610547102.779,363.281,5.371,8.301,215.332,-25.391,0
1610547102.796,176.270,13.672,16.113,106.934,74.707,0
1610547102.800,-199.707,10.742,21.484,-114.746,-639.648,0
1610547102.804,-239.746,5.859,24.414,-146.484,-1000.000,0
1610547102.808,44.434,0.000,18.066,44.922,-823.242,0
1610547102.812,350.098,-7.812,5.371,204.102,-115.723,0
1610547102.816,226.074,-1.953,10.742,133.789,141.602,0
1610547102.820,-152.344,10.254,20.996,-90.332,-555.664,0
1610547102.823,-247.559,12.207,20.020,-162.598,-1000.000,0
1610547102.827,1.465,9.277,15.137,19.043,-865.723,0
1610547102.831,326.172,11.230,13.672,205.078,-246.094,0
1610547102.835,251.465,7.324,9.277,143.066,133.789,0
1610547102.839,-128.906,6.348,9.766,-77.148,-475.586,0
1610547102.842,-269.043,11.230,19.043,-169.434,-997.070,0
1610547102.846,-52.246,8.789,19.043,-28.809,-909.668,0
1610547102.850,300.293,-0.488,16.113,169.922,-313.965,0
1610547102.854,296.875,1.953,15.137,166.504,166.504,0
1610547102.858,-75.195,21.973,15.625,-44.922,-407.227,0
1610547102.862,-273.926,23.926,18.066,-171.387,-979.004,0
1610547102.866,-89.355,17.578,21.973,-37.109,-958.984,0
1610547102.869,272.949,10.742,20.508,178.223,-416.016,0
1610547102.873,305.664,0.977,9.277,187.500,126.465,0
1610547102.877,-45.898,8.301,12.207,-18.066,-374.512,0
1610547102.881,-270.996,15.625,20.996,-163.574,-943.359,0
1610547102.885,-134.277,14.648,19.531,-63.965,-984.863,0
1610547102.886,221.680,5.371,9.277,149.902,-524.414,0
1610547102.890,336.914,1.953,7.812,190.430,111.816,0
1610547102.894,13.672,12.695,17.090,1.953,-251.465,0
1610547102.898,-254.883,18.066,20.508,-165.527,-887.207,0
1610547102.902,-149.902,23.438,21.484,-92.285,-1000.000,0
1610547102.906,197.266,18.066,15.137,131.348,-597.656,0
1610547102.910,355.957,0.977,8.789,204.102,86.426,0
1610547102.913,62.500,9.766,18.555,37.109,-178.223,0
1610547102.917,-235.840,24.414,28.809,-148.926,-834.961,0
1610547102.921,-180.664,20.508,25.391,-104.004,-1000.000,0
1610547102.925,150.879,12.695,14.160,114.746,-697.266,0
1610547102.929,371.582,9.277,15.137,216.309,-0.488,0
1610547102.932,117.676,13.184,20.996,76.660,-108.887,0
1610547102.936,-214.355,20.508,27.344,-119.141,-780.762,0
1610547102.940,-200.195,24.902,29.785,-120.117,-1000.000,0
1610547102.944,117.676,25.879,28.809,92.285,-768.066,0
1610547102.948,380.859,17.578,22.461,222.168,-68.359,0
1610547102.952,158.203,14.648,11.230,88.867,-23.926,0
1610547102.956,-214.355,17.090,16.602,-126.465,-717.285,0
1610547102.959,-239.258,20.020,28.809,-151.855,-1000.000,0
1610547102.963,55.664,17.578,25.879,45.410,-828.613,0
1610547102.967,347.168,8.301,17.090,203.125,-132.812,0
1610547102.971,194.824,11.230,16.113,110.352,58.105,0
1610547102.975,-160.156,27.832,28.809,-100.586,-636.719,0
1610547102.976,-237.793,28.809,33.203,-157.227,-1000.000,0
1610547102.980,9.277,12.695,23.438,12.695,-858.398,0
1610547102.984,328.125,3.906,18.066,192.383,-199.219,0
1610547102.988,225.098,5.371,19.043,127.930,108.398,0
1610547102.992,-150.879,12.695,25.391,-85.449,-553.223,0
1610547102.996,-265.137,18.066,27.832,-166.016,-1000.000,0
1610547103.000,-32.715,16.113,21.484,-2.930,-916.992,0
1610547103.003,303.711,6.836,10.254,192.871,-354.492,0
1610547103.007,265.137,7.324,14.648,153.809,84.473,0
1610547103.011,-102.051,18.555,29.785,-53.711,-476.074,0
1610547103.015,-262.695,22.949,33.203,-166.992,-983.398,0
1610547103.019,-75.195,13.184,22.461,-37.109,-942.383,0
1610547103.021,270.508,3.418,19.043,167.969,-392.090,0
1610547103.025,299.316,6.348,19.043,171.875,142.578,0
1610547103.029,-59.082,21.973,25.879,-26.855,-377.441,0
1610547103.033,-269.531,26.855,28.320,-171.875,-957.520,0
1610547103.037,-110.352,22.461,21.484,-60.547,-987.793,0
1610547103.041,240.723,16.602,22.461,160.645,-494.141,0
1610547103.045,332.031,19.531,28.320,194.824,113.281,0
1610547103.048,-7.812,24.902,29.297,-3.418,-326.660,0
1610547103.052,-264.648,22.949,28.320,-179.199,-922.363,0
1610547103.056,-159.180,19.531,30.762,-91.309,-992.676,0
1610547103.060,187.988,11.230,28.320,135.254,-586.426,0
1610547103.064,344.727,5.371,20.996,189.453,81.543,0
1610547103.066,39.062,11.719,28.320,16.113,-186.523,0
1610547103.070,-251.953,25.879,37.109,-166.504,-856.934,0
1610547103.074,-182.617,21.484,31.250,-115.723,-1000.000,0
1610547103.078,155.762,13.184,27.832,110.840,-663.574,0
1610547103.082,366.699,16.113,26.855,210.449,80.566,0
1610547103.086,91.797,16.113,28.320,52.734,-63.965,0
1610547103.090,-236.816,23.926,31.250,-155.273,-781.738,0
1610547103.093,-199.219,25.391,25.391,-133.301,-1000.000,0
1610547103.097,120.605,14.160,20.020,85.938,-739.746,0
1610547103.101,360.840,9.277,22.949,207.031,-17.090,0
1610547103.105,137.207,17.578,29.297,79.102,-5.859,0
1610547103.109,-214.355,27.344,32.227,-125.488,-709.473,0
1610547103.112,-229.980,20.020,30.762,-129.883,-1000.000,0
1610547103.116,67.383,13.184,21.484,70.801,-804.688,0
1610547103.120,362.305,19.043,23.926,221.191,-104.980,0
1610547103.124,190.918,17.578,28.809,114.746,77.148,0
1610547103.128,-188.477,16.602,20.508,-112.793,-625.488,0
1610547103.132,-243.652,20.508,22.461,-153.320,-1000.000,0
1610547103.136,25.391,13.672,24.902,31.250,-857.422,0
1610547103.139,329.590,3.418,15.625,191.895,-175.293,0
1610547103.143,217.285,9.277,17.090,129.395,108.398,0
1610547103.147,-151.855,18.066,21.484,-91.797,-583.496,0
1610547103.151,-256.348,26.367,25.879,-165.039,-1000.000,0
1610547103.155,-20.996,25.879,21.484,7.812,-875.000,0
1610547103.171,309.570,7.812,4.395,185.547,-247.070,0
1610547103.175,260.742,8.301,10.742,135.254,138.184,0
1610547103.179,-107.910,23.926,18.066,-82.520,-496.582,0
1610547103.183,-258.301,29.785,15.625,-176.758,-994.629,0
1610547103.187,-57.129,23.438,14.160,-23.926,-937.012,0
1610547103.191,291.504,15.137,7.324,186.035,-406.250,0
1610547103.195,291.504,10.742,9.277,172.363,92.285,0
1610547103.198,-78.613,13.184,14.648,-48.828,-429.688,0
1610547103.202,-271.484,23.438,19.043,-170.898,-968.750,0
1610547103.206,-104.492,24.902,15.625,-34.668,-972.656,0
1610547103.210,244.141,5.859,-2.441,158.203,-479.492,0
1610547103.214,311.035,0.977,-4.395,172.363,135.254,0
1610547103.216,-26.855,14.160,8.789,-13.672,-299.805,0
1610547103.220,-260.254,19.043,12.207,-166.992,-926.270,0
1610547103.224,-133.301,18.066,13.184,-68.359,-1000.000,0
1610547103.228,222.168,9.766,5.859,139.160,-569.824,0
1610547103.232,350.098,5.859,1.953,184.570,89.355,0
1610547103.236,19.531,16.113,11.230,11.719,-237.793,0
1610547103.240,-258.789,23.926,18.066,-160.156,-883.789,0
1610547103.243,-158.203,22.949,20.020,-89.355,-1000.000,0
1610547103.247,176.758,9.766,9.766,120.117,-637.695,0
1610547103.251,351.074,2.930,0.977,186.035,57.129,0
1610547103.255,72.266,7.324,1.465,23.926,-102.539,0
1610547103.259,-237.305,17.090,8.789,-155.273,-787.109,0
1610547103.261,-199.707,19.043,10.742,-116.699,-1000.000,0
1610547103.265,127.441,7.812,7.812,93.262,-690.918,0
1610547103.269,367.188,4.883,10.742,210.449,29.297,0
1610547103.273,130.859,13.672,14.160,73.730,-65.918,0
1610547103.277,-211.426,20.996,14.648,-143.066,-757.324,0
1610547103.281,-204.590,28.320,20.996,-132.324,-1000.000,0
1610547103.285,94.238,17.090,10.254,71.289,-773.438,0
1610547103.288,353.516,-1.953,-0.977,196.289,-45.898,0
1610547103.292,165.527,7.324,14.648,82.031,0.000,0
1610547103.296,-193.359,21.484,21.484,-135.254,-706.055,0
1610547103.300,-239.746,17.578,18.066,-159.668,-1000.000,0
1610547103.304,36.621,9.766,13.672,33.691,-820.801,0
1610547103.306,342.285,9.277,12.695,192.383,-136.230,0
1610547103.310,212.891,12.207,17.578,117.676,70.801,0
1610547103.314,-154.785,17.578,20.996,-104.980,-615.234,0
1610547103.318,-242.188,24.902,22.461,-155.762,-1000.000,0
1610547103.322,-2.930,13.672,11.719,20.508,-861.328,0
1610547103.326,312.012,0.000,-0.488,184.570,-237.793,0
1610547103.330,237.793,8.789,5.859,135.254,106.934,0
1610547103.333,-130.859,21.484,19.043,-71.777,-511.719,0
1610547103.337,-258.789,28.320,19.531,-164.551,-1000.000,0
1610547103.341,-40.527,20.996,11.719,-12.695,-908.691,0
1610547103.345,301.758,7.324,6.348,173.340,-304.688,0
1610547103.349,281.738,11.230,7.812,154.785,154.297,0
1610547103.351,-80.078,27.344,24.414,-37.109,-426.758,0
1610547103.355,-252.441,31.250,29.297,-154.297,-977.539,0
1610547103.359,-86.426,18.555,12.695,-33.691,-939.941,0
1610547103.363,264.160,9.277,8.301,166.016,-391.113,0
1610547103.367,313.965,7.324,7.324,181.152,166.992,0
1610547103.371,-41.016,13.184,8.301,-7.324,-300.781,0
1610547103.375,-265.625,20.508,19.531,-171.387,-921.387,0
1610547103.378,-129.395,16.113,26.855,-74.707,-984.375,0
1610547103.382,226.562,7.324,23.438,144.043,-488.281,0
1610547103.386,335.449,2.930,13.672,187.012,187.012,0
1610547103.390,4.883,11.719,20.020,13.184,-182.129,0
1610547103.394,-241.211,24.902,33.203,-157.715,-876.953,0
1610547103.396,-153.320,15.625,20.996,-94.727,-1000.000,0
1610547103.400,171.387,0.977,7.324,115.234,-577.637,0
1610547103.404,335.938,-2.441,8.789,191.406,121.582,0
1610547103.408,46.387,3.906,16.113,31.250,-133.789,0
1610547103.412,-243.164,11.719,23.926,-156.738,-817.383,0
1610547103.416,-186.523,10.742,20.996,-109.863,-1000.000,0
1610547103.420,141.602,4.883,17.090,101.562,-652.832,0
1610547103.423,355.469,1.953,13.184,196.289,80.566,0
1610547103.427,100.098,5.859,12.207,56.641,-30.273,0
1610547103.431,-224.609,10.742,19.531,-139.648,-735.352,0
1610547103.435,-209.961,8.301,18.555,-121.582,-1000.000,0
1610547103.439,104.004,9.766,19.531,86.426,-726.074,0
1610547103.441,361.816,6.836,14.160,205.078,22.461,0
1610547103.445,146.973,2.441,6.836,88.867,62.988,0
1610547103.449,-206.543,15.625,16.602,-120.117,-666.992,0
1610547103.453,-235.840,16.602,20.508,-150.879,-1000.000,0
1610547103.457,55.176,2.930,14.648,40.527,-797.363,0
1610547103.461,347.168,-1.953,10.742,199.219,-94.238,0
1610547103.465,195.801,9.766,12.695,114.746,52.734,0
1610547103.468,-175.293,19.043,15.625,-114.746,-653.320,0
1610547103.472,-250.488,16.113,14.648,-168.945,-1000.000,0
1610547103.476,17.578,18.066,4.395,21.484,-852.051,0
1610547103.480,329.590,5.859,-9.277,192.383,-205.566,0
1610547103.484,223.633,1.465,0.000,126.465,119.629,0
1610547103.486,-136.719,14.648,13.672,-87.891,-533.203,0
1610547103.490,-247.070,16.602,18.555,-160.156,-1000.000,0
1610547103.494,-27.344,11.230,18.066,2.441,-895.996,0
1610547103.498,306.152,3.906,8.789,188.477,-271.484,0
1610547103.502,277.344,5.859,10.742,166.016,169.434,0
1610547103.506,-81.543,20.508,22.949,-37.109,-454.102,0
1610547103.510,-247.070,29.297,20.508,-151.367,-996.094,0
1610547103.513,-60.059,25.879,8.789,-23.926,-925.781,0
1610547103.517,285.645,12.207,3.906,174.805,-362.305,0
1610547103.521,310.547,14.160,12.695,180.664,143.555,0
1610547103.525,-55.664,21.484,16.602,-34.668,-358.887,0
1610547103.529,-265.625,13.672,10.254,-182.129,-939.941,0
1610547103.546,-104.004,13.184,11.230,-60.547,-963.867,0
1610547103.550,244.629,8.301,10.254,158.203,-466.797,0
1610547103.554,328.125,7.324,10.254,191.406,120.117,0
1610547103.558,-8.789,16.113,18.066,0.977,-263.184,0
1610547103.562,-250.977,24.414,26.367,-157.715,-889.648,0
1610547103.566,-136.230,23.438,20.996,-72.754,-997.070,0
1610547103.570,204.590,10.254,7.812,139.160,-563.477,0
1610547103.573,352.051,5.371,5.371,201.660,102.051,0
1610547103.577,44.922,18.066,13.184,34.668,-180.176,0
1610547103.581,-239.258,26.855,19.043,-147.949,-845.215,0
1610547103.585,-148.438,27.344,21.973,-96.191,-1000.000,0
1610547103.589,178.711,17.578,15.137,124.023,-635.742,0
1610547103.591,353.027,5.859,9.766,218.262,112.305,0
1610547103.595,78.613,15.625,15.137,52.246,-81.543,0
1610547103.599,-235.840,20.020,18.066,-153.809,-782.715,0
1610547103.603,-198.730,15.625,19.043,-118.164,-1000.000,0
1610547103.607,124.023,13.672,19.531,96.191,-696.777,0
1610547103.611,362.305,10.254,16.113,208.496,46.875,0
1610547103.615,132.812,15.625,17.578,79.102,25.879,0
1610547103.618,-211.426,23.438,25.391,-129.883,-690.430,0
1610547103.622,-220.703,24.414,21.973,-135.742,-1000.000,0
1610547103.626,71.777,17.578,13.672,65.430,-788.574,0
1610547103.630,343.262,12.207,8.301,206.055,-56.641,0
1610547103.634,167.969,10.742,6.348,101.562,98.633,0
1610547103.637,-198.730,14.648,12.695,-121.094,-618.164,0
1610547103.641,-253.906,17.578,18.066,-155.273,-1000.000,0
1610547103.645,26.367,13.184,15.625,42.480,-812.012,0
1610547103.649,335.938,10.254,8.789,202.637,-125.488,0
1610547103.653,221.191,11.230,8.301,124.023,109.863,0
1610547103.657,-145.508,20.996,17.090,-89.844,-565.918,0
1610547103.661,-252.930,25.879,20.508,-165.527,-1000.000,0
1610547103.664,-15.625,19.043,9.277,4.395,-868.164,0
1610547103.668,326.172,21.484,10.254,198.730,-234.863,0
1610547103.672,265.137,17.578,5.859,142.090,138.184,0
1610547103.676,-113.770,16.602,10.742,-72.754,-475.586,0
1610547103.680,-253.906,24.414,19.043,-161.621,-994.629,0
1610547103.681,-51.758,17.578,2.441,-9.277,-905.273,0
1610547103.685,277.344,9.766,-2.930,190.430,-310.547,0
1610547103.689,275.391,12.695,1.953,165.039,170.410,0
1610547103.693,-83.008,20.996,8.789,-41.992,-387.695,0
1610547103.697,-271.973,24.902,12.207,-167.480,-967.773,0
1610547103.701,-102.539,19.043,6.348,-39.062,-962.402,0
1610547103.705,250.977,10.254,3.418,168.945,-430.176,0
1610547103.708,315.918,16.113,7.324,184.082,142.090,0
1610547103.712,-34.668,20.508,11.230,-14.648,-330.078,0
1610547103.716,-265.137,16.602,8.789,-171.387,-932.617,0
1610547103.720,-141.602,9.766,7.324,-67.871,-982.910,0
1610547103.724,202.637,3.906,6.348,142.578,-508.301,0
1610547103.726,330.078,6.348,0.000,181.641,163.086,0
1610547103.730,13.672,14.648,5.371,-1.465,-176.758,0
1610547103.734,-258.301,24.902,12.695,-164.062,-866.699,0
1610547103.738,-160.645,24.902,14.648,-87.891,-1000.000,0
1610547103.742,181.152,14.648,10.742,125.977,-591.309,0
1610547103.746,351.074,7.324,6.836,207.031,115.234,0
1610547103.750,84.961,19.531,17.578,48.828,-101.074,0
1610547103.753,-215.820,35.156,26.367,-143.066,-797.852,0
1610547103.757,-183.105,20.508,12.207,-112.305,-1000.000,0
1610547103.761,130.371,1.465,-3.418,96.680,-676.270,0
1610547103.765,353.027,2.441,-1.953,215.820,66.406,0
1610547103.769,114.746,13.672,5.859,74.707,-38.574,0
1610547103.771,-230.469,24.414,10.254,-141.113,-750.977,0
1610547103.775,-221.680,21.484,10.254,-129.883,-1000.000,0
1610547103.779,89.355,12.695,4.883,69.824,-767.090,0
1610547103.783,350.586,11.230,6.348,206.055,-56.641,0
1610547103.787,157.715,18.066,11.230,97.168,50.293,0
1610547103.791,-193.359,30.273,16.113,-120.605,-654.297,0
1610547103.795,-224.609,34.180,23.438,-139.648,-1000.000,0
1610547103.798,43.945,16.113,8.301,41.992,-828.613,0
1610547103.802,331.543,-0.488,-4.395,191.406,-130.859,0
1610547103.806,191.895,2.930,4.883,111.816,72.266,0
1610547103.810,-176.758,17.090,11.719,-94.727,-625.488,0
1610547103.814,-258.301,17.578,13.672,-154.785,-1000.000,0
1610547103.817,-0.977,10.742,12.207,13.672,-851.074,0
1610547103.821,322.266,8.301,6.836,201.172,-187.988,0
1610547103.825,230.469,3.906,-0.977,133.301,123.535,0
1610547103.829,-140.137,11.719,0.000,-94.238,-516.113,0
1610547103.833,-263.184,18.555,9.277,-171.875,-992.676,0
1610547103.837,-45.410,15.625,14.648,-10.742,-897.461,0
1610547103.841,297.363,9.277,9.766,175.293,-296.387,0
1610547103.844,280.762,12.207,6.348,143.066,146.484,0
1610547103.848,-95.703,20.996,13.184,-67.383,-392.090,0
1610547103.852,-270.020,28.320,19.531,-170.410,-959.961,0
1610547103.856,-80.078,24.902,17.090,-31.738,-924.805,0
1610547103.860,264.648,13.672,7.324,166.992,-360.840,0
1610547103.863,305.664,16.602,10.742,172.852,169.434,0
1610547103.867,-37.109,28.320,24.902,-21.484,-311.035,0
1610547103.871,-266.602,21.973,22.461,-172.363,-937.988,0
1610547103.875,-130.859,13.184,19.043,-69.824,-975.586,0
1610547103.879,235.352,11.230,18.555,151.855,-472.168,0
1610547103.883,336.914,11.230,18.555,192.383,135.254,0
1610547103.887,-2.441,20.996,24.902,4.883,-253.418,0
1610547103.890,-256.348,27.832,25.391,-161.621,-888.184,0
1610547103.894,-149.902,21.484,20.508,-79.102,-1000.000,0
1610547103.898,193.848,13.184,14.648,135.742,-571.289,0
1610547103.902,346.680,8.301,12.207,199.219,137.207,0
1610547103.906,55.176,20.996,24.902,41.504,-105.957,0
1610547103.921,-228.027,33.203,30.762,-135.742,-807.617,0
1610547103.925,-177.246,17.578,17.578,-98.145,-1000.000,0
1610547103.929,143.555,1.465,6.836,106.445,-636.230,0
1610547103.933,351.074,0.977,8.301,195.801,116.699,0
1610547103.937,96.680,12.207,20.020,51.758,-23.926,0
1610547103.941,-218.750,25.879,25.879,-129.395,-757.324,0
1610547103.945,-188.477,22.949,22.461,-114.258,-1000.000,0
1610547103.948,116.699,9.277,15.137,82.031,-681.152,0
1610547103.952,361.816,5.859,16.113,203.125,54.688,0
1610547103.956,150.391,17.090,22.949,84.961,61.035,0
1610547103.960,-196.777,31.738,32.227,-106.445,-653.320,0
1610547103.964,-224.609,23.926,26.855,-129.395,-1000.000,0
1610547103.966,57.617,8.301,16.602,56.641,-738.281,0
1610547103.970,346.191,1.953,13.672,202.637,20.508,0
1610547103.974,190.918,7.324,20.508,107.910,171.875,0
1610547103.978,-168.945,20.996,26.367,-100.098,-555.176,0
1610547103.982,-232.910,27.344,23.438,-144.043,-1000.000,0
1610547103.986,30.273,22.949,20.508,43.945,-821.289,0
1610547103.990,342.285,14.648,17.090,205.078,-136.719,0
1610547103.993,234.375,14.160,16.602,130.371,161.621,0
1610547103.997,-123.047,35.156,28.809,-68.848,-503.906,0
1610547104.001,-232.910,44.434,36.621,-152.344,-1000.000,0
1610547104.005,-25.391,20.508,16.113,-8.301,-866.211,0
1610547104.009,305.176,7.324,4.883,177.246,-208.496,0
1610547104.011,269.043,15.137,17.090,143.066,174.316,0
1610547104.015,-101.074,21.973,20.508,-62.500,-445.312,0
1610547104.019,-260.742,26.855,20.508,-163.574,-984.863,0
1610547104.023,-63.965,22.461,24.902,-13.672,-910.645,0
1610547104.027,272.949,12.695,17.090,179.199,-321.289,0
1610547104.031,299.805,21.484,20.996,167.480,182.617,0
1610547104.035,-45.898,36.133,31.250,-24.414,-354.004,0
1610547104.038,-266.602,28.809,21.973,-163.574,-951.660,0
1610547104.042,-113.281,19.043,12.207,-49.316,-983.398,0
1610547104.046,236.328,15.137,6.348,155.273,-463.379,0
1610547104.050,317.383,13.184,10.742,178.711,187.012,0
1610547104.054,-10.254,26.855,20.020,-6.348,-269.531,0
1610547104.056,-251.465,32.227,21.484,-160.645,-926.270,0
1610547104.060,-132.324,22.949,15.137,-72.266,-988.281,0
1610547104.064,210.449,16.113,11.230,136.719,-527.832,0
1610547104.068,344.238,14.648,12.695,195.312,128.906,0
1610547104.072,38.086,26.855,20.020,29.785,-188.965,0
1610547104.076,-246.582,29.785,23.926,-145.508,-866.699,0
1610547104.080,-170.898,16.113,13.672,-92.285,-1000.000,0
1610547104.083,161.133,11.230,3.906,120.117,-639.160,0
1610547104.087,345.215,11.719,6.348,199.707,48.828,0
1610547104.091,72.754,14.648,12.207,40.039,-116.699,0
1610547104.095,-238.281,23.926,16.113,-153.320,-792.480,0
1610547104.099,-192.871,22.461,17.090,-119.629,-1000.000,0
1610547104.103,126.465,13.184,11.719,96.191,-749.023,0
1610547104.107,354.004,5.859,8.789,203.125,-10.254,0
1610547104.111,121.094,14.160,15.625,69.824,-0.977,0
1610547104.115,-214.355,22.949,20.508,-134.277,-720.703,0
1610547104.119,-213.867,21.484,20.020,-138.672,-1000.000,0
1610547104.123,72.266,11.230,6.836,56.152,-774.414,0
1610547104.127,337.891,-1.953,-6.836,191.406,-42.969,0
1610547104.130,162.598,10.254,3.418,96.680,39.551,0
1610547104.134,-193.848,25.879,13.184,-119.141,-683.105,0
1610547104.138,-237.793,24.414,9.277,-151.367,-1000.000,0
1610547104.142,37.109,16.602,1.465,43.945,-829.590,0
1610547104.146,339.355,7.324,0.000,200.195,-153.809,0
1610547104.146,214.844,12.207,4.395,118.652,105.469,0
1610547104.150,-147.949,25.391,12.207,-93.750,-570.801,0
1610547104.154,-242.188,32.227,20.996,-151.855,-1000.000,0
1610547104.158,-12.207,17.578,10.254,9.766,-855.957,0
1610547104.162,305.176,0.000,0.488,186.035,-222.656,0
1610547104.166,241.211,9.766,6.348,147.461,118.652,0
1610547104.170,-119.629,24.902,17.090,-64.453,-499.512,0
1610547104.173,-257.812,33.203,22.461,-166.504,-996.582,0
1610547104.177,-50.781,20.996,8.789,-22.949,-914.551,0
1610547104.181,287.598,5.859,0.977,176.270,-321.777,0
1610547104.185,283.203,11.230,8.789,168.945,138.672,0
1610547104.189,-68.848,30.762,22.949,-34.668,-432.129,0
1610547104.192,-249.023,33.203,24.414,-167.480,-971.680,0
1610547104.196,-88.379,19.043,14.160,-40.039,-970.215,0
1610547104.200,249.512,12.207,6.348,169.922,-437.988,0
1610547104.204,307.617,10.742,1.465,176.270,167.480,0
1610547104.208,-35.645,17.578,14.160,-16.602,-319.336,0
1610547104.212,-266.113,25.879,24.414,-163.574,-934.570,0
1610547104.216,-129.883,32.715,20.020,-69.824,-998.535,0
1610547104.219,218.262,25.391,13.672,144.043,-569.824,0
1610547104.223,333.008,16.602,13.672,186.035,99.121,0
1610547104.227,10.254,22.949,20.508,-1.465,-204.590,0
1610547104.231,-252.930,31.250,26.367,-164.062,-867.676,0
1610547104.235,-153.320,30.273,22.461,-86.426,-1000.000,0
1610547104.236,173.828,15.137,8.789,120.117,-583.984,0
1610547104.240,346.191,10.742,8.301,194.336,101.562,0
1610547104.244,57.129,20.996,16.113,34.668,-136.719,0
1610547104.248,-246.582,29.785,14.648,-154.785,-811.035,0
1610547104.252,-187.988,27.832,15.137,-114.258,-1000.000,0
1610547104.256,134.277,19.043,16.602,104.980,-698.730,0
1610547104.260,355.469,16.113,15.625,208.496,33.203,0
1610547104.263,108.887,17.090,15.137,64.453,-26.855,0
1610547104.267,-215.332,25.391,21.973,-127.930,-739.746,0
1610547104.271,-205.566,26.855,23.926,-117.188,-1000.000,0
1610547104.275,93.262,10.742,7.812,79.590,-752.441,0
1610547104.279,355.957,2.930,2.441,208.984,-15.137,0
1610547104.296,154.297,13.184,13.672,94.238,40.039,0
1610547104.300,-203.125,22.949,21.973,-111.328,-683.594,0
1610547104.304,-233.398,23.438,14.648,-136.230,-1000.000,0
1610547104.308,56.152,24.414,9.277,48.828,-807.129,0
1610547104.312,353.027,19.531,15.137,206.543,-113.770,0
1610547104.316,206.543,19.531,17.090,124.023,78.125,0
1610547104.320,-165.527,27.832,21.484,-94.727,-619.629,0
1610547104.323,-248.047,27.344,21.973,-153.809,-1000.000,0
1610547104.327,17.578,25.391,20.508,37.109,-852.051,0
1610547104.331,331.543,18.555,16.113,205.566,-230.957,0
1610547104.335,235.840,9.766,8.301,127.441,102.539,0
1610547104.339,-134.766,20.996,12.207,-89.844,-520.996,0
1610547104.342,-262.695,23.438,15.137,-171.875,-1000.000,0
1610547104.346,-37.109,14.160,10.254,-6.348,-905.273,0
1610547104.350,294.434,3.906,7.324,174.805,-320.801,0
1610547104.354,265.625,4.883,7.812,135.254,120.117,0
1610547104.358,-90.820,18.555,8.789,-69.824,-459.473,0
1610547104.362,-260.742,22.949,9.277,-171.387,-992.676,0
1610547104.366,-82.031,14.160,2.441,-29.785,-936.523,0
1610547104.369,263.184,10.254,-0.977,175.781,-354.492,0
1610547104.373,289.062,9.766,4.883,176.270,183.594,0
1610547104.377,-70.312,8.789,5.859,-40.039,-361.816,0
1610547104.381,-272.461,16.602,5.371,-181.641,-956.055,0
1610547104.385,-119.141,14.648,8.301,-56.641,-974.609,0
1610547104.387,228.516,1.465,0.488,149.902,-506.348,0
1610547104.391,313.965,2.441,-1.953,172.363,113.770,0
1610547104.395,-14.160,13.672,10.254,-15.625,-248.047,0
1610547104.399,-263.672,22.949,16.602,-169.434,-890.137,0
1610547104.403,-162.109,23.438,15.137,-72.266,-1000.000,0
1610547104.407,187.012,12.207,8.301,138.672,-576.660,0
1610547104.411,337.402,1.953,0.977,191.895,97.656,0
1610547104.414,35.645,15.625,12.207,28.809,-169.922,0
1610547104.418,-235.352,33.691,25.879,-145.020,-827.637,0
1610547104.422,-173.828,20.996,13.672,-105.469,-1000.000,0
1610547104.426,146.484,8.301,6.348,105.469,-668.945,0
1610547104.430,351.074,9.766,5.859,207.520,50.293,0
1610547104.432,84.961,15.137,9.277,54.199,-95.215,0
1610547104.436,-237.305,19.043,15.625,-139.160,-774.902,0
1610547104.440,-203.613,20.020,10.742,-110.352,-1000.000,0
1610547104.444,116.699,17.090,7.812,88.867,-737.305,0
1610547104.448,360.840,11.230,3.906,206.055,-3.418,0
1610547104.452,146.484,18.555,7.324,77.148,-10.742,0
1610547104.456,-185.547,34.180,18.066,-123.047,-720.703,0
1610547104.459,-201.172,32.227,17.578,-118.652,-1000.000,0
1610547104.463,71.777,14.160,9.277,66.895,-795.410,0
1610547104.467,344.727,5.371,-0.488,198.242,-94.238,0
1610547104.471,182.617,17.090,4.883,96.191,55.664,0
1610547104.475,-178.223,26.855,16.113,-112.793,-634.277,0
1610547104.476,-238.281,22.949,15.625,-141.602,-1000.000,0
1610547104.480,30.273,14.160,11.719,45.898,-834.961,0
1610547104.484,339.355,9.277,8.301,203.125,-154.297,0
1610547104.488,222.168,16.602,14.648,122.070,122.559,0
1610547104.492,-145.508,25.391,22.461,-84.961,-555.176,0
1610547104.496,-248.535,24.414,20.020,-152.832,-1000.000,0
1610547104.500,-13.672,20.508,20.020,12.695,-865.723,0
1610547104.503,312.988,11.719,15.625,194.336,-238.770,0
1610547104.507,254.883,7.324,5.859,140.137,136.719,0
1610547104.511,-111.328,15.625,11.230,-64.941,-470.703,0
1610547104.515,-254.883,21.973,16.602,-159.180,-989.258,0
1610547104.519,-52.246,21.973,12.207,-14.648,-927.246,0
1610547104.521,283.203,11.230,4.395,184.570,-343.262,0
1610547104.525,294.434,11.230,6.836,173.340,181.641,0
1610547104.529,-63.965,27.344,17.090,-29.297,-371.094,0
1610547104.533,-267.090,28.809,18.066,-162.109,-969.238,0
1610547104.537,-92.773,26.855,20.508,-33.203,-950.684,0
1610547104.541,257.324,18.555,14.648,178.223,-418.945,0
1610547104.545,312.012,8.789,6.348,176.270,154.785,0
1610547104.548,-27.832,15.625,12.695,-18.066,-299.805,0
1610547104.552,-260.254,21.484,14.648,-168.457,-925.781,0
1610547104.556,-135.254,22.461,14.648,-67.383,-982.910,0
1610547104.560,208.496,10.742,7.812,149.414,-515.625,0
1610547104.564,333.984,7.324,4.883,197.754,138.184,0
1610547104.567,22.949,20.996,7.812,21.973,-186.035,0
1610547104.571,-237.793,27.832,11.230,-153.320,-853.027,0
1610547104.575,-156.250,26.367,15.137,-85.449,-1000.000,0
1610547104.579,169.922,21.973,15.137,125.977,-604.980,0
1610547104.583,348.633,10.742,4.883,193.359,138.672,0
1610547104.587,66.895,13.184,-0.977,45.898,-83.496,0
1610547104.591,-238.770,20.996,10.742,-143.066,-793.457,0
1610547104.594,-190.430,18.066,13.672,-117.676,-1000.000,0
1610547104.598,132.812,12.207,6.348,91.309,-673.828,0
1610547104.602,356.934,7.812,0.000,199.707,52.246,0
1610547104.606,117.676,15.137,3.418,74.219,0.488,0
1610547104.610,-213.867,22.949,17.090,-125.488,-706.543,0
1610547104.611,-208.008,22.949,15.137,-125.977,-1000.000,0
1610547104.615,91.309,18.555,3.418,75.684,-763.672,0
1610547104.619,360.840,18.555,10.254,214.844,-31.738,0
1610547104.623,169.922,20.508,16.602,101.562,74.219,0
1610547104.627,-190.918,15.625,11.230,-119.141,-642.578,0
1610547104.631,-235.352,18.555,15.137,-149.902,-1000.000,0
1610547104.635,40.527,13.672,14.160,34.180,-831.055,0
1610547104.638,334.473,-3.418,0.488,181.152,-147.949,0
1610547104.642,193.359,0.488,-0.977,109.863,102.539,0
1610547104.646,-164.551,17.090,11.719,-94.238,-583.496,0
1610547104.650,-249.512,21.484,13.184,-153.809,-1000.000,0
1610547104.654,-7.324,11.719,2.441,18.066,-851.074,0
1610547104.671,312.500,3.418,-3.418,187.988,-183.594,0
1610547104.675,246.582,16.113,1.953,144.531,161.621,0
1610547104.679,-122.070,18.555,5.859,-76.660,-504.395,0
1610547104.683,-257.324,14.160,7.812,-178.223,-1000.000,0
1610547104.687,-47.852,11.719,8.789,-13.672,-885.742,0
1610547104.691,284.180,5.371,1.465,183.105,-270.996,0
1610547104.695,277.344,10.742,2.441,159.668,163.086,0
1610547104.698,-88.379,15.625,11.230,-56.641,-420.898,0
1610547104.702,-266.113,18.555,12.207,-173.828,-970.703,0
1610547104.706,-82.520,20.020,9.277,-28.320,-957.520,0
1610547104.710,264.648,19.043,5.371,170.410,-435.059,0
1610547104.714,306.152,13.672,6.836,172.363,140.137,0
1610547104.716,-41.016,13.672,11.230,-20.020,-320.312,0
1610547104.720,-252.441,21.973,16.113,-162.598,-943.359,0
1610547104.724,-125.000,22.949,15.137,-62.012,-976.074,0
1610547104.728,218.262,16.113,4.395,141.113,-468.750,0
1610547104.732,331.055,16.602,5.371,175.293,141.602,0
1610547104.736,1.465,24.414,16.602,-3.906,-253.418,0
1610547104.740,-261.230,27.344,14.648,-163.086,-890.137,0
1610547104.743,-157.715,25.391,13.184,-85.449,-1000.000,0
1610547104.747,193.359,20.996,14.160,125.488,-625.488,0
1610547104.751,355.957,18.066,11.719,199.219,62.012,0
1610547104.755,62.500,26.367,16.602,42.480,-154.297,0
1610547104.759,-234.375,31.250,18.066,-140.137,-831.055,0
1610547104.762,-184.082,21.973,14.648,-101.562,-1000.000,0
1610547104.766,139.648,12.207,11.230,101.562,-666.016,0
1610547104.770,354.004,7.812,7.812,197.754,68.359,0
1610547104.774,93.262,18.066,14.648,57.617,-43.457,0
1610547104.778,-231.445,30.273,17.090,-145.508,-746.582,0
1610547104.782,-206.055,26.367,20.508,-120.605,-1000.000,0
1610547104.786,91.797,9.277,14.648,85.938,-747.070,0
1610547104.789,352.539,15.137,11.719,208.496,16.602,0
1610547104.793,154.785,27.832,18.066,93.750,20.020,0
1610547104.797,-201.172,23.438,16.113,-128.906,-713.867,0
1610547104.801,-228.027,22.461,8.789,-149.902,-1000.000,0
1610547104.805,54.199,18.555,5.371,45.898,-785.645,0
1610547104.807,337.891,13.184,7.812,196.289,-76.172,0
1610547104.811,191.895,18.066,17.090,108.887,102.539,0
1610547104.815,-179.688,24.902,21.973,-103.516,-607.422,0
1610547104.819,-251.465,27.832,27.832,-150.879,-1000.000,0
1610547104.823,13.672,24.414,23.438,25.391,-845.215,0
1610547104.827,322.754,11.230,9.277,192.383,-184.570,0
1610547104.831,227.051,13.672,11.230,130.371,135.254,0
1610547104.834,-129.395,34.180,25.391,-71.289,-523.438,0
1610547104.838,-240.723,39.062,27.832,-152.832,-1000.000,0
1610547104.842,-31.250,19.043,10.254,-8.301,-877.930,0
1610547104.846,297.852,6.348,3.906,183.105,-230.957,0
1610547104.850,266.113,8.301,6.836,145.020,163.086,0
1610547104.852,-100.098,21.484,8.789,-71.777,-468.750,0
1610547104.856,-255.371,23.438,13.184,-178.711,-990.723,0
1610547104.860,-63.965,16.113,14.160,-35.156,-924.805,0
1610547104.864,267.090,9.277,4.883,164.551,-368.164,0
1610547104.868,287.598,5.859,3.906,154.297,170.898,0
1610547104.872,-65.918,15.625,14.648,-35.645,-317.871,0
1610547104.876,-266.602,22.949,19.043,-166.504,-935.547,0
1610547104.879,-111.816,15.625,18.066,-54.688,-974.121,0
1610547104.883,237.793,3.418,11.230,159.180,-455.566,0
1610547104.887,329.590,8.789,9.277,186.523,159.668,0
1610547104.891,-10.254,23.926,19.043,5.371,-224.609,0
1610547104.895,-263.184,18.555,16.113,-158.203,-873.047,0
1610547104.896,-151.367,10.742,13.672,-84.473,-1000.000,0
1610547104.900,183.105,3.906,8.789,133.789,-537.598,0
1610547104.904,324.707,3.418,4.395,195.801,132.812,0
1610547104.908,29.297,14.648,11.719,24.414,-160.156,0
1610547104.912,-251.465,21.973,15.137,-160.645,-832.031,0
1610547104.916,-180.176,20.020,11.230,-101.074,-1000.000,0
1610547104.920,149.902,10.742,6.348,123.047,-634.766,0
1610547104.923,338.867,8.301,7.324,200.195,41.504,0
1610547104.927,72.266,8.789,10.254,45.898,-79.590,0
1610547104.931,-227.051,21.973,20.020,-139.160,-747.070,0
1610547104.935,-199.219,25.879,25.391,-115.234,-1000.000,0
1610547104.939,101.074,5.371,14.648,94.238,-695.801,0
1610547104.941,342.285,2.441,9.766,197.754,62.988,0
1610547104.945,126.953,13.184,15.137,64.453,7.812,0
1610547104.949,-212.402,20.020,20.020,-131.836,-726.074,0
1610547104.953,-219.727,19.531,18.555,-141.602,-1000.000,0
1610547104.957,74.707,11.719,7.812,49.805,-779.785,0
1610547104.961,348.633,5.859,-3.418,194.824,-57.129,0
1610547104.965,173.340,13.672,1.465,99.121,50.293,0
1610547104.968,-181.152,27.832,19.043,-118.652,-668.945,0
1610547104.972,-232.910,30.762,25.879,-149.414,-1000.000,0
1610547104.976,15.137,12.695,10.254,35.645,-831.543,0
1610547104.980,312.500,0.977,2.930,186.035,-165.527,0
1610547104.984,209.961,7.324,7.324,115.723,126.953,0
1610547104.987,-149.414,20.508,18.555,-96.191,-551.270,0
1610547104.991,-257.812,26.367,22.949,-163.086,-1000.000,0
1610547104.995,-23.438,20.020,17.090,9.766,-860.352,0
1610547104.999,301.758,7.812,10.742,184.082,-206.543,0
1610547105.003,240.723,13.184,8.789,140.625,145.508,0
1610547105.007,-120.117,28.320,19.531,-62.500,-499.512,0
1610547105.011,-263.672,26.855,24.414,-161.133,-997.070,0
1610547105.014,-58.594,20.996,17.090,-17.090,-905.762,0
1610547105.018,277.344,12.695,7.812,171.875,-336.914,0
1610547105.022,270.996,2.930,1.465,152.832,139.648,0
1610547105.026,-88.867,12.207,6.348,-57.129,-396.973,0
1610547105.030,-272.461,23.438,10.254,-182.129,-966.309,0
1610547105.033,-99.121,20.996,9.766,-49.316,-960.449,0
1610547105.037,239.258,11.230,9.277,156.250,-446.289,0
1610547105.041,302.734,10.742,9.277,166.016,136.230,0
1610547105.045,-37.109,17.578,15.137,-26.855,-307.617,0
1610547105.049,-271.973,20.996,23.438,-175.781,-927.246,0
1610547105.053,-140.625,19.043,21.484,-76.660,-991.699,0
1610547105.057,201.660,9.766,12.207,135.742,-526.855,0
1610547105.060,327.148,9.277,12.207,179.688,132.812,0
1610547105.064,14.648,20.020,18.555,4.395,-187.500,0
1610547105.068,-262.695,20.508,17.090,-170.410,-860.840,0
1610547105.072,-173.340,16.602,12.695,-98.633,-1000.000,0
1610547105.076,165.039,10.254,7.812,114.258,-610.840,0
1610547105.093,335.449,8.789,13.672,187.988,71.777,0
1610547105.097,65.918,18.066,18.066,37.109,-139.160,0
1610547105.101,-235.840,20.020,21.973,-146.973,-811.035,0
1610547105.105,-205.566,12.695,26.367,-113.770,-1000.000,0
1610547105.109,122.559,6.836,18.555,102.539,-681.641,0
1610547105.113,346.680,5.859,15.625,208.984,31.250,0
1610547105.117,101.074,10.742,18.555,60.547,-56.641,0
1610547105.120,-218.750,20.508,23.926,-133.301,-747.559,0
1610547105.124,-202.148,27.344,28.809,-121.582,-1000.000,0
1610547105.128,88.867,14.160,17.090,67.871,-774.902,0
1610547105.132,344.238,1.465,9.277,193.848,-31.250,0
1610547105.136,151.855,12.695,15.625,86.914,59.570,0
1610547105.136,-190.918,25.391,20.020,-117.188,-668.945,0
1610547105.140,-215.820,22.461,20.996,-138.184,-1000.000,0
1610547105.144,51.270,13.672,19.043,53.223,-809.082,0
1610547105.148,342.773,10.742,14.648,207.031,-114.258,0
1610547105.152,209.473,14.648,16.602,123.535,88.379,0
1610547105.156,-158.691,23.438,22.461,-88.379,-603.516,0
1610547105.160,-247.070,21.973,22.461,-146.973,-1000.000,0
1610547105.163,-3.418,18.555,22.949,20.996,-840.820,0
1610547105.167,312.500,18.555,19.531,181.152,-195.801,0
1610547105.171,228.027,12.207,10.742,120.605,107.910,0
1610547105.175,-140.137,14.648,14.160,-88.867,-518.066,0
1610547105.179,-258.301,22.461,19.043,-168.457,-999.512,0
1610547105.181,-41.016,18.555,17.578,-8.301,-895.508,0
1610547105.185,286.133,9.277,14.648,183.105,-284.668,0
1610547105.189,261.230,9.277,13.672,155.762,178.711,0
1610547105.193,-99.609,20.508,18.066,-52.734,-403.809,0
1610547105.197,-267.090,24.902,21.973,-162.109,-982.910,0
1610547105.201,-88.867,19.531,23.438,-35.645,-941.895,0
1610547105.205,255.371,8.789,18.066,158.203,-365.723,0
1610547105.208,304.688,15.625,23.926,169.922,184.082,0
1610547105.212,-40.039,30.273,33.691,-23.438,-337.402,0
1610547105.216,-254.883,18.066,29.785,-166.504,-949.707,0
1610547105.220,-113.770,8.789,24.414,-60.059,-967.773,0
1610547105.224,220.703,9.766,22.461,146.484,-452.637,0
1610547105.226,309.570,10.254,19.531,175.781,178.223,0
1610547105.230,-13.184,19.531,22.949,-7.324,-193.848,0
1610547105.234,-260.254,24.902,25.391,-162.109,-866.699,0
1610547105.238,-159.180,18.066,25.879,-79.102,-1000.000,0
1610547105.242,187.500,15.137,19.531,133.789,-547.852,0
1610547105.246,349.121,23.926,16.113,199.219,142.578,0
1610547105.250,50.293,31.250,29.297,41.504,-146.973,0
1610547105.253,-241.211,24.414,27.344,-146.973,-831.543,0
1610547105.257,-179.688,15.625,20.996,-113.281,-1000.000,0
1610547105.261,143.066,3.906,16.602,96.680,-642.090,0
1610547105.265,347.656,3.906,16.602,200.195,91.797,0
1610547105.269,93.262,17.578,25.391,52.734,-62.988,0
1610547105.271,-217.285,23.926,30.273,-147.461,-769.043,0
1610547105.275,-193.848,23.438,29.785,-125.488,-1000.000,0
1610547105.279,105.469,17.090,25.391,82.520,-738.770,0
1610547105.283,350.098,11.719,21.973,201.172,-25.879,0
1610547105.287,146.973,24.414,31.738,92.773,-8.301,0
1610547105.291,-185.547,38.086,40.527,-101.074,-701.172,0
1610547105.295,-216.309,27.832,31.250,-132.812,-1000.000,0
1610547105.298,59.570,17.090,16.602,54.688,-809.570,0
1610547105.302,343.262,10.254,9.277,193.359,-91.309,0
1610547105.306,187.012,15.137,18.555,94.727,84.473,0
1610547105.310,-170.898,27.344,25.879,-108.887,-631.348,0
1610547105.314,-239.746,29.785,24.902,-154.785,-1000.000,0
1610547105.317,20.020,21.484,20.996,19.531,-824.707,0
1610547105.321,329.102,10.254,19.043,191.895,-145.508,0
1610547105.325,227.539,18.555,22.461,135.742,99.121,0
1610547105.329,-139.160,26.855,23.438,-77.148,-567.383,0
1610547105.333,-243.164,31.250,27.344,-146.484,-1000.000,0
1610547105.337,-14.160,24.902,25.391,16.602,-877.930,0
1610547105.341,303.223,7.812,15.137,187.500,-261.719,0
1610547105.344,257.812,10.254,17.090,150.391,153.320,0
1610547105.348,-104.980,19.043,25.391,-59.570,-451.660,0
1610547105.352,-255.371,25.879,27.832,-168.457,-997.070,0
1610547105.356,-66.406,22.949,17.578,-33.203,-916.992,0
1610547105.360,269.531,12.207,13.672,171.387,-348.145,0
1610547105.362,287.109,6.836,18.066,161.133,175.781,0
1610547105.366,-74.707,17.578,26.367,-46.875,-344.727,0
1610547105.370,-273.438,22.461,27.832,-167.969,-957.031,0
1610547105.374,-107.910,19.043,21.484,-49.316,-964.355,0
1610547105.378,238.770,12.695,17.578,158.691,-453.125,0
1610547105.382,317.383,15.625,22.461,188.965,140.625,0
1610547105.386,-13.672,27.832,28.809,0.000,-306.152,0
1610547105.389,-259.766,21.973,17.578,-165.039,-931.152,0
1610547105.393,-141.113,15.137,12.207,-79.102,-990.234,0
1610547105.397,203.613,7.812,10.254,127.930,-533.203,0
1610547105.401,327.637,2.930,8.301,186.035,146.484,0
1610547105.405,20.020,13.184,15.137,15.625,-162.598,0
1610547105.422,-245.117,22.461,17.578,-141.113,-850.098,0
1610547105.426,-169.434,19.043,13.184,-81.543,-1000.000,0
1610547105.430,160.645,15.137,13.672,111.816,-602.539,0
1610547105.434,343.262,15.137,12.695,199.219,139.160,0
1610547105.438,65.430,17.578,14.160,42.969,-53.711,0
1610547105.442,-236.328,23.926,22.461,-149.414,-779.785,0
1610547105.446,-188.965,28.320,26.855,-114.258,-1000.000,0
1610547105.449,123.535,11.230,15.625,94.238,-695.312,0
1610547105.453,339.844,-3.418,7.324,201.172,45.410,0
1610547105.457,114.258,13.184,17.090,73.242,-24.414,0
1610547105.461,-210.938,21.484,18.555,-128.906,-733.398,0
1610547105.465,-209.473,18.555,14.648,-132.324,-1000.000,0
1610547105.466,83.496,18.555,13.672,72.754,-742.188,0
1610547105.470,345.703,13.672,11.230,214.355,-16.113,0
1610547105.474,169.434,16.113,13.184,109.375,79.590,0
1610547105.478,-180.664,28.320,20.996,-98.145,-633.301,0
1610547105.482,-228.027,24.414,23.926,-143.066,-1000.000,0
1610547105.486,40.039,15.137,16.602,40.039,-817.871,0
1610547105.490,330.566,13.184,11.719,203.125,-108.887,0
1610547105.493,208.984,19.531,19.043,125.488,138.184,0
1610547105.497,-140.625,26.855,19.043,-88.379,-571.289,0
1610547105.501,-237.305,23.926,6.836,-155.273,-1000.000,0
1610547105.505,-6.836,17.578,1.465,18.066,-855.469,0
1610547105.509,309.082,10.254,7.324,193.359,-192.871,0
1610547105.511,237.305,13.672,16.602,138.672,132.812,0
1610547105.515,-127.930,22.949,18.555,-71.777,-519.531,0
1610547105.519,-264.648,25.391,14.648,-164.062,-998.047,0
1610547105.523,-49.805,20.020,7.812,-14.160,-902.832,0
1610547105.527,283.203,8.789,-1.465,173.828,-288.574,0
1610547105.531,270.996,7.812,1.465,154.297,180.176,0
1610547105.535,-83.496,21.973,6.348,-43.457,-413.086,0
1610547105.538,-256.836,32.715,14.160,-157.227,-970.215,0
1610547105.542,-87.402,25.391,12.695,-38.086,-968.262,0
1610547105.546,245.605,10.254,-1.465,153.809,-458.496,0
1610547105.550,294.922,1.953,-5.859,166.016,145.020,0
1610547105.554,-45.410,14.648,2.930,-18.555,-316.895,0
1610547105.558,-259.277,28.320,13.672,-162.598,-934.082,0
1610547105.562,-124.512,23.438,10.254,-68.359,-976.074,0
1610547105.566,209.961,12.207,3.906,136.719,-491.211,0
1610547105.570,312.988,11.230,5.371,178.711,156.250,0
1610547105.574,-4.395,19.531,12.695,4.883,-182.617,0
1610547105.578,-253.906,24.414,17.090,-164.062,-857.422,0
1610547105.582,-158.203,19.043,15.137,-87.891,-1000.000,0
1610547105.585,178.223,16.113,18.066,138.672,-593.262,0
1610547105.589,341.309,16.113,20.508,201.172,84.961,0
1610547105.593,52.246,11.719,13.184,20.508,-136.230,0
1610547105.597,-230.469,17.578,12.695,-160.156,-817.383,0
1610547105.601,-179.688,17.578,17.090,-111.328,-1000.000,0
1610547105.602,141.113,10.742,14.648,102.539,-658.203,0
1610547105.606,349.609,8.301,12.695,202.637,75.684,0
1610547105.610,92.773,15.625,18.555,57.129,-33.203,0
1610547105.614,-229.492,24.902,23.926,-137.207,-750.977,0
1610547105.618,-214.355,22.461,19.043,-123.047,-1000.000,0
1610547105.622,83.984,15.625,14.160,73.730,-766.602,0
1610547105.626,333.984,12.695,18.555,204.102,-36.133,0
1610547105.629,141.602,21.973,24.902,93.262,23.926,0
1610547105.633,-211.914,23.926,22.949,-124.023,-697.266,0
1610547105.637,-241.699,16.602,16.113,-152.344,-1000.000,0
1610547105.641,36.621,13.672,11.719,39.551,-793.945,0
1610547105.645,323.242,4.395,9.766,192.871,-73.730,0
1610547105.647,185.059,6.348,12.207,104.492,109.375,0
1610547105.651,-169.922,19.531,22.461,-108.887,-594.727,0
1610547105.655,-236.816,28.320,27.832,-151.855,-1000.000,0
1610547105.659,19.043,25.879,25.391,30.762,-833.008,0
1610547105.663,329.590,17.090,17.090,190.918,-151.367,0
1610547105.667,223.633,19.531,15.625,124.512,140.137,0
1610547105.671,-135.742,33.203,27.832,-66.406,-525.879,0
1610547105.674,-235.840,41.992,35.156,-141.602,-1000.000,0
1610547105.678,-27.832,26.855,22.461,-4.395,-873.047,0
1610547105.682,293.945,12.695,12.695,173.340,-231.934,0
1610547105.686,261.230,12.207,16.602,146.973,178.223,0
1610547105.690,-101.562,17.090,22.949,-63.965,-437.500,0
1610547105.691,-252.930,20.508,23.926,-171.875,-983.887,0
1610547105.695,-66.895,18.555,23.926,-29.785,-926.270,0
1610547105.699,267.090,13.184,18.066,171.387,-367.188,0
1610547105.703,289.551,12.695,16.602,170.410,155.762,0
1610547105.707,-54.688,20.508,22.461,-31.738,-338.867,0
1610547105.711,-254.395,27.344,20.996,-157.227,-935.547,0
1610547105.715,-105.469,24.414,20.996,-42.969,-989.258,0
1610547105.718,238.281,15.625,19.531,155.762,-489.258,0
1610547105.722,320.312,16.602,20.020,189.453,156.738,0
1610547105.726,-18.555,22.461,20.508,3.906,-243.652,0
1610547105.730,-264.160,18.066,22.949,-162.598,-900.879,0
1610547105.734,-151.367,12.207,20.020,-87.402,-995.117,0
1610547105.736,185.547,8.301,15.625,124.512,-531.250,0
1610547105.740,335.449,13.184,16.602,187.500,149.414,0
1610547105.744,41.504,24.414,23.438,14.648,-143.555,0
1610547105.748,-235.840,30.762,27.344,-156.738,-840.332,0
1610547105.752,-160.645,25.391,23.926,-92.285,-1000.000,0
1610547105.756,160.156,14.160,20.996,116.699,-634.277,0
1610547105.760,341.309,15.625,23.438,204.102,67.871,0
1610547105.763,82.520,25.391,27.832,53.223,-86.426,0
1610547105.767,-223.145,24.414,26.367,-132.324,-770.508,0
1610547105.771,-205.078,15.625,22.949,-107.422,-1000.000,0
1610547105.775,103.516,9.277,19.043,87.402,-701.172,0
1610547105.779,341.797,5.859,15.625,196.777,49.316,0
1610547105.782,125.488,11.719,18.066,79.590,19.531,0
1610547105.786,-205.566,23.926,26.367,-113.281,-701.172,0
1610547105.790,-218.750,21.973,25.391,-128.418,-1000.000,0
1610547105.794,67.871,12.695,17.578,65.430,-759.277,0
1610547105.798,335.449,9.277,11.230,202.148,-33.691,0
1610547105.802,169.922,19.531,16.602,99.609,93.750,0
1610547105.806,-171.387,30.273,30.762,-102.051,-616.699,0
1610547105.809,-230.469,26.367,24.414,-146.973,-1000.000,0
1610547105.813,20.508,18.555,12.207,30.762,-809.570,0
1610547105.817,318.359,14.648,12.695,189.453,-104.492,0
1610547105.821,210.449,14.648,12.207,112.793,153.809,0
1610547105.825,-138.184,20.508,18.066,-90.820,-539.062,0
1610547105.841,-236.328,26.367,26.367,-157.715,-1000.000,0
1610547105.845,-31.738,20.508,23.438,7.812,-853.027,0
1610547105.849,290.527,9.766,11.719,185.059,-171.875,0
1610547105.853,256.836,14.160,15.137,141.602,212.891,0
1610547105.857,-104.980,29.785,30.762,-53.223,-437.988,0
1610547105.861,-259.766,30.273,28.320,-157.227,-987.793,0
1610547105.865,-68.848,13.184,17.578,-30.273,-916.992,0
1610547105.868,264.648,3.418,13.672,164.062,-306.152,0
1610547105.872,271.973,11.719,17.578,157.715,196.289,0
1610547105.876,-69.824,24.414,26.367,-44.922,-374.023,0
1610547105.880,-259.277,26.367,27.832,-166.992,-963.867,0
1610547105.884,-105.957,19.043,25.879,-41.992,-952.148,0
1610547105.886,242.188,11.719,23.926,161.133,-418.457,0
1610547105.890,303.711,11.719,18.555,170.898,153.320,0
1610547105.894,-35.156,22.949,22.949,-13.184,-262.695,0
1610547105.898,-249.512,37.109,32.715,-148.926,-897.949,0
1610547105.902,-129.883,29.785,23.926,-59.082,-989.746,0
1610547105.906,206.055,7.812,10.254,137.695,-506.348,0
1610547105.910,327.148,2.930,9.277,181.641,132.812,0
1610547105.913,19.531,12.207,14.160,23.926,-199.219,1
1610547105.917,-232.910,20.020,19.043,-139.648,-857.422,0
1610547105.921,-151.855,15.137,15.137,-86.426,-1000.000,0
1610547105.925,180.664,2.441,2.930,112.305,-606.934,0
1610547105.929,348.145,1.465,-0.977,181.641,100.586,0
1610547105.931,62.988,9.766,4.883,32.715,-125.977,0
1610547105.935,-220.703,21.484,15.625,-139.648,-816.406,0
1610547105.939,-177.246,23.926,14.648,-105.957,-1000.000,0
1610547105.943,122.070,3.418,-0.977,82.031,-694.336,0
1610547105.947,332.520,-6.836,-4.883,177.734,29.297,0
1610547105.951,100.098,4.883,1.953,52.246,-9.277,0
1610547105.955,-219.727,15.625,9.277,-133.301,-710.938,0
1610547105.958,-215.332,15.137,12.695,-125.488,-1000.000,0
1610547105.962,80.566,7.812,9.766,63.965,-755.859,0
1610547105.966,333.984,0.000,5.859,194.824,-21.484,0
1610547105.970,142.090,5.371,6.348,83.496,56.152,0
1610547105.974,-188.965,23.926,17.090,-119.629,-657.715,0
1610547105.976,-229.980,27.832,18.555,-137.695,-1000.000,0
1610547105.980,16.602,8.301,2.930,29.785,-781.250,0
1610547105.984,314.941,-2.441,-0.977,180.664,-79.590,0
1610547105.988,192.383,6.348,6.348,107.910,118.652,0
1610547105.992,-164.551,19.043,17.090,-99.121,-568.359,0
1610547105.996,-237.793,22.949,20.508,-147.949,-1000.000,0
1610547106.000,5.859,17.578,14.160,16.602,-852.051,0
1610547106.003,317.383,10.742,9.766,182.617,-224.121,0
1610547106.007,233.887,9.766,5.371,131.836,88.379,0
1610547106.011,-124.023,19.043,12.207,-71.289,-528.809,0
1610547106.015,-239.258,27.832,19.531,-159.180,-998.047,0
1610547106.019,-36.133,20.020,10.742,-25.391,-903.320,0
1610547106.022,285.156,8.301,5.371,169.922,-301.758,0
1610547106.026,269.043,10.742,7.812,156.250,171.875,0
1610547106.030,-80.566,22.461,10.742,-54.199,-399.902,0
1610547106.034,-252.441,26.367,9.766,-163.086,-977.539,0
1610547106.038,-73.730,17.578,5.371,-37.598,-932.617,0
1610547106.042,260.742,12.207,-0.977,159.668,-359.375,0
1610547106.046,289.062,14.648,-0.488,173.828,170.898,0
1610547106.049,-49.805,20.996,8.301,-21.484,-327.148,0
1610547106.053,-252.441,24.414,9.766,-165.527,-927.246,0
1610547106.057,-116.699,17.578,3.906,-63.965,-967.773,0
1610547106.061,220.703,17.090,3.906,157.715,-455.566,0
1610547106.065,329.102,22.461,5.371,196.289,186.035,0
1610547106.066,4.395,17.090,5.859,3.906,-171.387,0
1610547106.070,-244.629,18.066,10.254,-157.715,-852.051,0
1610547106.074,-143.066,20.508,10.254,-74.219,-1000.000,0
1610547106.078,188.965,14.648,1.465,139.160,-553.711,0
1610547106.082,338.867,11.230,-1.953,202.637,156.250,0
1610547106.086,47.852,20.508,8.789,48.340,-110.352,0
1610547106.090,-230.957,27.832,20.020,-134.766,-806.152,0
1610547106.093,-166.016,23.438,15.137,-101.074,-1000.000,0
1610547106.097,152.832,17.578,9.277,110.352,-629.395,0
1610547106.101,347.656,15.625,13.184,201.660,112.793,0
1610547106.105,83.008,10.742,11.230,43.945,-21.484,0
1610547106.109,-230.469,15.137,14.648,-154.297,-731.445,0
1610547106.111,-204.102,18.555,17.090,-131.348,-1000.000,0
1610547106.115,92.285,10.254,14.160,77.148,-716.309,0
1610547106.119,328.613,8.789,13.184,197.266,35.156,0
1610547106.123,134.766,14.648,16.602,76.172,46.875,0
1610547106.127,-196.777,20.996,21.484,-128.906,-675.781,0
1610547106.131,-224.121,23.926,17.578,-136.719,-1000.000,0
1610547106.135,55.664,23.926,19.531,57.617,-803.711,0
1610547106.138,328.613,9.277,15.625,191.895,-69.336,0
1610547106.142,168.945,5.859,13.672,92.285,126.953,0
1610547106.146,-178.711,21.484,23.926,-110.840,-604.980,0
1610547106.150,-249.512,21.973,15.137,-150.391,-1000.000,0
1610547106.154,-0.488,12.207,10.742,26.367,-833.008,0
1610547106.171,318.848,6.836,13.184,191.406,-147.949,0
1610547106.175,223.145,13.184,18.066,127.930,124.023,0
1610547106.179,-138.672,20.508,22.461,-85.449,-549.805,0
1610547106.183,-250.488,22.461,22.461,-158.203,-1000.000,0
1610547106.187,-27.344,14.160,17.090,8.301,-883.301,0
1610547106.191,295.410,11.230,14.648,187.012,-258.789,0
1610547106.195,247.559,18.066,18.555,153.320,165.039,0
1610547106.198,-117.676,13.184,11.719,-62.500,-435.059,0
1610547106.202,-264.648,12.207,11.719,-169.922,-979.980,0
1610547106.206,-67.383,15.137,17.578,-26.855,-938.965,0
1610547106.210,263.672,8.301,17.090,159.668,-360.840,0
1610547106.214,277.344,6.348,16.113,152.832,180.176,0
1610547106.216,-66.406,17.090,20.996,-41.016,-345.703,0
1610547106.220,-253.906,19.043,22.461,-172.363,-954.102,0
1610547106.224,-103.027,15.625,20.996,-56.641,-958.984,0
1610547106.228,235.840,10.254,17.578,148.438,-414.062,0
1610547106.232,319.824,11.719,21.484,176.758,192.383,0
1610547106.236,-12.695,21.484,32.715,-1.465,-230.469,0
1610547106.240,-252.441,17.090,26.855,-162.109,-894.043,0
1610547106.243,-145.508,10.742,19.531,-72.266,-984.863,0
1610547106.247,181.641,8.301,17.578,148.438,-503.906,0
1610547106.251,313.477,7.812,18.555,197.754,136.230,0
1610547106.255,22.949,18.066,22.949,17.090,-172.852,0
1610547106.259,-247.559,28.809,27.832,-149.414,-839.355,0
1610547106.261,-168.457,25.391,29.785,-83.984,-1000.000,0
1610547106.265,159.668,13.672,19.043,115.234,-605.469,0
1610547106.269,332.031,13.672,18.555,199.219,131.348,0
1610547106.273,78.613,27.344,27.832,55.664,-43.945,0
1610547106.277,-228.027,24.414,19.531,-146.973,-762.695,0
1610547106.281,-201.172,20.508,14.648,-121.094,-1000.000,0
1610547106.285,115.723,17.578,12.695,89.844,-686.523,0
1610547106.288,336.914,11.719,6.348,186.035,67.383,0
1610547106.292,112.305,18.555,14.160,52.246,14.160,0
1610547106.296,-209.961,26.855,20.508,-142.090,-707.031,0
1610547106.300,-212.891,23.926,16.602,-138.672,-1000.000,0
1610547106.304,78.613,20.508,14.648,63.477,-759.766,0
1610547106.306,336.426,15.137,12.695,199.707,-19.531,0
1610547106.310,165.527,22.461,18.555,98.633,83.984,0
1610547106.314,-171.387,29.297,22.461,-110.352,-645.508,0
1610547106.318,-232.422,19.043,15.625,-141.113,-1000.000,0
1610547106.322,19.043,10.742,12.695,43.945,-806.641,0
1610547106.326,308.105,4.883,8.301,190.430,-78.613,0
1610547106.330,193.359,7.324,7.812,104.004,141.602,0
1610547106.333,-158.691,17.578,20.020,-97.168,-571.777,0
1610547106.337,-247.070,25.879,25.391,-162.598,-1000.000,0
1610547106.341,-9.277,15.625,13.184,-7.324,-850.586,0
1610547106.345,300.293,4.395,6.836,178.711,-179.688,0
1610547106.349,234.375,18.555,13.184,134.277,152.344,0
1610547106.351,-112.793,32.227,15.137,-76.172,-506.836,0
1610547106.355,-269.043,20.020,9.766,-174.316,-999.512,0
1610547106.359,-74.219,8.301,10.742,-24.902,-908.203,0
1610547106.363,275.879,2.441,11.230,165.527,-296.387,0
1610547106.367,257.812,5.859,13.672,143.066,199.219,0
1610547106.371,-90.332,16.113,20.996,-54.199,-373.047,0
1610547106.375,-254.395,21.484,19.043,-165.527,-962.891,0
1610547106.378,-86.914,21.484,15.137,-30.273,-956.055,0
1610547106.382,250.488,15.137,14.160,174.805,-429.199,0
1610547106.386,297.852,6.348,8.301,168.457,160.645,0
1610547106.390,-26.855,21.973,21.484,-22.461,-279.785,0
1610547106.394,-238.770,31.738,28.809,-157.715,-925.781,0
1610547106.397,-131.836,12.207,11.230,-63.965,-975.098,0
1610547106.401,202.148,1.465,3.906,143.555,-459.473,0
1610547106.405,317.871,8.789,13.184,178.711,180.664,0
1610547106.409,7.812,21.973,23.438,0.488,-174.805,0
1610547106.413,-237.793,26.855,26.367,-151.855,-855.469,0
1610547106.417,-149.414,22.949,25.391,-79.590,-1000.000,0
1610547106.421,164.551,16.113,18.555,122.070,-574.219,0
1610547106.424,333.984,15.625,16.602,187.988,118.652,0
1610547106.428,62.500,17.090,21.973,29.297,-89.355,0
1610547106.432,-216.797,30.762,29.297,-138.184,-785.645,0
1610547106.436,-164.062,31.738,24.902,-102.051,-1000.000,0
1610547106.440,123.047,6.348,10.742,86.914,-628.906,0
1610547106.441,327.637,0.000,8.301,181.641,128.418,0
1610547106.445,98.145,12.695,16.602,44.922,28.809,0
1610547106.449,-218.750,21.973,23.438,-141.113,-703.125,0
1610547106.453,-205.566,23.926,23.926,-123.535,-1000.000,0
1610547106.457,93.750,20.020,17.578,75.684,-713.867,0
1610547106.461,347.656,14.160,14.160,197.754,45.410,0
1610547106.465,152.344,22.949,26.367,88.867,60.547,0
1610547106.468,-187.988,33.203,34.668,-114.258,-674.316,0
1610547106.472,-223.145,21.484,21.973,-147.461,-1000.000,0
1610547106.476,44.434,7.812,13.184,42.969,-768.066,0
1610547106.480,323.242,3.418,10.254,191.406,-40.039,0
1610547106.484,175.293,8.301,15.625,100.586,127.930,0
1610547106.487,-169.922,17.090,20.996,-110.352,-581.543,0
1610547106.491,-239.258,17.578,20.020,-153.809,-1000.000,0
1610547106.495,10.742,13.672,15.137,26.367,-850.586,0
1610547106.499,309.082,9.766,7.324,183.594,-175.293,0
1610547106.503,221.680,13.672,8.789,130.371,145.508,0
1610547106.507,-122.559,29.785,25.391,-59.570,-534.668,0
1610547106.511,-251.465,28.320,26.367,-151.855,-1000.000,0
1610547106.514,-47.363,9.766,12.207,-20.996,-889.648,0
1610547106.518,277.344,6.348,8.789,161.133,-238.770,0
1610547106.522,250.000,9.277,8.301,136.719,185.059,0
1610547106.526,-104.492,14.648,11.719,-58.105,-460.938,0
1610547106.530,-258.789,23.926,17.090,-167.480,-992.676,0
1610547106.547,-70.312,21.484,14.648,-32.715,-924.316,0
1610547106.551,261.230,11.719,8.301,168.457,-357.910,0
1610547106.555,285.645,12.695,11.719,166.504,166.016,0
1610547106.559,-56.152,19.531,17.578,-27.832,-344.238,0
1610547106.563,-252.930,20.996,22.461,-157.227,-941.895,0
1610547106.567,-101.562,31.250,29.785,-41.992,-976.562,0
1610547106.571,232.422,21.973,20.508,155.273,-479.980,0
1610547106.574,314.941,4.883,11.230,176.758,154.297,0
1610547106.578,3.418,14.160,14.648,3.906,-231.934,0
1610547106.582,-233.398,23.438,22.461,-147.949,-886.230,0
1610547106.586,-134.277,24.414,21.484,-71.289,-1000.000,0
1610547106.590,193.848,17.090,12.695,128.906,-581.055,0
1610547106.591,333.008,13.184,13.672,192.383,127.930,0
1610547106.595,44.922,26.855,26.367,36.621,-140.137,0
1610547106.599,-238.281,26.855,28.320,-142.090,-837.402,0
1610547106.603,-182.617,15.137,19.531,-102.539,-1000.000,0
1610547106.607,138.184,8.789,15.137,105.957,-629.883,0
1610547106.611,336.426,8.301,13.184,200.684,78.613,0
1610547106.615,83.984,15.625,20.020,51.758,-62.988,0
1610547106.618,-223.633,21.973,24.902,-142.578,-750.000,0
1610547106.622,-195.312,26.367,29.785,-118.652,-1000.000,0
1610547106.626,103.516,21.973,29.785,81.543,-732.910,0
1610547106.630,326.660,10.254,22.461,185.547,19.531,0
1610547106.634,117.676,14.160,24.902,65.430,39.062,0
1610547106.636,-199.219,30.273,33.691,-119.629,-693.848,0
1610547106.640,-217.773,24.902,27.832,-130.859,-1000.000,0
1610547106.644,59.570,9.277,15.625,48.828,-759.766,0
1610547106.648,326.660,5.371,10.254,190.430,-20.020,0
1610547106.652,161.133,9.766,12.695,94.238,100.098,0
1610547106.656,-183.105,15.137,20.996,-114.258,-623.047,0
1610547106.660,-234.863,17.090,22.461,-150.879,-1000.000,0
1610547106.663,21.484,14.160,21.973,33.203,-814.941,0
1610547106.667,312.988,12.207,21.973,202.148,-138.184,0
1610547106.671,197.266,13.672,15.625,117.676,109.863,0
1610547106.675,-160.156,17.578,15.137,-111.816,-553.711,0
1610547106.679,-247.559,26.367,26.855,-163.574,-1000.000,0
1610547106.681,-28.809,14.648,17.578,0.000,-859.863,0
1610547106.685,273.926,-2.930,2.930,166.992,-197.266,0
1610547106.689,233.398,5.859,5.371,126.465,186.523,0
1610547106.693,-112.793,21.484,19.531,-69.824,-458.496,0
1610547106.697,-250.000,24.414,28.320,-156.738,-991.211,0
1610547106.701,-53.711,19.531,20.996,-17.578,-917.969,0
1610547106.705,271.973,9.766,14.160,169.922,-319.824,0
1610547106.708,284.668,14.648,21.484,167.480,200.684,0
1610547106.712,-52.246,38.086,32.715,-28.320,-369.141,0
1610547106.716,-243.652,34.668,26.855,-168.457,-967.773,0
1610547106.720,-92.285,15.625,18.555,-53.711,-961.914,0
1610547106.724,235.352,12.207,15.137,153.809,-407.715,0
1610547106.726,296.875,13.672,16.113,165.039,192.871,0
1610547106.730,-27.832,19.531,24.414,-24.414,-267.090,0
1610547106.734,-249.023,24.414,31.250,-152.344,-907.227,0
1610547106.738,-124.023,20.508,22.461,-55.664,-988.770,0
1610547106.742,196.777,10.254,12.695,141.113,-503.906,0
1610547106.746,320.801,14.648,25.879,189.941,146.484,0
1610547106.750,24.414,23.926,31.250,19.043,-186.035,0
1610547106.753,-245.605,23.926,30.273,-161.621,-851.562,0
1610547106.757,-164.062,23.926,31.738,-97.168,-1000.000,0
1610547106.761,154.785,12.207,23.926,117.676,-595.703,0
1610547106.765,324.707,7.324,17.090,186.523,125.000,0
1610547106.769,62.012,15.625,22.461,32.227,-77.148,0
1610547106.772,-236.328,15.137,28.809,-148.438,-772.949,0
1610547106.776,-190.430,17.090,27.832,-106.445,-1000.000,0
1610547106.780,120.117,20.020,23.438,102.051,-674.805,0
1610547106.784,341.797,16.602,19.043,203.125,67.871,0
1610547106.788,110.352,16.602,22.461,66.406,7.812,0
1610547106.792,-199.707,29.785,33.691,-117.676,-712.891,0
1610547106.796,-184.570,40.527,34.668,-103.516,-1000.000,0
1610547106.799,91.797,25.391,22.949,78.613,-766.602,0
1610547106.803,333.008,10.254,18.066,190.918,-20.020,0
1610547106.807,156.250,20.508,24.414,90.332,67.383,0
1610547106.811,-176.270,31.738,31.738,-108.887,-659.668,0
1610547106.815,-214.844,28.809,31.250,-135.254,-1000.000,0
1610547106.816,47.363,23.926,25.879,47.852,-790.039,0
1610547106.820,324.707,15.625,21.484,187.988,-77.637,0
1610547106.824,205.566,26.855,28.320,116.699,113.770,0
1610547106.828,-149.414,33.203,27.344,-92.773,-580.078,0
1610547106.832,-246.094,23.438,20.508,-156.250,-1000.000,0
1610547106.836,-12.207,22.461,16.602,16.113,-847.656,0
1610547106.840,299.316,19.043,15.137,182.617,-203.613,0
1610547106.843,221.680,20.020,20.508,131.348,117.188,0
1610547106.847,-135.254,27.832,29.297,-73.242,-513.672,0
1610547106.851,-251.953,29.785,34.180,-154.297,-1000.000,0
1610547106.855,-42.969,21.484,29.785,1.465,-893.555,0
1610547106.859,278.320,13.184,16.602,176.270,-265.137,0
1610547106.861,270.020,19.043,17.090,157.227,192.871,0
1610547106.865,-65.918,29.785,27.344,-40.039,-386.230,0
1610547106.869,-245.605,23.926,12.207,-162.598,-968.262,0
1610547106.873,-91.309,13.184,4.395,-29.785,-942.383,0
1610547106.877,241.211,7.812,11.230,165.527,-358.887,0
1610547106.881,287.109,14.648,14.648,164.062,162.109,0
1610547106.885,-52.734,22.949,23.926,-37.598,-358.398,0
1610547106.888,-257.812,22.461,23.926,-177.734,-948.730,0
1610547106.892,-117.188,15.625,15.137,-63.477,-967.285,0
1610547106.896,215.332,11.719,12.695,144.043,-474.121,0
1610547106.900,307.129,11.230,9.766,173.340,148.926,0
1610547106.904,-0.488,19.043,17.090,-6.836,-214.355,0
1610547106.921,-239.258,25.879,22.461,-164.062,-879.395,0
1610547106.925,-144.043,24.902,17.578,-83.496,-1000.000,0
1610547106.929,178.223,17.090,16.602,126.465,-554.688,0
1610547106.933,318.359,7.324,11.230,181.152,164.062,0
1610547106.937,35.156,14.648,17.090,21.484,-103.027,0
1610547106.941,-237.793,22.461,22.949,-145.020,-801.270,0
1610547106.945,-171.875,24.414,17.090,-101.562,-1000.000,0
1610547106.948,143.555,17.090,7.324,97.656,-667.969,0
1610547106.952,339.355,13.184,4.883,190.918,81.543,0
1610547106.956,103.027,24.902,16.602,45.898,-61.523,0
1610547106.960,-201.660,28.320,24.902,-145.508,-783.691,0
1610547106.964,-191.406,20.996,20.020,-122.070,-1000.000,0
1610547106.966,99.609,10.254,18.066,88.867,-697.754,0
1610547106.970,337.891,5.371,20.508,209.473,22.461,0
1610547106.974,144.043,19.531,27.344,83.496,5.371,0
1610547106.978,-184.570,23.926,27.832,-122.559,-687.988,0
1610547106.982,-212.891,17.090,21.973,-139.648,-1000.000,0
1610547106.986,63.965,12.207,22.461,50.781,-780.762,0
1610547106.990,328.613,7.324,18.555,194.824,-35.645,0
1610547106.993,168.945,12.207,18.066,92.773,118.164,0
1610547106.997,-168.945,23.438,24.414,-110.352,-609.863,0
1610547107.001,-225.586,27.344,27.832,-146.973,-1000.000,0
1610547107.005,20.020,13.184,19.531,19.043,-831.543,0
1610547107.009,311.523,4.395,11.719,181.152,-151.855,0
1610547107.011,212.891,10.742,16.602,120.117,139.648,0
1610547107.015,-139.648,16.602,25.879,-76.660,-524.414,0
1610547107.019,-238.770,25.879,32.227,-147.949,-1000.000,0
1610547107.023,-10.742,29.297,29.785,2.930,-871.094,0
1610547107.027,291.016,12.695,16.113,177.734,-258.301,0
1610547107.031,242.188,6.836,18.555,135.742,172.363,0
1610547107.035,-104.004,11.719,24.414,-62.500,-422.852,0
1610547107.038,-250.000,17.090,24.414,-158.691,-986.816,0
1610547107.042,-61.035,21.973,29.785,-20.020,-945.312,0
1610547107.046,260.742,12.207,23.438,174.316,-356.934,0
1610547107.050,276.855,4.883,17.578,158.691,221.191,0
1610547107.054,-54.199,17.578,21.973,-29.785,-312.012,0
1610547107.056,-251.953,21.973,15.625,-157.227,-953.613,0
1610547107.060,-105.469,22.461,21.973,-52.246,-948.730,0
1610547107.064,235.840,20.508,25.879,152.344,-385.742,0
1610547107.068,293.945,8.789,14.648,174.805,209.473,0
1610547107.072,-25.391,9.766,12.695,-10.742,-218.262,0
1610547107.076,-248.047,17.090,12.207,-165.039,-888.184,0
1610547107.080,-137.207,15.137,10.254,-80.078,-981.445,0
1610547107.083,194.824,7.812,8.789,134.277,-502.930,0
1610547107.087,327.148,11.719,9.277,188.965,156.738,0
1610547107.091,35.156,17.090,16.113,10.742,-130.859,0
1610547107.095,-232.910,15.137,18.555,-152.344,-827.148,0
1610547107.099,-158.203,17.578,21.973,-89.844,-1000.000,0
1610547107.101,161.133,19.043,21.973,114.258,-590.820,0
1610547107.105,333.984,8.789,9.766,186.035,131.348,0
1610547107.109,69.824,7.812,10.254,38.574,-47.852,0
1610547107.113,-226.074,16.602,15.137,-140.137,-756.348,0
1610547107.117,-192.383,18.066,15.625,-113.770,-1000.000,0
1610547107.121,111.328,11.230,13.672,89.844,-681.641,0
1610547107.125,336.426,9.766,12.695,200.195,83.984,0
1610547107.128,123.535,20.508,19.531,72.754,-11.230,0
1610547107.132,-201.172,25.391,22.461,-129.883,-746.582,0
1610547107.136,-201.660,24.902,21.973,-124.512,-1000.000,0
1610547107.140,78.125,23.926,14.648,73.730,-758.301,0
1610547107.144,320.801,11.230,2.930,196.777,-38.574,0
1610547107.146,161.621,16.113,14.160,99.121,69.336,0
1610547107.150,-165.527,29.297,26.367,-99.609,-625.977,0
1610547107.154,-227.539,21.973,22.461,-141.602,-1000.000,0
1610547107.158,24.902,12.695,16.113,32.715,-820.801,0
1610547107.162,321.289,10.742,10.254,194.336,-123.535,0
1610547107.166,202.148,13.184,11.719,128.418,112.793,0
1610547107.170,-141.602,21.484,20.020,-76.172,-568.359,0
1610547107.173,-226.562,22.949,19.043,-144.531,-1000.000,0
1610547107.177,-0.977,16.602,15.137,15.137,-866.211,0
1610547107.181,305.176,10.254,11.230,190.430,-205.078,0
1610547107.185,246.094,14.160,11.719,145.020,138.184,0
1610547107.189,-93.750,28.320,25.391,-55.176,-518.066,0
1610547107.191,-242.188,22.461,17.090,-157.227,-1000.000,0
1610547107.195,-64.453,11.719,7.324,-15.137,-900.391,0
1610547107.199,256.348,7.812,6.836,173.340,-288.574,0
1610547107.203,255.371,10.742,9.766,146.484,179.199,0
1610547107.207,-79.590,20.508,18.066,-44.434,-387.207,0
1610547107.211,-241.211,26.855,23.438,-158.691,-958.008,0
1610547107.215,-74.219,28.809,28.320,-36.621,-970.215,0
1610547107.218,246.582,14.648,22.461,154.297,-437.988,0
1610547107.222,296.875,15.137,16.602,161.621,168.945,0
1610547107.226,-31.250,21.973,18.555,-26.367,-281.738,0
1610547107.230,-249.023,16.602,16.602,-166.504,-918.945,0
1610547107.234,-118.652,20.508,15.137,-59.570,-988.281,0
1610547107.237,212.891,18.066,6.836,147.949,-481.934,0
1610547107.241,318.848,17.090,8.789,188.477,174.316,0
1610547107.245,15.625,25.391,18.066,9.766,-210.449,0
1610547107.249,-234.863,29.297,18.066,-148.438,-874.023,0
1610547107.253,-144.531,25.391,14.648,-83.008,-1000.000,0
1610547107.257,174.316,17.090,10.742,124.023,-581.543,0
1610547107.261,336.426,16.602,11.719,195.801,108.887,0
1610547107.264,52.734,17.578,13.672,24.414,-100.586,0
1610547107.268,-227.051,23.926,19.531,-141.113,-784.180,0
1610547107.272,-166.504,26.855,18.555,-96.191,-1000.000,0
1610547107.276,130.859,8.301,7.812,94.727,-662.598,0
1610547107.280,335.449,3.418,7.324,198.730,88.379,0
1610547107.296,98.145,18.066,17.090,59.570,12.207,0
1610547107.300,-208.008,27.344,25.391,-130.859,-711.914,0
1610547107.304,-197.754,25.391,20.996,-124.512,-1000.000,0
1610547107.308,92.773,20.996,16.113,67.871,-719.727,0
1610547107.312,341.797,14.648,11.230,195.312,-1.953,0
1610547107.316,141.113,22.461,16.113,82.520,35.645,0
1610547107.320,-192.871,32.227,18.555,-123.535,-673.340,0
1610547107.323,-209.961,27.832,14.160,-140.625,-1000.000,0
1610547107.327,55.664,21.973,15.625,47.363,-785.156,0
1610547107.331,319.824,7.812,3.418,181.641,-71.289,0
1610547107.335,179.199,6.836,3.418,94.238,130.859,0
1610547107.339,-170.898,18.555,13.184,-107.422,-562.500,0
1610547107.341,-243.164,20.508,12.695,-159.180,-1000.000,0
1610547107.345,2.930,15.137,11.719,9.277,-828.613,0
1610547107.349,292.480,10.254,10.254,174.805,-137.207,0
1610547107.353,208.008,15.625,15.625,128.906,180.664,0
1610547107.357,-129.395,30.273,25.391,-68.848,-476.074,0
1610547107.361,-247.070,27.832,23.926,-160.645,-1000.000,0
1610547107.365,-40.527,13.184,15.625,-12.207,-875.000,0
1610547107.368,276.367,5.371,10.254,172.363,-218.262,0
1610547107.372,250.488,9.277,15.137,150.391,199.219,0
1610547107.376,-89.355,22.949,26.367,-49.805,-436.035,0
1610547107.380,-251.465,25.391,24.902,-164.551,-990.723,0
1610547107.384,-77.148,20.020,17.578,-32.715,-926.758,0
1610547107.386,258.301,13.184,12.207,160.156,-340.332,0
1610547107.390,282.715,11.230,15.625,159.668,204.102,0
1610547107.394,-53.223,20.996,27.344,-29.785,-328.613,0
1610547107.398,-249.023,23.926,23.926,-170.410,-946.777,0
1610547107.402,-108.398,25.879,19.043,-56.641,-966.309,0
1610547107.406,224.121,25.391,22.949,157.715,-464.355,0
1610547107.410,304.199,17.090,15.625,172.852,148.926,0
1610547107.413,-13.184,15.137,10.254,-18.555,-225.098,0
1610547107.417,-248.047,23.926,18.555,-173.340,-886.719,0
1610547107.421,-139.160,23.438,21.973,-89.355,-989.746,0
1610547107.425,186.523,11.719,14.160,123.047,-513.184,0
1610547107.429,321.777,12.207,18.555,185.547,174.805,0
1610547107.431,37.109,23.926,21.973,17.578,-125.000,0
1610547107.435,-227.539,30.762,19.043,-160.645,-828.125,0
1610547107.439,-156.250,32.227,23.438,-103.027,-1000.000,0
1610547107.443,142.090,16.113,12.207,99.121,-622.070,0
1610547107.447,325.195,1.465,1.465,182.617,92.285,0
1610547107.451,76.660,10.742,14.160,43.945,-51.270,0
1610547107.455,-239.258,21.484,19.531,-143.555,-746.582,0
1610547107.458,-214.844,20.508,18.555,-123.047,-1000.000,0
1610547107.462,88.379,12.207,16.602,76.172,-728.027,0
1610547107.466,322.754,5.859,8.301,188.965,13.672,0
1610547107.470,114.746,12.695,12.695,68.359,24.902,0
1610547107.474,-210.449,21.484,19.531,-129.883,-686.035,0
1610547107.483,-226.074,19.043,14.160,-131.836,-1000.000,0
1610547107.487,49.316,6.348,7.812,60.547,-776.367,0
1610547107.491,327.148,9.277,14.160,204.590,-31.250,0
1610547107.495,173.340,18.066,18.555,110.352,92.773,0
1610547107.499,-184.082,11.230,13.672,-118.652,-639.648,0
1610547107.503,-247.559,13.184,14.648,-154.785,-1000.000,0
1610547107.507,9.277,13.184,11.719,34.180,-810.059,0
1610547107.510,302.734,4.395,8.789,183.594,-138.184,0
1610547107.514,200.684,12.207,13.672,113.770,110.840,0
1610547107.518,-149.414,25.879,18.066,-91.797,-539.551,0
1610547107.522,-248.047,27.832,22.461,-160.156,-1000.000,0
1610547107.526,-9.277,30.273,24.902,17.090,-854.004,0
1610547107.521,299.805,19.043,11.719,185.547,-170.410,0
1610547107.525,235.840,10.254,10.742,132.324,193.848,0
1610547107.529,-104.492,21.484,23.926,-65.918,-444.824,0
1610547107.533,-235.352,26.367,25.391,-159.668,-984.375,0
1610547107.537,-57.129,20.996,20.508,-12.695,-911.133,0
1610547107.541,263.184,12.695,16.113,168.945,-294.922,0
1610547107.545,273.926,16.602,20.020,161.133,191.406,0
1610547107.548,-70.312,28.809,26.855,-28.320,-392.090,0
1610547107.552,-249.023,31.738,26.367,-165.039,-977.539,0
1610547107.556,-91.797,25.391,23.926,-48.340,-940.430,0
1610547107.560,242.676,22.461,24.902,162.598,-402.344,0
1610547107.564,310.059,21.973,27.344,175.781,169.434,0
1610547107.566,-30.273,19.531,24.414,-26.855,-272.461,0
1610547107.570,-254.883,24.902,24.414,-163.574,-908.691,0
1610547107.574,-123.047,24.414,25.391,-60.059,-993.652,0
1610547107.578,210.938,16.113,20.996,144.531,-514.648,0
1610547107.582,319.336,15.625,16.113,189.453,155.762,0
1610547107.586,19.043,20.508,19.531,6.348,-172.852,0
1610547107.590,-231.934,26.855,25.391,-158.203,-850.586,0
1610547107.593,-147.949,30.273,28.809,-83.008,-1000.000,0
1610547107.597,171.875,23.926,24.414,122.070,-587.402,0
1610547107.601,332.031,12.695,18.555,190.430,130.859,0
1610547107.605,62.988,15.625,20.996,45.898,-62.988,0
1610547107.609,-218.262,23.926,28.320,-120.117,-761.719,0
1610547107.611,-178.223,20.020,30.762,-91.797,-1000.000,0
1610547107.615,124.512,14.648,28.809,98.633,-667.480,0
1610547107.619,345.215,14.160,25.879,196.777,92.773,0
1610547107.623,115.234,17.578,24.414,67.383,40.527,0
1610547107.627,-198.730,24.414,29.297,-119.629,-690.918,0
1610547107.631,-194.824,27.832,32.227,-110.352,-1000.000,0
1610547107.635,87.891,23.926,31.738,82.520,-761.230,0
1610547107.638,340.820,22.461,33.691,213.867,-14.160,0
1610547107.642,157.227,20.996,33.203,105.957,86.426,0
1610547107.646,-181.641,22.949,35.645,-110.352,-630.371,0
1610547107.650,-218.262,26.367,35.156,-131.348,-1000.000,0
1610547107.654,46.875,19.531,29.785,50.781,-800.781,0
1610547107.671,332.520,15.625,28.320,189.941,-93.750,0
1610547107.675,197.266,17.090,31.250,114.258,149.902,0
1610547107.679,-156.738,24.902,42.480,-78.613,-536.621,0
1610547107.683,-237.305,28.320,44.434,-134.277,-1000.000,0
1610547107.687,-3.418,20.020,38.574,27.344,-845.215,0
1610547107.691,306.152,19.043,39.062,188.965,-163.086,0
1610547107.695,232.422,21.973,38.086,138.672,167.969,0
1610547107.698,-125.977,19.043,30.273,-72.266,-482.910,0
1610547107.702,-249.023,18.555,25.879,-158.691,-996.582,0
1610547107.706,-41.016,17.090,26.367,-6.836,-882.324,0
1610547107.710,275.879,10.254,21.973,175.293,-229.004,0
1610547107.714,259.277,11.719,20.020,153.809,224.609,0
1610547107.716,-82.520,23.438,29.785,-43.457,-379.395,0
1610547107.720,-250.000,25.879,28.320,-150.391,-968.262,0
1610547107.724,-75.195,19.043,20.996,-27.344,-945.312,0
1610547107.728,247.559,6.836,17.090,161.621,-361.816,0
1610547107.732,291.016,9.766,22.949,163.574,187.988,0
1610547107.736,-32.227,27.832,35.156,-17.578,-311.523,0
1610547107.740,-253.906,21.973,27.832,-155.762,-927.734,0
1610547107.743,-125.000,9.277,20.020,-63.477,-968.262,0
1610547107.747,212.402,6.836,22.949,143.066,-441.895,0
1610547107.751,307.617,7.324,18.066,176.758,160.645,0
1610547107.755,-1.465,12.695,19.043,-0.488,-223.145,0
1610547107.759,-245.117,18.555,28.320,-153.809,-876.465,0
1610547107.761,-144.531,18.555,31.738,-76.660,-1000.000,0
1610547107.765,177.734,9.277,24.902,127.441,-531.250,0
1610547107.769,318.848,8.301,23.438,186.523,176.270,0
1610547107.773,43.457,17.578,27.344,19.531,-98.633,0
1610547107.777,-224.121,24.414,28.320,-151.367,-796.387,0
1610547107.781,-170.898,20.508,22.949,-98.633,-1000.000,0
1610547107.785,142.090,16.602,20.020,106.445,-646.484,0
1610547107.788,348.633,15.625,24.902,198.242,111.816,0
1610547107.792,98.633,16.113,28.809,47.363,-52.246,0
1610547107.796,-216.797,19.531,31.250,-143.555,-777.832,0
1610547107.800,-202.637,12.695,30.273,-120.117,-1000.000,0
1610547107.804,89.844,5.371,26.367,79.102,-706.543,0
1610547107.806,330.566,5.371,22.949,192.383,32.715,0
1610547107.810,136.719,14.160,25.391,79.102,31.738,0
1610547107.814,-194.824,23.438,26.855,-112.793,-695.801,0
1610547107.818,-219.238,24.902,26.367,-121.094,-1000.000,0
1610547107.822,58.105,17.090,23.438,53.711,-771.973,0
1610547107.826,329.102,9.766,17.578,190.430,-34.180,0
1610547107.830,181.641,19.043,27.344,122.559,106.445,0
1610547107.833,-165.527,24.414,31.738,-87.891,-616.211,0
1610547107.837,-234.863,23.438,24.902,-150.391,-1000.000,0
1610547107.841,13.184,14.648,23.926,21.484,-828.613,0
1610547107.845,309.570,2.441,20.508,186.523,-132.324,0
1610547107.849,213.867,11.230,23.926,130.371,169.922,0
1610547107.851,-134.766,22.949,30.273,-81.055,-504.883,0
1610547107.855,-236.328,27.344,29.297,-151.855,-1000.000,0
1610547107.859,-16.113,19.043,28.320,9.766,-864.258,0
1610547107.863,297.852,12.695,29.297,185.547,-216.309,0
1610547107.867,255.371,19.531,27.832,153.320,169.922,0
1610547107.871,-91.309,26.855,34.668,-53.711,-457.031,0
1610547107.875,-249.023,26.855,37.598,-155.273,-988.281,0
1610547107.878,-69.336,21.973,31.738,-19.531,-920.410,0
1610547107.882,266.602,22.949,33.691,167.480,-351.562,0
1610547107.886,276.855,17.578,29.297,160.156,176.758,0
1610547107.890,-67.383,16.602,27.832,-34.668,-318.359,0
1610547107.894,-251.953,19.043,34.668,-157.227,-941.895,0
1610547107.897,-101.074,13.672,31.250,-48.340,-952.148,0
1610547107.901,229.980,11.719,26.367,144.043,-382.812,0
1610547107.905,303.223,15.625,28.809,169.434,202.637,0
1610547107.909,-14.160,25.391,35.156,-5.371,-231.445,0
1610547107.913,-240.234,29.785,37.109,-145.020,-888.184,0
1610547107.917,-125.000,27.832,36.621,-60.547,-982.422,0
1610547107.921,207.031,22.949,36.133,140.625,-488.770,0
1610547107.924,325.195,22.949,33.691,191.406,155.762,0
1610547107.928,29.785,23.926,30.762,20.996,-144.043,0
1610547107.932,-223.145,31.250,40.527,-137.207,-820.801,0
1610547107.936,-148.926,34.180,42.969,-80.078,-1000.000,0
1610547107.940,158.203,13.672,24.902,117.676,-613.770,0
1610547107.943,331.055,1.465,20.508,196.777,129.395,0
1610547107.947,79.590,16.113,24.902,48.340,-37.598,0
1610547107.951,-212.891,30.273,28.320,-123.047,-748.535,0
1610547107.955,-181.641,27.832,33.203,-106.934,-1000.000,0
1610547107.959,118.164,20.508,29.297,80.566,-688.477,0
1610547107.963,339.355,17.578,29.785,194.824,43.457,0
1610547107.967,120.117,23.926,37.109,69.336,-9.766,0
1610547107.970,-202.637,30.762,37.109,-126.465,-720.703,0
1610547107.974,-202.148,28.320,33.691,-127.930,-1000.000,0
1610547107.978,83.984,26.855,28.809,72.266,-765.137,0
1610547107.982,338.379,20.020,19.531,205.078,-25.879,0
1610547107.986,170.898,22.461,27.344,96.191,107.422,0
1610547108.001,-165.039,35.645,36.621,-100.586,-618.164,0
1610547108.005,-222.168,32.227,27.344,-135.254,-1000.000,0
1610547108.009,27.832,20.508,20.020,41.992,-811.523,0
1610547108.013,312.012,13.672,17.090,197.754,-104.004,0
1610547108.017,196.777,20.508,19.531,126.465,125.000,0
1610547108.021,-147.461,28.320,26.367,-75.684,-569.824,0
1610547108.025,-232.422,31.250,27.832,-147.949,-1000.000,0
1610547108.028,-8.301,20.508,20.996,7.324,-858.398,0
1610547108.032,297.363,8.301,17.578,184.082,-192.871,0
1610547108.036,238.770,17.090,21.973,138.184,165.039,0
1610547108.040,-118.164,23.926,25.391,-62.500,-478.027,0
1610547108.044,-251.465,23.926,25.879,-154.785,-993.652,0
1610547108.047,-48.340,19.043,20.020,-21.484,-904.785,0
1610547108.051,274.902,17.578,15.137,164.551,-269.043,0
1610547108.055,272.461,20.996,19.043,149.414,212.891,0
1610547108.059,-71.777,22.461,20.020,-47.852,-373.535,0
1610547108.063,-249.512,23.438,19.531,-164.551,-965.820,0
1610547108.067,-82.520,20.996,19.043,-46.875,-922.852,0
1610547108.071,243.652,16.113,16.602,154.785,-369.629,0
1610547108.074,289.551,14.160,8.789,162.109,171.875,0
1610547108.078,-35.645,20.508,12.695,-22.949,-266.113,0
1610547108.082,-248.535,27.832,22.949,-153.320,-906.738,0
1610547108.086,-129.883,23.438,21.484,-62.988,-979.980,0
1610547108.090,202.637,11.230,18.066,137.695,-476.074,0
1610547108.091,312.012,14.160,18.555,180.176,166.504,0
1610547108.095,-4.395,20.996,20.996,14.160,-184.082,0
1610547108.099,-246.094,29.785,27.344,-143.066,-861.816,0
1610547108.103,-148.926,31.738,24.902,-74.219,-1000.000,0
1610547108.107,155.273,11.719,10.742,125.488,-554.688,0
1610547108.111,305.664,5.371,9.277,187.012,153.320,0
1610547108.115,38.086,15.625,11.719,26.855,-95.215,0
1610547108.118,-240.234,22.949,9.277,-155.762,-803.711,0
1610547108.122,-182.617,22.949,11.719,-109.375,-1000.000,0
1610547108.126,127.930,18.555,13.672,98.633,-694.336,0
1610547108.130,332.520,11.719,1.953,187.500,42.480,0
1610547108.134,88.379,14.160,1.953,42.969,-5.371,0
1610547108.136,-225.586,20.996,13.672,-142.578,-727.051,0
1610547108.140,-203.125,18.066,10.742,-124.023,-1000.000,0
1610547108.144,92.773,18.555,10.742,72.266,-736.328,0
1610547108.148,335.449,18.066,14.648,198.730,15.137,0
1610547108.152,136.719,11.719,6.348,85.449,86.914,0
1610547108.156,-197.266,14.648,7.812,-125.488,-642.578,0
1610547108.160,-227.051,15.625,14.160,-145.996,-1000.000,0
1610547108.163,40.039,10.742,13.184,40.527,-769.531,0
1610547108.167,318.359,14.648,11.719,185.547,-70.312,0
1610547108.171,179.199,20.508,12.207,99.609,73.730,0
1610547108.175,-163.574,25.391,14.648,-104.492,-609.863,0
1610547108.179,-237.305,25.879,10.254,-146.484,-1000.000,0
1610547108.181,4.883,19.531,4.883,21.973,-852.051,0
1610547108.185,313.965,11.719,1.465,177.734,-178.711,0
1610547108.189,219.238,15.137,6.348,131.836,156.738,0
1610547108.193,-142.578,24.902,13.672,-65.918,-520.020,0
1610547108.197,-249.023,24.414,12.207,-160.156,-1000.000,0
1610547108.201,-28.809,25.391,15.137,-2.441,-880.859,0
1610547108.205,292.480,20.020,12.695,183.594,-230.469,0
1610547108.208,253.418,13.184,3.906,145.020,188.965,0
1610547108.212,-98.145,20.508,4.395,-60.547,-436.523,0
1610547108.216,-250.977,23.926,3.418,-166.016,-988.281,0
1610547108.220,-76.172,15.625,0.977,-35.156,-915.039,0
1610547108.224,253.418,11.230,-0.488,155.273,-304.199,0
1610547108.228,281.250,14.648,-2.441,154.297,225.098,0
1610547108.232,-57.129,23.926,1.953,-35.645,-303.711,0
1610547108.236,-240.723,37.598,13.672,-149.414,-935.547,0
1610547108.240,-93.262,29.785,11.719,-37.598,-970.703,0
1610547108.244,220.215,7.812,0.977,145.996,-424.316,0
1610547108.248,294.922,5.859,2.930,171.387,201.660,0
1610547108.252,-12.695,15.137,10.254,-4.395,-211.426,0
1610547108.255,-245.605,21.484,12.207,-154.785,-882.324,0
1610547108.259,-144.531,19.043,11.719,-76.660,-995.117,0
1610547108.263,177.734,7.812,5.859,125.488,-507.812,0
1610547108.267,320.312,6.348,4.395,185.547,177.246,0
1610547108.271,36.133,16.602,8.301,9.277,-118.164,0
1610547108.271,-234.375,20.508,10.742,-162.109,-817.871,0
1610547108.275,-160.645,19.043,7.812,-99.609,-1000.000,0
1610547108.279,151.855,15.625,5.371,105.469,-607.422,0
1610547108.283,336.914,7.324,6.836,194.336,122.559,0
1610547108.287,90.332,13.672,9.766,45.898,-30.762,0
1610547108.291,-206.543,28.809,19.043,-128.418,-750.977,0
1610547108.295,-180.664,20.508,17.578,-100.098,-1000.000,0
1610547108.298,117.676,10.742,8.789,83.496,-714.844,0
1610547108.302,332.031,7.324,0.977,184.082,39.551,0
1610547108.306,122.070,9.766,2.441,61.523,68.848,0
1610547108.310,-194.824,19.043,5.859,-125.488,-669.922,0
1610547108.314,-203.125,22.461,12.695,-118.164,-1000.000,0
1610547108.317,68.359,17.090,17.090,74.707,-759.277,0
1610547108.321,322.266,8.301,10.742,188.477,-5.859,0
1610547108.325,167.480,15.137,13.672,90.332,126.953,0
1610547108.329,-168.457,28.320,23.438,-90.332,-597.656,0
1610547108.333,-225.098,24.414,18.555,-132.812,-1000.000,0
1610547108.337,25.391,11.230,7.324,35.156,-827.148,0
1610547108.341,312.500,8.789,6.348,187.988,-129.395,0
1610547108.344,207.520,15.137,6.836,108.887,136.230,0
1610547108.348,-145.020,21.973,11.230,-90.332,-533.203,0
1610547108.352,-243.652,25.391,15.137,-151.855,-1000.000,0
1610547108.356,-17.578,16.602,11.230,3.906,-851.562,0
1610547108.360,285.645,13.672,11.719,179.199,-182.617,0
1610547108.361,234.863,23.438,17.090,139.648,203.613,0
1610547108.365,-112.305,30.762,20.508,-61.035,-420.410,0
1610547108.369,-239.258,41.992,28.320,-148.438,-990.234,0
1610547108.373,-46.387,34.180,22.461,-4.395,-906.738,0
1610547108.377,263.672,15.137,8.789,166.504,-287.109,0
1610547108.381,265.625,17.090,12.695,141.113,185.547,0
1610547108.385,-71.777,28.320,21.484,-46.875,-387.207,0
1610547108.388,-252.441,28.320,20.996,-167.969,-968.750,0
1610547108.392,-87.402,22.949,21.484,-48.340,-952.148,0
1610547108.396,250.000,17.578,18.555,151.367,-397.461,0
1610547108.400,297.852,16.113,15.137,166.504,179.199,0
1610547108.404,-29.297,22.461,18.066,-9.277,-284.180,0
1610547108.407,-241.211,28.809,16.602,-155.273,-914.062,0
1610547108.411,-120.117,26.367,14.648,-60.059,-985.840,0
1610547108.415,211.914,21.973,17.090,147.949,-496.094,0
1610547108.419,328.613,21.973,17.578,183.594,178.223,0
1610547108.423,16.113,22.949,13.184,7.324,-147.949,0
1610547108.427,-239.258,25.879,16.602,-154.785,-848.633,0
1610547108.431,-157.227,22.949,17.090,-81.543,-1000.000,0
1610547108.434,157.227,9.277,9.766,112.793,-573.730,0
1610547108.438,328.613,7.812,10.254,187.012,128.906,0
1610547108.442,60.059,17.578,15.625,43.457,-110.352,0
1610547108.446,-233.398,22.461,19.531,-143.066,-804.199,0
1610547108.450,-186.035,20.996,19.531,-107.422,-1000.000,0
1610547108.466,127.441,15.137,16.602,93.262,-672.363,0
1610547108.470,334.473,14.160,15.137,188.477,58.594,0
1610547108.474,108.398,26.367,19.531,64.453,-12.695,0
1610547108.478,-203.125,28.809,21.973,-125.977,-714.355,0
1610547108.482,-205.566,17.090,15.625,-125.000,-1000.000,0
1610547108.486,76.660,13.672,5.859,64.453,-771.973,0
1610547108.490,323.730,5.371,0.977,179.199,-12.695,0
1610547108.493,145.020,9.277,10.254,79.590,112.793,0
1610547108.497,-187.500,27.344,20.996,-114.258,-629.395,0
1610547108.501,-222.168,30.762,17.578,-140.625,-1000.000,0
1610547108.505,37.598,21.484,11.719,37.598,-787.109,0
1610547108.509,310.059,13.184,5.859,183.105,-69.336,0
1610547108.511,188.965,20.508,11.719,112.793,150.391,0
1610547108.515,-149.902,35.156,24.414,-80.078,-552.246,0
1610547108.519,-241.699,27.344,16.602,-137.207,-1000.000,0
1610547108.523,-13.672,14.648,9.277,13.672,-838.379,0
1610547108.527,291.016,9.277,8.789,165.039,-151.367,0
1610547108.531,225.098,13.184,13.184,118.164,166.504,0
1610547108.535,-122.559,18.066,16.602,-74.219,-490.234,0
1610547108.538,-252.441,20.996,16.113,-157.715,-991.211,0
1610547108.542,-42.969,24.902,15.625,-11.230,-904.785,0
1610547108.546,278.320,19.043,8.789,165.527,-292.969,0
1610547108.550,256.348,16.602,5.371,146.973,178.711,0
1610547108.554,-83.008,24.902,11.719,-37.598,-387.695,0
1610547108.556,-237.793,35.645,20.996,-145.508,-968.262,0
1610547108.560,-66.895,32.715,19.531,-20.020,-933.594,0
1610547108.564,248.535,12.207,4.883,158.203,-347.168,0
1610547108.568,280.273,8.301,1.465,160.156,188.965,0
1610547108.572,-46.387,16.602,6.348,-21.973,-301.758,0
1610547108.576,-248.535,20.508,9.277,-164.551,-925.781,0
1610547108.580,-119.629,19.531,5.859,-63.477,-963.867,0
1610547108.583,215.332,16.113,-1.953,143.066,-442.871,0
1610547108.587,317.871,20.508,-1.465,171.387,142.578,0
1610547108.591,-1.465,22.461,6.836,-9.277,-245.605,0
1610547108.595,-243.652,24.902,14.648,-155.273,-882.324,0
1610547108.599,-139.160,27.344,8.789,-82.520,-998.535,0
1610547108.601,187.988,25.879,4.395,126.465,-521.484,0
1610547108.605,323.730,16.602,3.418,184.570,182.129,0
1610547108.609,38.574,18.066,5.859,16.602,-69.336,0
1610547108.613,-226.562,27.344,16.113,-139.160,-780.273,0
1610547108.617,-162.598,26.367,14.648,-90.332,-1000.000,0
1610547108.621,151.367,23.926,12.207,109.863,-636.230,0
1610547108.625,337.891,18.555,8.789,200.195,86.914,0
1610547108.628,91.797,24.902,13.184,69.824,-42.969,0
1610547108.632,-209.961,31.738,20.508,-119.141,-757.812,0
1610547108.636,-189.941,30.762,19.043,-107.910,-1000.000,0
1610547108.640,104.492,26.855,14.648,97.656,-723.145,0
1610547108.644,337.402,19.043,11.719,204.102,6.348,0
1610547108.646,143.066,23.926,18.066,77.637,53.223,0
1610547108.650,-179.688,33.691,29.785,-107.422,-646.973,0
1610547108.654,-204.590,30.762,24.902,-117.676,-1000.000,0
1610547108.658,59.082,20.508,11.719,62.500,-767.090,0
1610547108.662,316.406,14.648,4.883,196.289,-14.160,0
1610547108.666,164.062,18.555,8.301,108.398,118.164,0
1610547108.670,-163.574,28.809,20.996,-86.426,-616.699,0
1610547108.673,-229.004,32.227,23.438,-136.719,-1000.000,0
1610547108.677,17.090,22.949,11.719,22.949,-819.336,0
1610547108.681,324.219,18.066,7.812,184.570,-127.441,0
1610547108.685,219.727,26.367,16.113,126.465,152.344,0
1610547108.689,-136.230,28.320,20.508,-76.172,-523.438,0
1610547108.692,-232.910,30.762,23.926,-148.926,-1000.000,0
1610547108.696,-22.461,26.367,16.113,6.348,-862.305,0
1610547108.700,280.762,20.508,14.160,184.570,-211.914,0
1610547108.704,245.117,29.297,20.020,155.762,187.012,0
1610547108.708,-106.934,25.391,11.230,-56.152,-426.270,0
1610547108.712,-259.766,19.043,12.695,-165.039,-982.422,0
1610547108.716,-68.848,19.531,18.066,-22.949,-921.875,0
1610547108.719,259.277,14.160,8.789,156.738,-316.406,0
1610547108.723,268.066,8.789,0.977,146.973,205.566,0
1610547108.727,-67.383,17.578,9.766,-32.715,-315.430,0
1610547108.731,-250.977,25.879,18.555,-153.320,-932.129,0
1610547108.735,-97.656,21.973,13.672,-42.969,-959.473,0
1610547108.736,232.910,15.625,3.906,150.879,-407.715,0
1610547108.740,301.758,17.090,4.395,167.480,184.082,0
1610547108.744,-15.625,28.320,13.184,-3.418,-251.953,0
1610547108.748,-234.863,37.109,17.578,-144.043,-906.738,0
1610547108.752,-135.742,22.461,7.812,-62.012,-990.723,0
1610547108.756,177.246,5.859,-1.465,131.348,-486.816,0
1610547108.760,307.129,6.836,3.906,172.852,149.902,0
1610547108.763,18.066,13.672,9.277,7.324,-166.504,0
1610547108.767,-242.188,17.578,6.348,-155.762,-817.383,0
1610547108.771,-155.762,17.578,7.812,-88.379,-1000.000,0
1610547108.775,163.086,11.230,2.930,112.305,-600.586,0
1610547108.779,327.148,6.348,-0.977,187.500,132.812,0
1610547108.796,55.664,12.695,4.395,35.645,-31.250,0
1610547108.800,-236.328,22.461,8.301,-146.973,-750.000,0
1610547108.804,-189.941,22.949,11.719,-114.746,-1000.000,0
1610547108.808,113.770,15.625,11.230,83.008,-667.480,0
1610547108.812,326.660,9.766,-2.930,187.988,72.266,0
1610547108.816,104.004,13.672,2.441,61.523,11.719,0
